! Anritsu VNA Master:             	Model: MS2036C/10/77
! SN:             	1601066
! /bd0/18may07/256.ns.m9.txt
! Existing Calibration Information:
! TYPE:             	Current Settings	Active Cal Settings
! TIME:             	05/07/2018 03:21:58 PM	05/07/2018 03:13:55 PM
! INTERNAL TEMP:    	61.5 C	60.5 C
! # POINTS:         	500	500
! START FREQ:       	20.000 MHz	20.000 MHz
! STOP FREQ:        	120.000 MHz	120.000 MHz
! SOURCE POWER:     	High	High
! IFBW:             	50 Hz	50 Hz
! AVG FACTOR:       	  1 	  1 
! REF PLANE 1:      	0 mm	0 mm
! REF PLANE 2:      	0 mm	0 mm
! CAL TYPE:         	Full S11	Full S11
! CAL METHOD:       	SOLT	SOLT
! CAL LINE TYPE:    	Coax	Coax
! DUT PORT 1:       	K-Conn(F)	K-Conn(F)
! DUT PORT 2:       	K-Conn(F)	K-Conn(F)
! CAL STATUS:       	OK: Accuracy High	--
! PROP-V:       	0.700
! CABLE LOSS:       	0.000 dB/m
! REF IMPEDANCE:       	50.0
! Trace Specific Parameters:	TR1	TR2	TR3	TR4
! TRACE.#.Y (GRAPH TYPE)	LOG MAG	PHASE	REAL IMPEDANCE	IMAGINARY IMPEDANCE
! TRACE.#.X 	FREQ.GHZ	FREQ.GHZ	FREQ.GHZ	FREQ.GHZ
! S-PARAMETER	S11	S11	S11	S11
! SMOOTH/APERTURE %	0	0	0	0
! WINDOW	NSL	NSL	NSL	NSL
! GATING	OFF	OFF	OFF	OFF
! FGTD	OFF	OFF	OFF	OFF
Marker Information per Trace:	TR1	TR2	TR3	TR4
!MK1	--	"MK1 TR2:  20.000 MHz,PH:-125.87°"	--	--
!MK2	--	--	"MK2 TR3:  70.100 200 MHz,Z:(17.007 ohm, -2.892 ohm)"	--
!MK3	--	--	--	--
!MK4	--	--	--	--
!MK5	--	--	--	--
!MK6	--	--	--	--
!MK7	--	--	--	--
!MK8	--	--	--	--
PNT	TR1.FREQ.GHZ	TR1.LOG MAG.dB	TR2.FREQ.GHZ	TR2.PHASE.deg	TR3.FREQ.GHZ	TR3.REAL IMPEDANCE.ohm	TR4.FREQ.GHZ	TR4.IMAGINARY IMPEDANCE.ohm
1	  0.020000000	-6.280000E-01	  0.020000000	-1.258700E+02	  0.020000000	2.281000E+00	  0.020000000	-2.550500E+01
2	  0.020200402	-6.280000E-01	  0.020200402	-1.273480E+02	  0.020200402	2.250000E+00	  0.020200402	-2.469900E+01
3	  0.020400802	-6.270000E-01	  0.020400802	-1.288150E+02	  0.020400802	2.219000E+00	  0.020400802	-2.390900E+01
4	  0.020601204	-6.330000E-01	  0.020601204	-1.302780E+02	  0.020601204	2.211000E+00	  0.020601204	-2.313000E+01
5	  0.020801604	-6.360000E-01	  0.020801604	-1.317880E+02	  0.020801604	2.196000E+00	  0.020801604	-2.233600E+01
6	  0.021002004	-6.420000E-01	  0.021002004	-1.333040E+02	  0.021002004	2.191000E+00	  0.021002004	-2.154700E+01
7	  0.021202406	-6.500000E-01	  0.021202406	-1.348310E+02	  0.021202406	2.193000E+00	  0.021202406	-2.076200E+01
8	  0.021402806	-6.550000E-01	  0.021402806	-1.363860E+02	  0.021402806	2.185000E+00	  0.021402806	-1.997200E+01
9	  0.021603208	-6.600000E-01	  0.021603208	-1.379280E+02	  0.021603208	2.179000E+00	  0.021603208	-1.919700E+01
10	  0.021803608	-6.640000E-01	  0.021803608	-1.394740E+02	  0.021803608	2.170000E+00	  0.021803608	-1.842700E+01
11	  0.022004008	-6.680000E-01	  0.022004008	-1.410140E+02	  0.022004008	2.162000E+00	  0.022004008	-1.766900E+01
12	  0.022204408	-6.750000E-01	  0.022204408	-1.425680E+02	  0.022204408	2.167000E+00	  0.022204408	-1.691000E+01
13	  0.022404809	-6.810000E-01	  0.022404809	-1.441420E+02	  0.022404809	2.166000E+00	  0.022404809	-1.614900E+01
14	  0.022605211	-6.870000E-01	  0.022605211	-1.457290E+02	  0.022605211	2.163000E+00	  0.022605211	-1.538900E+01
15	  0.022805611	-6.900000E-01	  0.022805611	-1.473380E+02	  0.022805611	2.157000E+00	  0.022805611	-1.462500E+01
16	  0.023006011	-6.910000E-01	  0.023006011	-1.489340E+02	  0.023006011	2.142000E+00	  0.023006011	-1.387300E+01
17	  0.023206413	-6.940000E-01	  0.023206413	-1.505450E+02	  0.023206413	2.136000E+00	  0.023206413	-1.312000E+01
18	  0.023406813	-6.960000E-01	  0.023406813	-1.521350E+02	  0.023406813	2.127000E+00	  0.023406813	-1.238200E+01
19	  0.023607215	-7.030000E-01	  0.023607215	-1.537190E+02	  0.023607215	2.134000E+00	  0.023607215	-1.165200E+01
20	  0.023807615	-7.100000E-01	  0.023807615	-1.553330E+02	  0.023807615	2.139000E+00	  0.023807615	-1.091200E+01
21	  0.024008015	-7.190000E-01	  0.024008015	-1.569590E+02	  0.024008015	2.154000E+00	  0.024008015	-1.017300E+01
22	  0.024208417	-7.290000E-01	  0.024208417	-1.586050E+02	  0.024208417	2.173000E+00	  0.024208417	-9.427000E+00
23	  0.024408817	-7.390000E-01	  0.024408817	-1.602650E+02	  0.024408817	2.191000E+00	  0.024408817	-8.680000E+00
24	  0.024609219	-7.470000E-01	  0.024609219	-1.619270E+02	  0.024609219	2.205000E+00	  0.024609219	-7.936000E+00
25	  0.024809619	-7.570000E-01	  0.024809619	-1.635940E+02	  0.024809619	2.223000E+00	  0.024809619	-7.193000E+00
26	  0.025010020	-7.700000E-01	  0.025010020	-1.652670E+02	  0.025010020	2.252000E+00	  0.025010020	-6.451000E+00
27	  0.025210422	-7.820000E-01	  0.025210422	-1.669460E+02	  0.025210422	2.280000E+00	  0.025210422	-5.708000E+00
28	  0.025410822	-7.960000E-01	  0.025410822	-1.686360E+02	  0.025410822	2.313000E+00	  0.025410822	-4.964000E+00
29	  0.025611224	-8.100000E-01	  0.025611224	-1.703430E+02	  0.025611224	2.349000E+00	  0.025611224	-4.214000E+00
30	  0.025811624	-8.240000E-01	  0.025811624	-1.720820E+02	  0.025811624	2.383000E+00	  0.025811624	-3.452000E+00
31	  0.026012026	-8.370000E-01	  0.026012026	-1.738320E+02	  0.026012026	2.414000E+00	  0.026012026	-2.687000E+00
32	  0.026212426	-8.490000E-01	  0.026212426	-1.755720E+02	  0.026212426	2.445000E+00	  0.026212426	-1.928000E+00
33	  0.026412826	-8.610000E-01	  0.026412826	-1.773210E+02	  0.026412826	2.479000E+00	  0.026412826	-1.165000E+00
34	  0.026613226	-8.760000E-01	  0.026613226	-1.790810E+02	  0.026613226	2.521000E+00	  0.026613226	-3.990000E-01
35	  0.026813626	-8.940000E-01	  0.026813626	1.791380E+02	  0.026813626	2.572000E+00	  0.026813626	3.740000E-01
36	  0.027014028	-9.090000E-01	  0.027014028	1.773620E+02	  0.027014028	2.617000E+00	  0.027014028	1.147000E+00
37	  0.027214428	-9.280000E-01	  0.027214428	1.755580E+02	  0.027214428	2.673000E+00	  0.027214428	1.933000E+00
38	  0.027414829	-9.430000E-01	  0.027414829	1.737450E+02	  0.027414829	2.721000E+00	  0.027414829	2.723000E+00
39	  0.027615231	-9.610000E-01	  0.027615231	1.719330E+02	  0.027615231	2.778000E+00	  0.027615231	3.514000E+00
40	  0.027815631	-9.800000E-01	  0.027815631	1.700970E+02	  0.027815631	2.841000E+00	  0.027815631	4.317000E+00
41	  0.028016033	-1.001000E+00	  0.028016033	1.682620E+02	  0.028016033	2.909000E+00	  0.028016033	5.122000E+00
42	  0.028216433	-1.022000E+00	  0.028216433	1.664180E+02	  0.028216433	2.981000E+00	  0.028216433	5.933000E+00
43	  0.028416833	-1.043000E+00	  0.028416833	1.645600E+02	  0.028416833	3.053000E+00	  0.028416833	6.752000E+00
44	  0.028617235	-1.062000E+00	  0.028617235	1.626960E+02	  0.028617235	3.124000E+00	  0.028617235	7.578000E+00
45	  0.028817635	-1.081000E+00	  0.028817635	1.608530E+02	  0.028817635	3.195000E+00	  0.028817635	8.399000E+00
46	  0.029018037	-1.100000E+00	  0.029018037	1.590200E+02	  0.029018037	3.271000E+00	  0.029018037	9.219000E+00
47	  0.029218437	-1.120000E+00	  0.029218437	1.571680E+02	  0.029218437	3.351000E+00	  0.029218437	1.005200E+01
48	  0.029418837	-1.143000E+00	  0.029418837	1.553470E+02	  0.029418837	3.441000E+00	  0.029418837	1.087600E+01
49	  0.029619239	-1.168000E+00	  0.029619239	1.534770E+02	  0.029619239	3.542000E+00	  0.029619239	1.172700E+01
50	  0.029819639	-1.195000E+00	  0.029819639	1.516010E+02	  0.029819639	3.655000E+00	  0.029819639	1.258700E+01
51	  0.030020041	-1.227000E+00	  0.030020041	1.497000E+02	  0.030020041	3.783000E+00	  0.030020041	1.346500E+01
52	  0.030220442	-1.257000E+00	  0.030220442	1.477630E+02	  0.030220442	3.911000E+00	  0.030220442	1.436700E+01
53	  0.030420844	-1.287000E+00	  0.030420844	1.458320E+02	  0.030420844	4.045000E+00	  0.030420844	1.527400E+01
54	  0.030621244	-1.318000E+00	  0.030621244	1.439080E+02	  0.030621244	4.187000E+00	  0.030621244	1.618600E+01
55	  0.030821644	-1.350000E+00	  0.030821644	1.419840E+02	  0.030821644	4.336000E+00	  0.030821644	1.710800E+01
56	  0.031022044	-1.385000E+00	  0.031022044	1.400540E+02	  0.031022044	4.500000E+00	  0.031022044	1.804100E+01
57	  0.031222444	-1.417000E+00	  0.031222444	1.381400E+02	  0.031222444	4.660000E+00	  0.031222444	1.897700E+01
58	  0.031422846	-1.452000E+00	  0.031422846	1.361560E+02	  0.031422846	4.840000E+00	  0.031422846	1.995900E+01
59	  0.031623244	-1.491000E+00	  0.031623244	1.341740E+02	  0.031623244	5.041000E+00	  0.031623244	2.095100E+01
60	  0.031823646	-1.530000E+00	  0.031823646	1.321590E+02	  0.031823646	5.251000E+00	  0.031823646	2.197300E+01
61	  0.032024048	-1.566000E+00	  0.032024048	1.301610E+02	  0.032024048	5.457000E+00	  0.032024048	2.300100E+01
62	  0.032224450	-1.603000E+00	  0.032224450	1.281330E+02	  0.032224450	5.679000E+00	  0.032224450	2.406000E+01
63	  0.032424849	-1.641000E+00	  0.032424849	1.261320E+02	  0.032424849	5.911000E+00	  0.032424849	2.512000E+01
64	  0.032625251	-1.676000E+00	  0.032625251	1.241240E+02	  0.032625251	6.145000E+00	  0.032625251	2.620200E+01
65	  0.032825653	-1.714000E+00	  0.032825653	1.221330E+02	  0.032825653	6.403000E+00	  0.032825653	2.729100E+01
66	  0.033026051	-1.752000E+00	  0.033026051	1.201100E+02	  0.033026051	6.674000E+00	  0.033026051	2.841600E+01
67	  0.033226453	-1.792000E+00	  0.033226453	1.181180E+02	  0.033226453	6.963000E+00	  0.033226453	2.954300E+01
68	  0.033426855	-1.839000E+00	  0.033426855	1.161300E+02	  0.033426855	7.291000E+00	  0.033426855	3.068400E+01
69	  0.033627257	-1.888000E+00	  0.033627257	1.141290E+02	  0.033627257	7.647000E+00	  0.033627257	3.185300E+01
70	  0.033827655	-1.940000E+00	  0.033827655	1.121140E+02	  0.033827655	8.035000E+00	  0.033827655	3.305100E+01
71	  0.034028057	-1.993000E+00	  0.034028057	1.100580E+02	  0.034028057	8.452000E+00	  0.034028057	3.429700E+01
72	  0.034228459	-2.041000E+00	  0.034228459	1.079690E+02	  0.034228459	8.875000E+00	  0.034228459	3.559200E+01
73	  0.034428857	-2.095000E+00	  0.034428857	1.058430E+02	  0.034428857	9.354000E+00	  0.034428857	3.693600E+01
74	  0.034629259	-2.142000E+00	  0.034629259	1.037200E+02	  0.034629259	9.828000E+00	  0.034629259	3.831300E+01
75	  0.034829661	-2.189000E+00	  0.034829661	1.016040E+02	  0.034829661	1.033000E+01	  0.034829661	3.971900E+01
76	  0.035030060	-2.236000E+00	  0.035030060	9.947400E+01	  0.035030060	1.086400E+01	  0.035030060	4.116900E+01
77	  0.035230462	-2.280000E+00	  0.035230462	9.735500E+01	  0.035230462	1.142100E+01	  0.035230462	4.264900E+01
78	  0.035430863	-2.325000E+00	  0.035430863	9.524800E+01	  0.035430863	1.201500E+01	  0.035430863	4.415800E+01
79	  0.035631265	-2.368000E+00	  0.035631265	9.314500E+01	  0.035631265	1.263500E+01	  0.035631265	4.570700E+01
80	  0.035831664	-2.410000E+00	  0.035831664	9.107800E+01	  0.035831664	1.329000E+01	  0.035831664	4.726900E+01
81	  0.036032066	-2.458000E+00	  0.036032066	8.901300E+01	  0.036032066	1.401500E+01	  0.036032066	4.886400E+01
82	  0.036232468	-2.500000E+00	  0.036232468	8.695400E+01	  0.036232468	1.476100E+01	  0.036232468	5.050500E+01
83	  0.036432866	-2.550000E+00	  0.036432866	8.488700E+01	  0.036432866	1.560600E+01	  0.036432866	5.218500E+01
84	  0.036633268	-2.599000E+00	  0.036633268	8.284800E+01	  0.036633268	1.649600E+01	  0.036633268	5.388800E+01
85	  0.036833670	-2.652000E+00	  0.036833670	8.080200E+01	  0.036833670	1.747900E+01	  0.036833670	5.563500E+01
86	  0.037034072	-2.711000E+00	  0.037034072	7.874300E+01	  0.037034072	1.857800E+01	  0.037034072	5.742600E+01
87	  0.037234470	-2.773000E+00	  0.037234470	7.666900E+01	  0.037234470	1.978100E+01	  0.037234470	5.927100E+01
88	  0.037434869	-2.841000E+00	  0.037434869	7.458800E+01	  0.037434869	2.112100E+01	  0.037434869	6.115200E+01
89	  0.037635271	-2.910000E+00	  0.037635271	7.249900E+01	  0.037635271	2.258300E+01	  0.037635271	6.307800E+01
90	  0.037835669	-2.983000E+00	  0.037835669	7.046900E+01	  0.037835669	2.415000E+01	  0.037835669	6.497200E+01
91	  0.038036071	-3.042000E+00	  0.038036071	6.845400E+01	  0.038036071	2.572900E+01	  0.038036071	6.693900E+01
92	  0.038236473	-3.092000E+00	  0.038236473	6.636500E+01	  0.038236473	2.741800E+01	  0.038236473	6.907100E+01
93	  0.038436871	-3.143000E+00	  0.038436871	6.424100E+01	  0.038436871	2.927900E+01	  0.038436871	7.129300E+01
94	  0.038637273	-3.195000E+00	  0.038637273	6.210900E+01	  0.038637273	3.132000E+01	  0.038637273	7.357200E+01
95	  0.038837675	-3.243000E+00	  0.038837675	6.000300E+01	  0.038837675	3.348900E+01	  0.038837675	7.589000E+01
96	  0.039038073	-3.285000E+00	  0.039038073	5.789900E+01	  0.039038073	3.579700E+01	  0.039038073	7.829500E+01
97	  0.039238475	-3.330000E+00	  0.039238475	5.583300E+01	  0.039238475	3.831100E+01	  0.039238475	8.066900E+01
98	  0.039438877	-3.378000E+00	  0.039438877	5.379200E+01	  0.039438877	4.103800E+01	  0.039438877	8.303300E+01
99	  0.039639279	-3.428000E+00	  0.039639279	5.174800E+01	  0.039639279	4.404300E+01	  0.039639279	8.539800E+01
100	  0.039839678	-3.483000E+00	  0.039839678	4.971600E+01	  0.039839678	4.734900E+01	  0.039839678	8.769800E+01
101	  0.040040080	-3.538000E+00	  0.040040080	4.766300E+01	  0.040040080	5.098300E+01	  0.040040080	9.000700E+01
102	  0.040240481	-3.598000E+00	  0.040240481	4.563000E+01	  0.040240481	5.495700E+01	  0.040240481	9.217700E+01
103	  0.040440880	-3.656000E+00	  0.040440880	4.354600E+01	  0.040440880	5.936800E+01	  0.040440880	9.434800E+01
104	  0.040641282	-3.714000E+00	  0.040641282	4.148000E+01	  0.040641282	6.413700E+01	  0.040641282	9.636200E+01
105	  0.040841684	-3.771000E+00	  0.040841684	3.940900E+01	  0.040841684	6.931800E+01	  0.040841684	9.823400E+01
106	  0.041042086	-3.823000E+00	  0.041042086	3.735900E+01	  0.041042086	7.485600E+01	  0.041042086	9.992800E+01
107	  0.041242484	-3.880000E+00	  0.041242484	3.529400E+01	  0.041242484	8.093400E+01	  0.041242484	1.012660E+02
108	  0.041442886	-3.933000E+00	  0.041442886	3.324300E+01	  0.041442886	8.741700E+01	  0.041442886	1.023000E+02
109	  0.041643288	-3.986000E+00	  0.041643288	3.117800E+01	  0.041643288	9.443600E+01	  0.041643288	1.028690E+02
110	  0.041843686	-4.036000E+00	  0.041843686	2.910100E+01	  0.041843686	1.019600E+02	  0.041843686	1.029740E+02
111	  0.042044088	-4.086000E+00	  0.042044088	2.706100E+01	  0.042044088	1.098100E+02	  0.042044088	1.023650E+02
112	  0.042244490	-4.135000E+00	  0.042244490	2.503300E+01	  0.042244490	1.180060E+02	  0.042244490	1.010200E+02
113	  0.042444889	-4.183000E+00	  0.042444889	2.303200E+01	  0.042444889	1.264050E+02	  0.042444889	9.882100E+01
114	  0.042645290	-4.231000E+00	  0.042645290	2.102300E+01	  0.042645290	1.350410E+02	  0.042645290	9.561600E+01
115	  0.042845692	-4.279000E+00	  0.042845692	1.903700E+01	  0.042845692	1.436270E+02	  0.042845692	9.135300E+01
116	  0.043046094	-4.330000E+00	  0.043046094	1.705200E+01	  0.043046094	1.520390E+02	  0.043046094	8.583200E+01
117	  0.043246493	-4.376000E+00	  0.043246493	1.505400E+01	  0.043246493	1.602280E+02	  0.043246493	7.920300E+01
118	  0.043446895	-4.420000E+00	  0.043446895	1.307200E+01	  0.043446895	1.678530E+02	  0.043446895	7.147900E+01
119	  0.043647297	-4.466000E+00	  0.043647297	1.109700E+01	  0.043647297	1.745830E+02	  0.043647297	6.255700E+01
120	  0.043847695	-4.512000E+00	  0.043847695	9.132000E+00	  0.043847695	1.802510E+02	  0.043847695	5.267000E+01
121	  0.044048097	-4.559000E+00	  0.044048097	7.168000E+00	  0.044048097	1.846030E+02	  0.044048097	4.192400E+01
122	  0.044248499	-4.605000E+00	  0.044248499	5.210000E+00	  0.044248499	1.875940E+02	  0.044248499	3.067000E+01
123	  0.044448901	-4.652000E+00	  0.044448901	3.263000E+00	  0.044448901	1.890650E+02	  0.044448901	1.916400E+01
124	  0.044649299	-4.696000E+00	  0.044649299	1.334000E+00	  0.044649299	1.891040E+02	  0.044649299	7.762000E+00
125	  0.044849701	-4.739000E+00	  0.044849701	-5.730000E-01	  0.044849701	1.877250E+02	  0.044849701	-3.277000E+00
126	  0.045050103	-4.781000E+00	  0.045050103	-2.495000E+00	  0.045050103	1.850810E+02	  0.045050103	-1.392500E+01
127	  0.045250501	-4.819000E+00	  0.045250501	-4.422000E+00	  0.045250501	1.813920E+02	  0.045250501	-2.395600E+01
128	  0.045450903	-4.859000E+00	  0.045450903	-6.314000E+00	  0.045450903	1.767190E+02	  0.045450903	-3.299400E+01
129	  0.045651305	-4.895000E+00	  0.045651305	-8.209000E+00	  0.045651305	1.713280E+02	  0.045651305	-4.119200E+01
130	  0.045851704	-4.936000E+00	  0.045851704	-1.007500E+01	  0.045851704	1.652940E+02	  0.045851704	-4.823900E+01
131	  0.046052106	-4.976000E+00	  0.046052106	-1.194000E+01	  0.046052106	1.588960E+02	  0.046052106	-5.435000E+01
132	  0.046252504	-5.015000E+00	  0.046252504	-1.380400E+01	  0.046252504	1.522900E+02	  0.046252504	-5.956000E+01
133	  0.046452906	-5.054000E+00	  0.046452906	-1.565700E+01	  0.046452906	1.456260E+02	  0.046452906	-6.386700E+01
134	  0.046653304	-5.094000E+00	  0.046653304	-1.751000E+01	  0.046653304	1.389670E+02	  0.046653304	-6.735100E+01
135	  0.046853706	-5.131000E+00	  0.046853706	-1.934500E+01	  0.046853706	1.325140E+02	  0.046853706	-7.015200E+01
136	  0.047054108	-5.169000E+00	  0.047054108	-2.117000E+01	  0.047054108	1.262380E+02	  0.047054108	-7.225500E+01
137	  0.047254506	-5.202000E+00	  0.047254506	-2.299200E+01	  0.047254506	1.202290E+02	  0.047254506	-7.390500E+01
138	  0.047454908	-5.237000E+00	  0.047454908	-2.478600E+01	  0.047454908	1.145270E+02	  0.047454908	-7.500300E+01
139	  0.047655310	-5.266000E+00	  0.047655310	-2.658000E+01	  0.047655310	1.091020E+02	  0.047655310	-7.578600E+01
140	  0.047855709	-5.298000E+00	  0.047855709	-2.834100E+01	  0.047855709	1.040150E+02	  0.047855709	-7.613900E+01
141	  0.048056111	-5.329000E+00	  0.048056111	-3.006900E+01	  0.048056111	9.926900E+01	  0.048056111	-7.619100E+01
142	  0.048256513	-5.362000E+00	  0.048256513	-3.181100E+01	  0.048256513	9.474100E+01	  0.048256513	-7.597400E+01
143	  0.048456915	-5.390000E+00	  0.048456915	-3.355100E+01	  0.048456915	9.046600E+01	  0.048456915	-7.561500E+01
144	  0.048657313	-5.425000E+00	  0.048657313	-3.527400E+01	  0.048657313	8.647400E+01	  0.048657313	-7.498200E+01
145	  0.048857715	-5.450000E+00	  0.048857715	-3.698300E+01	  0.048857715	8.273100E+01	  0.048857715	-7.434100E+01
146	  0.049058117	-5.479000E+00	  0.049058117	-3.873300E+01	  0.049058117	7.912700E+01	  0.049058117	-7.350400E+01
147	  0.049258515	-5.508000E+00	  0.049258515	-4.043500E+01	  0.049258515	7.582400E+01	  0.049258515	-7.258600E+01
148	  0.049458917	-5.532000E+00	  0.049458917	-4.214000E+01	  0.049458917	7.269900E+01	  0.049458917	-7.163400E+01
149	  0.049659319	-5.560000E+00	  0.049659319	-4.385200E+01	  0.049659319	6.975200E+01	  0.049659319	-7.056600E+01
150	  0.049859721	-5.588000E+00	  0.049859721	-4.550200E+01	  0.049859721	6.708100E+01	  0.049859721	-6.947400E+01
151	  0.050060119	-5.614000E+00	  0.050060119	-4.718800E+01	  0.050060119	6.450200E+01	  0.050060119	-6.833900E+01
152	  0.050260521	-5.636000E+00	  0.050260521	-4.886700E+01	  0.050260521	6.206400E+01	  0.050260521	-6.722000E+01
153	  0.050460923	-5.662000E+00	  0.050460923	-5.052800E+01	  0.050460923	5.980900E+01	  0.050460923	-6.603800E+01
154	  0.050661322	-5.679000E+00	  0.050661322	-5.219700E+01	  0.050661322	5.763200E+01	  0.050661322	-6.492000E+01
155	  0.050861724	-5.697000E+00	  0.050861724	-5.383400E+01	  0.050861724	5.562300E+01	  0.050861724	-6.378500E+01
156	  0.051062126	-5.714000E+00	  0.051062126	-5.547100E+01	  0.051062126	5.371700E+01	  0.051062126	-6.264400E+01
157	  0.051262524	-5.731000E+00	  0.051262524	-5.706900E+01	  0.051262524	5.195700E+01	  0.051262524	-6.152400E+01
158	  0.051462926	-5.748000E+00	  0.051462926	-5.864500E+01	  0.051462926	5.031300E+01	  0.051462926	-6.041000E+01
159	  0.051663328	-5.763000E+00	  0.051663328	-6.018600E+01	  0.051663328	4.877900E+01	  0.051663328	-5.933400E+01
160	  0.051863730	-5.777000E+00	  0.051863730	-6.174200E+01	  0.051863730	4.730500E+01	  0.051863730	-5.825000E+01
161	  0.052064128	-5.797000E+00	  0.052064128	-6.327800E+01	  0.052064128	4.594600E+01	  0.052064128	-5.714800E+01
162	  0.052264530	-5.814000E+00	  0.052264530	-6.479300E+01	  0.052264530	4.466000E+01	  0.052264530	-5.608200E+01
163	  0.052464932	-5.830000E+00	  0.052464932	-6.632000E+01	  0.052464932	4.342300E+01	  0.052464932	-5.502100E+01
164	  0.052665330	-5.848000E+00	  0.052665330	-6.784900E+01	  0.052665330	4.225600E+01	  0.052665330	-5.395000E+01
165	  0.052865732	-5.866000E+00	  0.052865732	-6.934300E+01	  0.052865732	4.116500E+01	  0.052865732	-5.292000E+01
166	  0.053066134	-5.883000E+00	  0.053066134	-7.086400E+01	  0.053066134	4.010800E+01	  0.053066134	-5.187800E+01
167	  0.053266536	-5.899000E+00	  0.053266536	-7.236200E+01	  0.053266536	3.910900E+01	  0.053266536	-5.087000E+01
168	  0.053466935	-5.915000E+00	  0.053466935	-7.386200E+01	  0.053466935	3.815400E+01	  0.053466935	-4.987200E+01
169	  0.053667337	-5.927000E+00	  0.053667337	-7.534600E+01	  0.053667337	3.723700E+01	  0.053667337	-4.891000E+01
170	  0.053867739	-5.938000E+00	  0.053867739	-7.686400E+01	  0.053867739	3.634000E+01	  0.053867739	-4.793800E+01
171	  0.054068137	-5.947000E+00	  0.054068137	-7.833500E+01	  0.054068137	3.550000E+01	  0.054068137	-4.701300E+01
172	  0.054268539	-5.957000E+00	  0.054268539	-7.978600E+01	  0.054268539	3.471300E+01	  0.054268539	-4.610400E+01
173	  0.054468941	-5.966000E+00	  0.054468941	-8.124100E+01	  0.054468941	3.395200E+01	  0.054468941	-4.520700E+01
174	  0.054669339	-5.975000E+00	  0.054669339	-8.265700E+01	  0.054669339	3.324400E+01	  0.054669339	-4.434100E+01
175	  0.054869737	-5.987000E+00	  0.054869737	-8.408400E+01	  0.054869737	3.257000E+01	  0.054869737	-4.346900E+01
176	  0.055070139	-5.997000E+00	  0.055070139	-8.547200E+01	  0.055070139	3.193300E+01	  0.055070139	-4.263600E+01
177	  0.055270538	-6.008000E+00	  0.055270538	-8.685300E+01	  0.055270538	3.133100E+01	  0.055270538	-4.181100E+01
178	  0.055470940	-6.019000E+00	  0.055470940	-8.826000E+01	  0.055470940	3.074400E+01	  0.055470940	-4.097800E+01
179	  0.055671342	-6.031000E+00	  0.055671342	-8.964100E+01	  0.055671342	3.019100E+01	  0.055671342	-4.016900E+01
180	  0.055871744	-6.040000E+00	  0.055871744	-9.104100E+01	  0.055871744	2.964200E+01	  0.055871744	-3.936600E+01
181	  0.056072142	-6.051000E+00	  0.056072142	-9.241600E+01	  0.056072142	2.913200E+01	  0.056072142	-3.858000E+01
182	  0.056272544	-6.061000E+00	  0.056272544	-9.378600E+01	  0.056272544	2.864000E+01	  0.056272544	-3.780800E+01
183	  0.056472946	-6.071000E+00	  0.056472946	-9.518100E+01	  0.056472946	2.815800E+01	  0.056472946	-3.703100E+01
184	  0.056673344	-6.081000E+00	  0.056673344	-9.658800E+01	  0.056673344	2.769300E+01	  0.056673344	-3.625400E+01
185	  0.056873746	-6.085000E+00	  0.056873746	-9.794400E+01	  0.056873746	2.723800E+01	  0.056873746	-3.552800E+01
186	  0.057074148	-6.094000E+00	  0.057074148	-9.931500E+01	  0.057074148	2.681400E+01	  0.057074148	-3.478900E+01
187	  0.057274550	-6.095000E+00	  0.057274550	-1.006800E+02	  0.057274550	2.638300E+01	  0.057274550	-3.407600E+01
188	  0.057474948	-6.095000E+00	  0.057474948	-1.020300E+02	  0.057474948	2.596800E+01	  0.057474948	-3.338000E+01
189	  0.057675350	-6.098000E+00	  0.057675350	-1.033470E+02	  0.057675350	2.558600E+01	  0.057675350	-3.270200E+01
190	  0.057875752	-6.101000E+00	  0.057875752	-1.046790E+02	  0.057875752	2.521200E+01	  0.057875752	-3.202200E+01
191	  0.058076151	-6.101000E+00	  0.058076151	-1.059920E+02	  0.058076151	2.485000E+01	  0.058076151	-3.136100E+01
192	  0.058276553	-6.102000E+00	  0.058276553	-1.072550E+02	  0.058276553	2.451600E+01	  0.058276553	-3.073000E+01
193	  0.058476955	-6.104000E+00	  0.058476955	-1.085370E+02	  0.058476955	2.419000E+01	  0.058476955	-3.009400E+01
194	  0.058677353	-6.105000E+00	  0.058677353	-1.097640E+02	  0.058677353	2.388500E+01	  0.058677353	-2.949100E+01
195	  0.058877755	-6.110000E+00	  0.058877755	-1.110450E+02	  0.058877755	2.359300E+01	  0.058877755	-2.885900E+01
196	  0.059078157	-6.111000E+00	  0.059078157	-1.122900E+02	  0.059078157	2.330600E+01	  0.059078157	-2.825600E+01
197	  0.059278559	-6.113000E+00	  0.059278559	-1.135230E+02	  0.059278559	2.303300E+01	  0.059278559	-2.766300E+01
198	  0.059478957	-6.119000E+00	  0.059478957	-1.147740E+02	  0.059478957	2.277600E+01	  0.059478957	-2.706000E+01
199	  0.059679359	-6.122000E+00	  0.059679359	-1.160290E+02	  0.059679359	2.252000E+01	  0.059679359	-2.646400E+01
200	  0.059879761	-6.126000E+00	  0.059879761	-1.172540E+02	  0.059879761	2.228300E+01	  0.059879761	-2.588400E+01
201	  0.060080159	-6.131000E+00	  0.060080159	-1.184770E+02	  0.060080159	2.205500E+01	  0.060080159	-2.531000E+01
202	  0.060280561	-6.132000E+00	  0.060280561	-1.196970E+02	  0.060280561	2.182500E+01	  0.060280561	-2.474500E+01
203	  0.060480963	-6.138000E+00	  0.060480963	-1.209280E+02	  0.060480963	2.161400E+01	  0.060480963	-2.417300E+01
204	  0.060681365	-6.141000E+00	  0.060681365	-1.221460E+02	  0.060681365	2.140700E+01	  0.060681365	-2.361500E+01
205	  0.060881764	-6.145000E+00	  0.060881764	-1.233420E+02	  0.060881764	2.121000E+01	  0.060881764	-2.307000E+01
206	  0.061082166	-6.147000E+00	  0.061082166	-1.245530E+02	  0.061082166	2.101200E+01	  0.061082166	-2.252400E+01
207	  0.061282568	-6.154000E+00	  0.061282568	-1.257440E+02	  0.061282568	2.084000E+01	  0.061282568	-2.198400E+01
208	  0.061482966	-6.150000E+00	  0.061482966	-1.269140E+02	  0.061482966	2.064400E+01	  0.061482966	-2.146900E+01
209	  0.061683368	-6.155000E+00	  0.061683368	-1.280610E+02	  0.061683368	2.048300E+01	  0.061683368	-2.095900E+01
210	  0.061883770	-6.159000E+00	  0.061883770	-1.292580E+02	  0.061883770	2.031700E+01	  0.061883770	-2.043000E+01
211	  0.062084168	-6.169000E+00	  0.062084168	-1.303910E+02	  0.062084168	2.018500E+01	  0.062084168	-1.992700E+01
212	  0.062284570	-6.173000E+00	  0.062284570	-1.315370E+02	  0.062284570	2.003800E+01	  0.062284570	-1.942700E+01
213	  0.062484972	-6.170000E+00	  0.062484972	-1.325770E+02	  0.062484972	1.989200E+01	  0.062484972	-1.898100E+01
214	  0.062685370	-6.178000E+00	  0.062685370	-1.337480E+02	  0.062685370	1.976300E+01	  0.062685370	-1.847100E+01
215	  0.062885776	-6.187000E+00	  0.062885776	-1.348820E+02	  0.062885776	1.964400E+01	  0.062885776	-1.798000E+01
216	  0.063086174	-6.196000E+00	  0.063086174	-1.359900E+02	  0.063086174	1.953700E+01	  0.063086174	-1.750300E+01
217	  0.063286573	-6.207000E+00	  0.063286573	-1.371540E+02	  0.063286573	1.942900E+01	  0.063286573	-1.700400E+01
218	  0.063486971	-6.207000E+00	  0.063486971	-1.382760E+02	  0.063486971	1.930200E+01	  0.063486971	-1.653200E+01
219	  0.063687377	-6.215000E+00	  0.063687377	-1.393690E+02	  0.063687377	1.920400E+01	  0.063687377	-1.607000E+01
220	  0.063887775	-6.216000E+00	  0.063887775	-1.404700E+02	  0.063887775	1.909100E+01	  0.063887775	-1.561100E+01
221	  0.064088173	-6.220000E+00	  0.064088173	-1.415630E+02	  0.064088173	1.899100E+01	  0.064088173	-1.515500E+01
222	  0.064288579	-6.219000E+00	  0.064288579	-1.426860E+02	  0.064288579	1.887600E+01	  0.064288579	-1.469300E+01
223	  0.064488977	-6.220000E+00	  0.064488977	-1.437460E+02	  0.064488977	1.877900E+01	  0.064488977	-1.425600E+01
224	  0.064689375	-6.219000E+00	  0.064689375	-1.448040E+02	  0.064689375	1.867800E+01	  0.064689375	-1.382300E+01
225	  0.064889781	-6.218000E+00	  0.064889781	-1.458670E+02	  0.064889781	1.858300E+01	  0.064889781	-1.339000E+01
226	  0.065090179	-6.214000E+00	  0.065090179	-1.468880E+02	  0.065090179	1.848500E+01	  0.065090179	-1.297700E+01
227	  0.065290578	-6.213000E+00	  0.065290578	-1.479160E+02	  0.065290578	1.839600E+01	  0.065290578	-1.256100E+01
228	  0.065490983	-6.208000E+00	  0.065490983	-1.489640E+02	  0.065490983	1.830000E+01	  0.065490983	-1.214000E+01
229	  0.065691382	-6.197000E+00	  0.065691382	-1.500000E+02	  0.065691382	1.819300E+01	  0.065691382	-1.172800E+01
230	  0.065891780	-6.194000E+00	  0.065891780	-1.510330E+02	  0.065891780	1.811000E+01	  0.065891780	-1.131400E+01
231	  0.066092186	-6.187000E+00	  0.066092186	-1.520770E+02	  0.066092186	1.801700E+01	  0.066092186	-1.089900E+01
232	  0.066292584	-6.180000E+00	  0.066292584	-1.531140E+02	  0.066292584	1.793000E+01	  0.066292584	-1.048700E+01
233	  0.066492982	-6.176000E+00	  0.066492982	-1.541580E+02	  0.066492982	1.785200E+01	  0.066492982	-1.007200E+01
234	  0.066693388	-6.172000E+00	  0.066693388	-1.551800E+02	  0.066693388	1.778000E+01	  0.066693388	-9.667000E+00
235	  0.066893786	-6.166000E+00	  0.066893786	-1.561930E+02	  0.066893786	1.770400E+01	  0.066893786	-9.267000E+00
236	  0.067094192	-6.164000E+00	  0.067094192	-1.572440E+02	  0.067094192	1.763900E+01	  0.067094192	-8.852000E+00
237	  0.067294590	-6.153000E+00	  0.067294590	-1.582680E+02	  0.067294590	1.755700E+01	  0.067294590	-8.451000E+00
238	  0.067494988	-6.154000E+00	  0.067494988	-1.593180E+02	  0.067494988	1.750800E+01	  0.067494988	-8.036000E+00
239	  0.067695394	-6.151000E+00	  0.067695394	-1.603280E+02	  0.067695394	1.745000E+01	  0.067695394	-7.640000E+00
240	  0.067895792	-6.145000E+00	  0.067895792	-1.613710E+02	  0.067895792	1.738900E+01	  0.067895792	-7.231000E+00
241	  0.068096191	-6.139000E+00	  0.068096191	-1.624000E+02	  0.068096191	1.732700E+01	  0.068096191	-6.829000E+00
242	  0.068296596	-6.142000E+00	  0.068296596	-1.634470E+02	  0.068296596	1.729400E+01	  0.068296596	-6.418000E+00
243	  0.068496995	-6.139000E+00	  0.068496995	-1.644560E+02	  0.068496995	1.725000E+01	  0.068496995	-6.024000E+00
244	  0.068697393	-6.137000E+00	  0.068697393	-1.654630E+02	  0.068697393	1.720900E+01	  0.068697393	-5.632000E+00
245	  0.068897791	-6.131000E+00	  0.068897791	-1.664830E+02	  0.068897791	1.716000E+01	  0.068897791	-5.235000E+00
246	  0.069098189	-6.130000E+00	  0.069098189	-1.674740E+02	  0.069098189	1.712700E+01	  0.069098189	-4.849000E+00
247	  0.069298595	-6.127000E+00	  0.069298595	-1.685110E+02	  0.069298595	1.709000E+01	  0.069298595	-4.447000E+00
248	  0.069498993	-6.125000E+00	  0.069498993	-1.694920E+02	  0.069498993	1.706200E+01	  0.069498993	-4.066000E+00
249	  0.069699399	-6.128000E+00	  0.069699399	-1.704980E+02	  0.069699399	1.704500E+01	  0.069699399	-3.675000E+00
250	  0.069899797	-6.122000E+00	  0.069899797	-1.715240E+02	  0.069899797	1.701000E+01	  0.069899797	-3.278000E+00
251	  0.070100196	-6.128000E+00	  0.070100196	-1.725180E+02	  0.070100196	1.700700E+01	  0.070100196	-2.892000E+00
252	  0.070300601	-6.131000E+00	  0.070300601	-1.734720E+02	  0.070300601	1.699900E+01	  0.070300601	-2.522000E+00
253	  0.070501000	-6.124000E+00	  0.070501000	-1.744770E+02	  0.070501000	1.696600E+01	  0.070501000	-2.134000E+00
254	  0.070701398	-6.126000E+00	  0.070701398	-1.754930E+02	  0.070701398	1.695900E+01	  0.070701398	-1.741000E+00
255	  0.070901804	-6.121000E+00	  0.070901804	-1.764650E+02	  0.070901804	1.693900E+01	  0.070901804	-1.365000E+00
256	  0.071102202	-6.120000E+00	  0.071102202	-1.774380E+02	  0.071102202	1.692900E+01	  0.071102202	-9.890000E-01
257	  0.071302600	-6.123000E+00	  0.071302600	-1.784240E+02	  0.071302600	1.693200E+01	  0.071302600	-6.080000E-01
258	  0.071503006	-6.125000E+00	  0.071503006	-1.794110E+02	  0.071503006	1.693400E+01	  0.071503006	-2.270000E-01
259	  0.071703404	-6.128000E+00	  0.071703404	1.795930E+02	  0.071703404	1.694200E+01	  0.071703404	1.570000E-01
260	  0.071903802	-6.130000E+00	  0.071903802	1.786450E+02	  0.071903802	1.694800E+01	  0.071903802	5.230000E-01
261	  0.072104208	-6.135000E+00	  0.072104208	1.776620E+02	  0.072104208	1.696500E+01	  0.072104208	9.020000E-01
262	  0.072304606	-6.132000E+00	  0.072304606	1.766890E+02	  0.072304606	1.696500E+01	  0.072304606	1.278000E+00
263	  0.072505005	-6.138000E+00	  0.072505005	1.757390E+02	  0.072505005	1.698900E+01	  0.072505005	1.645000E+00
264	  0.072705410	-6.140000E+00	  0.072705410	1.747880E+02	  0.072705410	1.700400E+01	  0.072705410	2.012000E+00
265	  0.072905809	-6.143000E+00	  0.072905809	1.738170E+02	  0.072905809	1.702300E+01	  0.072905809	2.388000E+00
266	  0.073106214	-6.149000E+00	  0.073106214	1.728470E+02	  0.073106214	1.705300E+01	  0.073106214	2.762000E+00
267	  0.073306613	-6.152000E+00	  0.073306613	1.719000E+02	  0.073306613	1.707700E+01	  0.073306613	3.128000E+00
268	  0.073507011	-6.153000E+00	  0.073507011	1.709500E+02	  0.073507011	1.710000E+01	  0.073507011	3.496000E+00
269	  0.073707417	-6.161000E+00	  0.073707417	1.699920E+02	  0.073707417	1.714200E+01	  0.073707417	3.866000E+00
270	  0.073907815	-6.166000E+00	  0.073907815	1.690670E+02	  0.073907815	1.717500E+01	  0.073907815	4.224000E+00
271	  0.074108213	-6.168000E+00	  0.074108213	1.681030E+02	  0.074108213	1.720700E+01	  0.074108213	4.598000E+00
272	  0.074308619	-6.175000E+00	  0.074308619	1.671650E+02	  0.074308619	1.725200E+01	  0.074308619	4.961000E+00
273	  0.074509017	-6.179000E+00	  0.074509017	1.661980E+02	  0.074509017	1.729200E+01	  0.074509017	5.336000E+00
274	  0.074709415	-6.185000E+00	  0.074709415	1.652500E+02	  0.074709415	1.734000E+01	  0.074709415	5.704000E+00
275	  0.074909821	-6.194000E+00	  0.074909821	1.643110E+02	  0.074909821	1.739600E+01	  0.074909821	6.068000E+00
276	  0.075110219	-6.203000E+00	  0.075110219	1.633910E+02	  0.075110219	1.745400E+01	  0.075110219	6.425000E+00
277	  0.075310618	-6.210000E+00	  0.075310618	1.624820E+02	  0.075310618	1.750800E+01	  0.075310618	6.778000E+00
278	  0.075511023	-6.221000E+00	  0.075511023	1.615610E+02	  0.075511023	1.757500E+01	  0.075511023	7.135000E+00
279	  0.075711422	-6.224000E+00	  0.075711422	1.606350E+02	  0.075711422	1.762600E+01	  0.075711422	7.496000E+00
280	  0.075911827	-6.234000E+00	  0.075911827	1.597450E+02	  0.075911827	1.769400E+01	  0.075911827	7.842000E+00
281	  0.076112226	-6.243000E+00	  0.076112226	1.587960E+02	  0.076112226	1.776300E+01	  0.076112226	8.212000E+00
282	  0.076312624	-6.251000E+00	  0.076312624	1.578460E+02	  0.076312624	1.783500E+01	  0.076312624	8.583000E+00
283	  0.076513030	-6.264000E+00	  0.076513030	1.569420E+02	  0.076513030	1.791700E+01	  0.076513030	8.935000E+00
284	  0.076713428	-6.277000E+00	  0.076713428	1.560410E+02	  0.076713428	1.800200E+01	  0.076713428	9.285000E+00
285	  0.076913826	-6.285000E+00	  0.076913826	1.551220E+02	  0.076913826	1.807800E+01	  0.076913826	9.645000E+00
286	  0.077114232	-6.296000E+00	  0.077114232	1.542160E+02	  0.077114232	1.816400E+01	  0.077114232	9.999000E+00
287	  0.077314630	-6.301000E+00	  0.077314630	1.533450E+02	  0.077314630	1.823300E+01	  0.077314630	1.034200E+01
288	  0.077515028	-6.310000E+00	  0.077515028	1.524460E+02	  0.077515028	1.831700E+01	  0.077515028	1.069600E+01
289	  0.077715434	-6.319000E+00	  0.077715434	1.515550E+02	  0.077715434	1.840200E+01	  0.077715434	1.104600E+01
290	  0.077915832	-6.331000E+00	  0.077915832	1.506950E+02	  0.077915832	1.849500E+01	  0.077915832	1.138400E+01
291	  0.078116231	-6.341000E+00	  0.078116231	1.497880E+02	  0.078116231	1.859100E+01	  0.078116231	1.174100E+01
292	  0.078316636	-6.357000E+00	  0.078316636	1.489220E+02	  0.078316636	1.869900E+01	  0.078316636	1.208000E+01
293	  0.078517035	-6.374000E+00	  0.078517035	1.480510E+02	  0.078517035	1.881400E+01	  0.078517035	1.242000E+01
294	  0.078717433	-6.389000E+00	  0.078717433	1.471840E+02	  0.078717433	1.892700E+01	  0.078717433	1.276000E+01
295	  0.078917839	-6.405000E+00	  0.078917839	1.463530E+02	  0.078917839	1.904000E+01	  0.078917839	1.308600E+01
296	  0.079118237	-6.417000E+00	  0.079118237	1.454880E+02	  0.079118237	1.914900E+01	  0.079118237	1.342800E+01
297	  0.079318643	-6.433000E+00	  0.079318643	1.446440E+02	  0.079318643	1.926800E+01	  0.079318643	1.375900E+01
298	  0.079519041	-6.451000E+00	  0.079519041	1.437750E+02	  0.079519041	1.939800E+01	  0.079519041	1.410000E+01
299	  0.079719439	-6.471000E+00	  0.079719439	1.429460E+02	  0.079719439	1.953200E+01	  0.079719439	1.442400E+01
300	  0.079919845	-6.489000E+00	  0.079919845	1.420700E+02	  0.079919845	1.966700E+01	  0.079919845	1.476800E+01
301	  0.080120243	-6.501000E+00	  0.080120243	1.412250E+02	  0.080120243	1.978500E+01	  0.080120243	1.510400E+01
302	  0.080320641	-6.522000E+00	  0.080320641	1.403990E+02	  0.080320641	1.993100E+01	  0.080320641	1.542700E+01
303	  0.080521047	-6.539000E+00	  0.080521047	1.395540E+02	  0.080521047	2.006900E+01	  0.080521047	1.576000E+01
304	  0.080721445	-6.553000E+00	  0.080721445	1.387320E+02	  0.080721445	2.019800E+01	  0.080721445	1.608600E+01
305	  0.080921844	-6.575000E+00	  0.080921844	1.378980E+02	  0.080921844	2.035500E+01	  0.080921844	1.641200E+01
306	  0.081122249	-6.592000E+00	  0.081122249	1.370540E+02	  0.081122249	2.049900E+01	  0.081122249	1.674600E+01
307	  0.081322648	-6.608000E+00	  0.081322648	1.362540E+02	  0.081322648	2.064100E+01	  0.081322648	1.706300E+01
308	  0.081523046	-6.626000E+00	  0.081523046	1.354310E+02	  0.081523046	2.079100E+01	  0.081523046	1.738900E+01
309	  0.081723452	-6.642000E+00	  0.081723452	1.345930E+02	  0.081723452	2.094100E+01	  0.081723452	1.772200E+01
310	  0.081923850	-6.661000E+00	  0.081923850	1.338240E+02	  0.081923850	2.109500E+01	  0.081923850	1.802500E+01
311	  0.082124248	-6.678000E+00	  0.082124248	1.330310E+02	  0.082124248	2.125000E+01	  0.082124248	1.833900E+01
312	  0.082324654	-6.698000E+00	  0.082324654	1.322660E+02	  0.082324654	2.141000E+01	  0.082324654	1.864000E+01
313	  0.082525052	-6.718000E+00	  0.082525052	1.314760E+02	  0.082525052	2.157600E+01	  0.082525052	1.895100E+01
314	  0.082725458	-6.740000E+00	  0.082725458	1.306900E+02	  0.082725458	2.174900E+01	  0.082725458	1.925900E+01
315	  0.082925856	-6.759000E+00	  0.082925856	1.299410E+02	  0.082925856	2.191300E+01	  0.082925856	1.955400E+01
316	  0.083126254	-6.783000E+00	  0.083126254	1.291810E+02	  0.083126254	2.209600E+01	  0.083126254	1.984900E+01
317	  0.083326660	-6.806000E+00	  0.083326660	1.283800E+02	  0.083326660	2.228200E+01	  0.083326660	2.016200E+01
318	  0.083527058	-6.825000E+00	  0.083527058	1.276050E+02	  0.083527058	2.245800E+01	  0.083527058	2.046800E+01
319	  0.083727457	-6.845000E+00	  0.083727457	1.268130E+02	  0.083727457	2.264200E+01	  0.083727457	2.078100E+01
320	  0.083927862	-6.864000E+00	  0.083927862	1.260620E+02	  0.083927862	2.282000E+01	  0.083927862	2.107800E+01
321	  0.084128261	-6.885000E+00	  0.084128261	1.252970E+02	  0.084128261	2.300800E+01	  0.084128261	2.137800E+01
322	  0.084328659	-6.907000E+00	  0.084328659	1.245620E+02	  0.084328659	2.319700E+01	  0.084328659	2.166500E+01
323	  0.084529065	-6.923000E+00	  0.084529065	1.238370E+02	  0.084529065	2.337200E+01	  0.084529065	2.195300E+01
324	  0.084729463	-6.953000E+00	  0.084729463	1.231030E+02	  0.084729463	2.358700E+01	  0.084729463	2.223100E+01
325	  0.084929861	-6.971000E+00	  0.084929861	1.223720E+02	  0.084929861	2.377500E+01	  0.084929861	2.251900E+01
326	  0.085130267	-6.993000E+00	  0.085130267	1.216480E+02	  0.085130267	2.397400E+01	  0.085130267	2.280000E+01
327	  0.085330658	-7.014000E+00	  0.085330658	1.208820E+02	  0.085330658	2.418100E+01	  0.085330658	2.310100E+01
328	  0.085531056	-7.041000E+00	  0.085531056	1.202000E+02	  0.085531056	2.438900E+01	  0.085531056	2.335800E+01
329	  0.085731462	-7.063000E+00	  0.085731462	1.194680E+02	  0.085731462	2.459700E+01	  0.085731462	2.364200E+01
330	  0.085931860	-7.088000E+00	  0.085931860	1.187530E+02	  0.085931860	2.481700E+01	  0.085931860	2.391400E+01
331	  0.086132258	-7.121000E+00	  0.086132258	1.180300E+02	  0.086132258	2.505900E+01	  0.086132258	2.418000E+01
332	  0.086332664	-7.148000E+00	  0.086332664	1.173330E+02	  0.086332664	2.528700E+01	  0.086332664	2.444000E+01
333	  0.086533062	-7.176000E+00	  0.086533062	1.166030E+02	  0.086533062	2.552400E+01	  0.086533062	2.471300E+01
334	  0.086733460	-7.206000E+00	  0.086733460	1.158940E+02	  0.086733460	2.576600E+01	  0.086733460	2.497400E+01
335	  0.086933866	-7.227000E+00	  0.086933866	1.151590E+02	  0.086933866	2.599400E+01	  0.086933866	2.525700E+01
336	  0.087134264	-7.259000E+00	  0.087134264	1.144180E+02	  0.087134264	2.625700E+01	  0.087134264	2.552600E+01
337	  0.087334670	-7.287000E+00	  0.087334670	1.137030E+02	  0.087334670	2.650400E+01	  0.087334670	2.579000E+01
338	  0.087535068	-7.318000E+00	  0.087535068	1.129660E+02	  0.087535068	2.677000E+01	  0.087535068	2.605800E+01
339	  0.087735467	-7.340000E+00	  0.087735467	1.122710E+02	  0.087735467	2.700200E+01	  0.087735467	2.632200E+01
340	  0.087935872	-7.371000E+00	  0.087935872	1.115390E+02	  0.087935872	2.727400E+01	  0.087935872	2.658500E+01
341	  0.088136271	-7.398000E+00	  0.088136271	1.108650E+02	  0.088136271	2.752400E+01	  0.088136271	2.682800E+01
342	  0.088336669	-7.425000E+00	  0.088336669	1.101780E+02	  0.088336669	2.777700E+01	  0.088336669	2.707800E+01
343	  0.088537075	-7.457000E+00	  0.088537075	1.094430E+02	  0.088537075	2.806300E+01	  0.088537075	2.733700E+01
344	  0.088737473	-7.478000E+00	  0.088737473	1.087780E+02	  0.088737473	2.830400E+01	  0.088737473	2.758500E+01
345	  0.088937871	-7.510000E+00	  0.088937871	1.081530E+02	  0.088937871	2.856400E+01	  0.088937871	2.779600E+01
346	  0.089138277	-7.538000E+00	  0.089138277	1.074870E+02	  0.089138277	2.883100E+01	  0.089138277	2.802900E+01
347	  0.089338675	-7.563000E+00	  0.089338675	1.068220E+02	  0.089338675	2.909000E+01	  0.089338675	2.826800E+01
348	  0.089539073	-7.602000E+00	  0.089539073	1.062100E+02	  0.089539073	2.937800E+01	  0.089539073	2.845400E+01
349	  0.089739479	-7.628000E+00	  0.089739479	1.055730E+02	  0.089739479	2.963800E+01	  0.089739479	2.867600E+01
350	  0.089939877	-7.664000E+00	  0.089939877	1.049700E+02	  0.089939877	2.992100E+01	  0.089939877	2.886100E+01
351	  0.090140276	-7.686000E+00	  0.090140276	1.043230E+02	  0.090140276	3.017700E+01	  0.090140276	2.909400E+01
352	  0.090340681	-7.721000E+00	  0.090340681	1.037080E+02	  0.090340681	3.046700E+01	  0.090340681	2.928200E+01
353	  0.090541080	-7.748000E+00	  0.090541080	1.030600E+02	  0.090541080	3.074500E+01	  0.090541080	2.950100E+01
354	  0.090741485	-7.779000E+00	  0.090741485	1.024810E+02	  0.090741485	3.101700E+01	  0.090741485	2.968000E+01
355	  0.090941884	-7.805000E+00	  0.090941884	1.018550E+02	  0.090941884	3.129000E+01	  0.090941884	2.989000E+01
356	  0.091142282	-7.838000E+00	  0.091142282	1.012710E+02	  0.091142282	3.157600E+01	  0.091142282	3.006200E+01
357	  0.091342688	-7.870000E+00	  0.091342688	1.006810E+02	  0.091342688	3.186100E+01	  0.091342688	3.024000E+01
358	  0.091543086	-7.899000E+00	  0.091543086	1.000790E+02	  0.091543086	3.214400E+01	  0.091543086	3.042700E+01
359	  0.091743484	-7.932000E+00	  0.091743484	9.949600E+01	  0.091743484	3.243600E+01	  0.091743484	3.059500E+01
360	  0.091943890	-7.955000E+00	  0.091943890	9.894200E+01	  0.091943890	3.269300E+01	  0.091943890	3.077200E+01
361	  0.092144288	-7.986000E+00	  0.092144288	9.836400E+01	  0.092144288	3.298100E+01	  0.092144288	3.093900E+01
362	  0.092344686	-8.013000E+00	  0.092344686	9.779800E+01	  0.092344686	3.325600E+01	  0.092344686	3.111100E+01
363	  0.092545092	-8.045000E+00	  0.092545092	9.722500E+01	  0.092545092	3.355200E+01	  0.092545092	3.126800E+01
364	  0.092745490	-8.073000E+00	  0.092745490	9.666700E+01	  0.092745490	3.383400E+01	  0.092745490	3.142900E+01
365	  0.092945889	-8.112000E+00	  0.092945889	9.612100E+01	  0.092945889	3.414300E+01	  0.092945889	3.155600E+01
366	  0.093146294	-8.142000E+00	  0.093146294	9.561000E+01	  0.093146294	3.441600E+01	  0.093146294	3.168900E+01
367	  0.093346693	-8.174000E+00	  0.093346693	9.502500E+01	  0.093346693	3.472700E+01	  0.093346693	3.184200E+01
368	  0.093547091	-8.205000E+00	  0.093547091	9.452900E+01	  0.093547091	3.500200E+01	  0.093547091	3.196300E+01
369	  0.093747497	-8.232000E+00	  0.093747497	9.398500E+01	  0.093747497	3.528600E+01	  0.093747497	3.211100E+01
370	  0.093947895	-8.267000E+00	  0.093947895	9.341000E+01	  0.093947895	3.560600E+01	  0.093947895	3.224900E+01
371	  0.094148301	-8.297000E+00	  0.094148301	9.286600E+01	  0.094148301	3.590500E+01	  0.094148301	3.238200E+01
372	  0.094348699	-8.325000E+00	  0.094348699	9.233800E+01	  0.094348699	3.619300E+01	  0.094348699	3.251500E+01
373	  0.094549097	-8.353000E+00	  0.094549097	9.178100E+01	  0.094549097	3.649700E+01	  0.094549097	3.265500E+01
374	  0.094749503	-8.390000E+00	  0.094749503	9.127000E+01	  0.094749503	3.680300E+01	  0.094749503	3.275400E+01
375	  0.094949901	-8.410000E+00	  0.094949901	9.074500E+01	  0.094949901	3.707600E+01	  0.094949901	3.290100E+01
376	  0.095150299	-8.441000E+00	  0.095150299	9.024800E+01	  0.095150299	3.737000E+01	  0.095150299	3.300200E+01
377	  0.095350705	-8.462000E+00	  0.095350705	8.972700E+01	  0.095350705	3.764600E+01	  0.095350705	3.314300E+01
378	  0.095551103	-8.488000E+00	  0.095551103	8.918700E+01	  0.095551103	3.794900E+01	  0.095551103	3.327200E+01
379	  0.095751502	-8.517000E+00	  0.095751502	8.870800E+01	  0.095751502	3.823200E+01	  0.095751502	3.336900E+01
380	  0.095951907	-8.533000E+00	  0.095951907	8.821500E+01	  0.095951907	3.849400E+01	  0.095951907	3.350400E+01
381	  0.096152306	-8.557000E+00	  0.096152306	8.772600E+01	  0.096152306	3.877500E+01	  0.096152306	3.361400E+01
382	  0.096352704	-8.586000E+00	  0.096352704	8.726700E+01	  0.096352704	3.905400E+01	  0.096352704	3.369800E+01
383	  0.096553110	-8.611000E+00	  0.096553110	8.682300E+01	  0.096553110	3.932000E+01	  0.096553110	3.378400E+01
384	  0.096753508	-8.632000E+00	  0.096753508	8.635900E+01	  0.096753508	3.958600E+01	  0.096753508	3.388900E+01
385	  0.096953906	-8.657000E+00	  0.096953906	8.590700E+01	  0.096953906	3.985800E+01	  0.096953906	3.397600E+01
386	  0.097154312	-8.675000E+00	  0.097154312	8.542800E+01	  0.097154312	4.013000E+01	  0.097154312	3.409000E+01
387	  0.097354710	-8.698000E+00	  0.097354710	8.496900E+01	  0.097354710	4.040400E+01	  0.097354710	3.418100E+01
388	  0.097555116	-8.726000E+00	  0.097555116	8.453700E+01	  0.097555116	4.067700E+01	  0.097555116	3.424600E+01
389	  0.097755514	-8.741000E+00	  0.097755514	8.411300E+01	  0.097755514	4.092000E+01	  0.097755514	3.434600E+01
390	  0.097955912	-8.767000E+00	  0.097955912	8.367600E+01	  0.097955912	4.119300E+01	  0.097955912	3.441500E+01
391	  0.098156318	-8.787000E+00	  0.098156318	8.324400E+01	  0.098156318	4.145400E+01	  0.098156318	3.449800E+01
392	  0.098356716	-8.806000E+00	  0.098356716	8.281100E+01	  0.098356716	4.171600E+01	  0.098356716	3.458200E+01
393	  0.098557115	-8.822000E+00	  0.098557115	8.238700E+01	  0.098557115	4.196400E+01	  0.098557115	3.467500E+01
394	  0.098757520	-8.837000E+00	  0.098757520	8.198700E+01	  0.098757520	4.220300E+01	  0.098757520	3.475700E+01
395	  0.098957919	-8.854000E+00	  0.098957919	8.159200E+01	  0.098957919	4.244300E+01	  0.098957919	3.483300E+01
396	  0.099158317	-8.874000E+00	  0.099158317	8.117400E+01	  0.099158317	4.270400E+01	  0.099158317	3.490300E+01
397	  0.099358723	-8.891000E+00	  0.099358723	8.076100E+01	  0.099358723	4.295600E+01	  0.099358723	3.498100E+01
398	  0.099559121	-8.908000E+00	  0.099559121	8.040800E+01	  0.099559121	4.317800E+01	  0.099559121	3.503800E+01
399	  0.099759519	-8.919000E+00	  0.099759519	8.000100E+01	  0.099759519	4.341800E+01	  0.099759519	3.513100E+01
400	  0.099959925	-8.932000E+00	  0.099959925	7.962500E+01	  0.099959925	4.364700E+01	  0.099959925	3.520600E+01
401	  0.100160323	-8.955000E+00	  0.100160323	7.920200E+01	  0.100160323	4.392200E+01	  0.100160323	3.526000E+01
402	  0.100360721	-8.967000E+00	  0.100360721	7.891900E+01	  0.100360721	4.410200E+01	  0.100360721	3.530400E+01
403	  0.100561127	-8.989000E+00	  0.100561127	7.848100E+01	  0.100561127	4.438500E+01	  0.100561127	3.536400E+01
404	  0.100761525	-8.992000E+00	  0.100761525	7.813000E+01	  0.100761525	4.458500E+01	  0.100761525	3.546100E+01
405	  0.100961931	-9.007000E+00	  0.100961931	7.773200E+01	  0.100961931	4.483600E+01	  0.100961931	3.552600E+01
406	  0.101162329	-9.030000E+00	  0.101162329	7.729500E+01	  0.101162329	4.512600E+01	  0.101162329	3.557600E+01
407	  0.101362728	-9.028000E+00	  0.101362728	7.691300E+01	  0.101362728	4.533600E+01	  0.101362728	3.569900E+01
408	  0.101563133	-9.049000E+00	  0.101563133	7.652700E+01	  0.101563133	4.559700E+01	  0.101563133	3.573300E+01
409	  0.101763532	-9.054000E+00	  0.101763532	7.618100E+01	  0.101763532	4.580300E+01	  0.101763532	3.581900E+01
410	  0.101963930	-9.074000E+00	  0.101963930	7.576000E+01	  0.101963930	4.608500E+01	  0.101963930	3.586400E+01
411	  0.102164336	-9.073000E+00	  0.102164336	7.541000E+01	  0.102164336	4.628600E+01	  0.102164336	3.596900E+01
412	  0.102364734	-9.075000E+00	  0.102364734	7.503900E+01	  0.102364734	4.650600E+01	  0.102364734	3.606800E+01
413	  0.102565132	-9.090000E+00	  0.102565132	7.467100E+01	  0.102565132	4.675000E+01	  0.102565132	3.611600E+01
414	  0.102765530	-9.092000E+00	  0.102765530	7.424000E+01	  0.102765530	4.700800E+01	  0.102765530	3.623100E+01
415	  0.102965929	-9.092000E+00	  0.102965929	7.391400E+01	  0.102965929	4.720300E+01	  0.102965929	3.632100E+01
416	  0.103166327	-9.090000E+00	  0.103166327	7.357300E+01	  0.103166327	4.740500E+01	  0.103166327	3.642200E+01
417	  0.103366733	-9.096000E+00	  0.103366733	7.323800E+01	  0.103366733	4.761700E+01	  0.103366733	3.649000E+01
418	  0.103567131	-9.087000E+00	  0.103567131	7.285200E+01	  0.103567131	4.783700E+01	  0.103567131	3.663200E+01
419	  0.103767529	-9.081000E+00	  0.103767529	7.246500E+01	  0.103767529	4.806300E+01	  0.103767529	3.676200E+01
420	  0.103967935	-9.083000E+00	  0.103967935	7.215500E+01	  0.103967935	4.825900E+01	  0.103967935	3.683400E+01
421	  0.104168333	-9.074000E+00	  0.104168333	7.179500E+01	  0.104168333	4.846800E+01	  0.104168333	3.696600E+01
422	  0.104368731	-9.051000E+00	  0.104368731	7.151700E+01	  0.104368731	4.860200E+01	  0.104368731	3.713600E+01
423	  0.104569137	-9.025000E+00	  0.104569137	7.113300E+01	  0.104569137	4.879800E+01	  0.104569137	3.734900E+01
424	  0.104769535	-9.019000E+00	  0.104769535	7.071800E+01	  0.104769535	4.905300E+01	  0.104769535	3.748300E+01
425	  0.104969934	-8.996000E+00	  0.104969934	7.027600E+01	  0.104969934	4.930000E+01	  0.104969934	3.769400E+01
426	  0.105170339	-8.972000E+00	  0.105170339	6.992000E+01	  0.105170339	4.949000E+01	  0.105170339	3.789200E+01
427	  0.105370738	-8.941000E+00	  0.105370738	6.952000E+01	  0.105370738	4.970100E+01	  0.105370738	3.812900E+01
428	  0.105571143	-8.923000E+00	  0.105571143	6.904200E+01	  0.105571143	4.998800E+01	  0.105571143	3.832900E+01
429	  0.105771542	-8.890000E+00	  0.105771542	6.859200E+01	  0.105771542	5.023500E+01	  0.105771542	3.859400E+01
430	  0.105971940	-8.871000E+00	  0.105971940	6.806400E+01	  0.105971940	5.056300E+01	  0.105971940	3.881100E+01
431	  0.106172346	-8.840000E+00	  0.106172346	6.762400E+01	  0.106172346	5.081400E+01	  0.106172346	3.906500E+01
432	  0.106372744	-8.812000E+00	  0.106372744	6.713400E+01	  0.106372744	5.110900E+01	  0.106372744	3.931800E+01
433	  0.106573142	-8.789000E+00	  0.106573142	6.664200E+01	  0.106573142	5.141800E+01	  0.106573142	3.954700E+01
434	  0.106773548	-8.766000E+00	  0.106773548	6.610100E+01	  0.106773548	5.176800E+01	  0.106773548	3.978700E+01
435	  0.106973946	-8.745000E+00	  0.106973946	6.558800E+01	  0.106973946	5.210600E+01	  0.106973946	4.001100E+01
436	  0.107174344	-8.715000E+00	  0.107174344	6.506700E+01	  0.107174344	5.243900E+01	  0.107174344	4.028300E+01
437	  0.107374750	-8.696000E+00	  0.107374750	6.450100E+01	  0.107374750	5.282900E+01	  0.107374750	4.051200E+01
438	  0.107575148	-8.676000E+00	  0.107575148	6.388100E+01	  0.107575148	5.326500E+01	  0.107575148	4.075400E+01
439	  0.107775547	-8.647000E+00	  0.107775547	6.333700E+01	  0.107775547	5.363600E+01	  0.107775547	4.102600E+01
440	  0.107975952	-8.628000E+00	  0.107975952	6.273100E+01	  0.107975952	5.407600E+01	  0.107975952	4.126100E+01
441	  0.108176351	-8.604000E+00	  0.108176351	6.214800E+01	  0.108176351	5.449900E+01	  0.108176351	4.151300E+01
442	  0.108376749	-8.583000E+00	  0.108376749	6.154100E+01	  0.108376749	5.495300E+01	  0.108376749	4.175200E+01
443	  0.108577155	-8.563000E+00	  0.108577155	6.090300E+01	  0.108577155	5.543900E+01	  0.108577155	4.199400E+01
444	  0.108777553	-8.544000E+00	  0.108777553	6.029500E+01	  0.108777553	5.591100E+01	  0.108777553	4.221900E+01
445	  0.108977959	-8.526000E+00	  0.108977959	5.961100E+01	  0.108977959	5.645600E+01	  0.108977959	4.245300E+01
446	  0.109178357	-8.513000E+00	  0.109178357	5.894400E+01	  0.109178357	5.700100E+01	  0.109178357	4.265300E+01
447	  0.109378755	-8.500000E+00	  0.109378755	5.831800E+01	  0.109378755	5.752000E+01	  0.109378755	4.284100E+01
448	  0.109579161	-8.475000E+00	  0.109579161	5.764000E+01	  0.109579161	5.808000E+01	  0.109579161	4.310100E+01
449	  0.109779559	-8.454000E+00	  0.109779559	5.695500E+01	  0.109779559	5.865900E+01	  0.109779559	4.334200E+01
450	  0.109979957	-8.441000E+00	  0.109979957	5.623700E+01	  0.109979957	5.928800E+01	  0.109979957	4.353000E+01
451	  0.110180363	-8.425000E+00	  0.110180363	5.556100E+01	  0.110180363	5.988500E+01	  0.110180363	4.372600E+01
452	  0.110380761	-8.411000E+00	  0.110380761	5.483200E+01	  0.110380761	6.054500E+01	  0.110380761	4.391200E+01
453	  0.110581160	-8.400000E+00	  0.110581160	5.413900E+01	  0.110581160	6.118200E+01	  0.110581160	4.407200E+01
454	  0.110781565	-8.387000E+00	  0.110781565	5.335800E+01	  0.110781565	6.191400E+01	  0.110781565	4.424200E+01
455	  0.110981964	-8.369000E+00	  0.110981964	5.261400E+01	  0.110981964	6.261800E+01	  0.110981964	4.443400E+01
456	  0.111182362	-8.362000E+00	  0.111182362	5.188600E+01	  0.111182362	6.332500E+01	  0.111182362	4.454600E+01
457	  0.111382768	-8.347000E+00	  0.111382768	5.115000E+01	  0.111382768	6.404800E+01	  0.111382768	4.469800E+01
458	  0.111583166	-8.334000E+00	  0.111583166	5.031100E+01	  0.111583166	6.488900E+01	  0.111583166	4.483500E+01
459	  0.111783572	-8.331000E+00	  0.111783572	4.953200E+01	  0.111783572	6.568400E+01	  0.111783572	4.489200E+01
460	  0.111983970	-8.325000E+00	  0.111983970	4.877000E+01	  0.111983970	6.647300E+01	  0.111983970	4.494700E+01
461	  0.112184368	-8.313000E+00	  0.112184368	4.801600E+01	  0.112184368	6.726400E+01	  0.112184368	4.503900E+01
462	  0.112384774	-8.316000E+00	  0.112384774	4.710300E+01	  0.112384774	6.823600E+01	  0.112384774	4.500900E+01
463	  0.112585172	-8.308000E+00	  0.112585172	4.630400E+01	  0.112585172	6.910000E+01	  0.112585172	4.503800E+01
464	  0.112785570	-8.303000E+00	  0.112785570	4.546400E+01	  0.112785570	7.002100E+01	  0.112785570	4.503200E+01
465	  0.112985976	-8.303000E+00	  0.112985976	4.465600E+01	  0.112985976	7.091400E+01	  0.112985976	4.496700E+01
466	  0.113186374	-8.304000E+00	  0.113186374	4.379600E+01	  0.113186374	7.187700E+01	  0.113186374	4.487400E+01
467	  0.113386773	-8.306000E+00	  0.113386773	4.298800E+01	  0.113386773	7.278900E+01	  0.113386773	4.475500E+01
468	  0.113587178	-8.313000E+00	  0.113587178	4.209900E+01	  0.113587178	7.379800E+01	  0.113587178	4.457000E+01
469	  0.113787577	-8.320000E+00	  0.113787577	4.121200E+01	  0.113787577	7.481200E+01	  0.113787577	4.435300E+01
470	  0.113987975	-8.325000E+00	  0.113987975	4.032400E+01	  0.113987975	7.583800E+01	  0.113987975	4.412300E+01
471	  0.114188381	-8.328000E+00	  0.114188381	3.942700E+01	  0.114188381	7.688500E+01	  0.114188381	4.388300E+01
472	  0.114388779	-8.341000E+00	  0.114388779	3.855200E+01	  0.114388779	7.789600E+01	  0.114388779	4.354500E+01
473	  0.114589177	-8.352000E+00	  0.114589177	3.758100E+01	  0.114589177	7.902600E+01	  0.114589177	4.315500E+01
474	  0.114789583	-8.360000E+00	  0.114789583	3.672200E+01	  0.114789583	8.003300E+01	  0.114789583	4.279500E+01
475	  0.114989981	-8.380000E+00	  0.114989981	3.576000E+01	  0.114989981	8.113300E+01	  0.114989981	4.226800E+01
476	  0.115190387	-8.398000E+00	  0.115190387	3.485200E+01	  0.115190387	8.217000E+01	  0.115190387	4.174700E+01
477	  0.115390785	-8.415000E+00	  0.115390785	3.386400E+01	  0.115390785	8.330100E+01	  0.115390785	4.115800E+01
478	  0.115591183	-8.433000E+00	  0.115591183	3.288500E+01	  0.115591183	8.441300E+01	  0.115591183	4.052700E+01
479	  0.115791589	-8.453000E+00	  0.115791589	3.191400E+01	  0.115791589	8.550100E+01	  0.115791589	3.984900E+01
480	  0.115991987	-8.472000E+00	  0.115991987	3.091600E+01	  0.115991987	8.661000E+01	  0.115991987	3.911400E+01
481	  0.116192386	-8.492000E+00	  0.116192386	2.995100E+01	  0.116192386	8.766500E+01	  0.116192386	3.835400E+01
482	  0.116392791	-8.512000E+00	  0.116392791	2.888800E+01	  0.116392791	8.881600E+01	  0.116392791	3.748400E+01
483	  0.116593190	-8.545000E+00	  0.116593190	2.784100E+01	  0.116593190	8.987100E+01	  0.116593190	3.648600E+01
484	  0.116793588	-8.571000E+00	  0.116793588	2.684700E+01	  0.116793588	9.086800E+01	  0.116793588	3.553100E+01
485	  0.116993994	-8.608000E+00	  0.116993994	2.569300E+01	  0.116993994	9.195500E+01	  0.116993994	3.432200E+01
486	  0.117194392	-8.640000E+00	  0.117194392	2.462400E+01	  0.117194392	9.294100E+01	  0.117194392	3.318000E+01
487	  0.117394790	-8.677000E+00	  0.117394790	2.352400E+01	  0.117394790	9.388700E+01	  0.117394790	3.192700E+01
488	  0.117595196	-8.712000E+00	  0.117595196	2.243800E+01	  0.117595196	9.479100E+01	  0.117595196	3.066400E+01
489	  0.117795594	-8.757000E+00	  0.117795594	2.131800E+01	  0.117795594	9.561300E+01	  0.117795594	2.926100E+01
490	  0.117995992	-8.799000E+00	  0.117995992	2.010200E+01	  0.117995992	9.648800E+01	  0.117995992	2.774200E+01
491	  0.118196398	-8.842000E+00	  0.118196398	1.896800E+01	  0.118196398	9.721600E+01	  0.118196398	2.626100E+01
492	  0.118396796	-8.897000E+00	  0.118396796	1.778600E+01	  0.118396796	9.783800E+01	  0.118396796	2.463600E+01
493	  0.118597202	-8.948000E+00	  0.118597202	1.658100E+01	  0.118597202	9.843800E+01	  0.118597202	2.298200E+01
494	  0.118797600	-8.999000E+00	  0.118797600	1.536900E+01	  0.118797600	9.896700E+01	  0.118797600	2.129700E+01
495	  0.118997999	-9.058000E+00	  0.118997999	1.411400E+01	  0.118997999	9.938400E+01	  0.118997999	1.950600E+01
496	  0.119198404	-9.123000E+00	  0.119198404	1.284200E+01	  0.119198404	9.967100E+01	  0.119198404	1.765900E+01
497	  0.119398803	-9.186000E+00	  0.119398803	1.161200E+01	  0.119398803	9.987000E+01	  0.119398803	1.587700E+01
498	  0.119599201	-9.257000E+00	  0.119599201	1.031000E+01	  0.119599201	9.995800E+01	  0.119599201	1.398500E+01
499	  0.119799607	-9.326000E+00	  0.119799607	9.022000E+00	  0.119799607	9.995700E+01	  0.119799607	1.212800E+01
500	  0.120000005	-9.396000E+00	  0.120000005	7.701000E+00	  0.120000005	9.988300E+01	  0.120000005	1.025300E+01
