! Anritsu VNA Master:             	Model: MS2036C/10/77
! SN:             	1601066
! /bd0/18may07/256.ns.m10.txt
! Existing Calibration Information:
! TYPE:             	Current Settings	Active Cal Settings
! TIME:             	05/07/2018 03:23:41 PM	05/07/2018 03:13:55 PM
! INTERNAL TEMP:    	61.8 C	60.5 C
! # POINTS:         	500	500
! START FREQ:       	20.000 MHz	20.000 MHz
! STOP FREQ:        	120.000 MHz	120.000 MHz
! SOURCE POWER:     	High	High
! IFBW:             	50 Hz	50 Hz
! AVG FACTOR:       	  1 	  1 
! REF PLANE 1:      	0 mm	0 mm
! REF PLANE 2:      	0 mm	0 mm
! CAL TYPE:         	Full S11	Full S11
! CAL METHOD:       	SOLT	SOLT
! CAL LINE TYPE:    	Coax	Coax
! DUT PORT 1:       	K-Conn(F)	K-Conn(F)
! DUT PORT 2:       	K-Conn(F)	K-Conn(F)
! CAL STATUS:       	OK: Accuracy High	--
! PROP-V:       	0.700
! CABLE LOSS:       	0.000 dB/m
! REF IMPEDANCE:       	50.0
! Trace Specific Parameters:	TR1	TR2	TR3	TR4
! TRACE.#.Y (GRAPH TYPE)	LOG MAG	PHASE	REAL IMPEDANCE	IMAGINARY IMPEDANCE
! TRACE.#.X 	FREQ.GHZ	FREQ.GHZ	FREQ.GHZ	FREQ.GHZ
! S-PARAMETER	S11	S11	S11	S11
! SMOOTH/APERTURE %	0	0	0	0
! WINDOW	NSL	NSL	NSL	NSL
! GATING	OFF	OFF	OFF	OFF
! FGTD	OFF	OFF	OFF	OFF
Marker Information per Trace:	TR1	TR2	TR3	TR4
!MK1	--	"MK1 TR2:  20.000 MHz,PH:-125.88°"	--	--
!MK2	--	--	"MK2 TR3:  70.100 200 MHz,Z:(16.988 ohm, -2.909 ohm)"	--
!MK3	--	--	--	--
!MK4	--	--	--	--
!MK5	--	--	--	--
!MK6	--	--	--	--
!MK7	--	--	--	--
!MK8	--	--	--	--
PNT	TR1.FREQ.GHZ	TR1.LOG MAG.dB	TR2.FREQ.GHZ	TR2.PHASE.deg	TR3.FREQ.GHZ	TR3.REAL IMPEDANCE.ohm	TR4.FREQ.GHZ	TR4.IMAGINARY IMPEDANCE.ohm
1	  0.020000000	-6.280000E-01	  0.020000000	-1.258840E+02	  0.020000000	2.280000E+00	  0.020000000	-2.549700E+01
2	  0.020200402	-6.270000E-01	  0.020200402	-1.273620E+02	  0.020200402	2.247000E+00	  0.020200402	-2.469100E+01
3	  0.020400802	-6.260000E-01	  0.020400802	-1.288300E+02	  0.020400802	2.216000E+00	  0.020400802	-2.390100E+01
4	  0.020601204	-6.320000E-01	  0.020601204	-1.302980E+02	  0.020601204	2.208000E+00	  0.020601204	-2.311900E+01
5	  0.020801604	-6.340000E-01	  0.020801604	-1.318060E+02	  0.020801604	2.191000E+00	  0.020801604	-2.232700E+01
6	  0.021002004	-6.420000E-01	  0.021002004	-1.333270E+02	  0.021002004	2.190000E+00	  0.021002004	-2.153600E+01
7	  0.021202406	-6.480000E-01	  0.021202406	-1.348500E+02	  0.021202406	2.188000E+00	  0.021202406	-2.075300E+01
8	  0.021402806	-6.540000E-01	  0.021402806	-1.363940E+02	  0.021402806	2.184000E+00	  0.021402806	-1.996800E+01
9	  0.021603208	-6.580000E-01	  0.021603208	-1.379420E+02	  0.021603208	2.174000E+00	  0.021603208	-1.919000E+01
10	  0.021803608	-6.620000E-01	  0.021803608	-1.394790E+02	  0.021803608	2.164000E+00	  0.021803608	-1.842500E+01
11	  0.022004008	-6.660000E-01	  0.022004008	-1.410270E+02	  0.022004008	2.158000E+00	  0.022004008	-1.766300E+01
12	  0.022204408	-6.740000E-01	  0.022204408	-1.425910E+02	  0.022204408	2.161000E+00	  0.022204408	-1.689900E+01
13	  0.022404809	-6.810000E-01	  0.022404809	-1.441600E+02	  0.022404809	2.164000E+00	  0.022404809	-1.614000E+01
14	  0.022605211	-6.870000E-01	  0.022605211	-1.457390E+02	  0.022605211	2.166000E+00	  0.022605211	-1.538400E+01
15	  0.022805611	-6.900000E-01	  0.022805611	-1.473520E+02	  0.022805611	2.156000E+00	  0.022805611	-1.461800E+01
16	  0.023006011	-6.900000E-01	  0.023006011	-1.489480E+02	  0.023006011	2.139000E+00	  0.023006011	-1.386700E+01
17	  0.023206413	-6.910000E-01	  0.023206413	-1.505480E+02	  0.023206413	2.126000E+00	  0.023206413	-1.311800E+01
18	  0.023406813	-6.950000E-01	  0.023406813	-1.521440E+02	  0.023406813	2.124000E+00	  0.023406813	-1.237800E+01
19	  0.023607215	-7.030000E-01	  0.023607215	-1.537270E+02	  0.023607215	2.133000E+00	  0.023607215	-1.164800E+01
20	  0.023807615	-7.080000E-01	  0.023807615	-1.553560E+02	  0.023807615	2.136000E+00	  0.023807615	-1.090200E+01
21	  0.024008015	-7.190000E-01	  0.024008015	-1.569790E+02	  0.024008015	2.154000E+00	  0.024008015	-1.016300E+01
22	  0.024208417	-7.290000E-01	  0.024208417	-1.586290E+02	  0.024208417	2.171000E+00	  0.024208417	-9.416000E+00
23	  0.024408817	-7.380000E-01	  0.024408817	-1.602770E+02	  0.024408817	2.187000E+00	  0.024408817	-8.675000E+00
24	  0.024609219	-7.480000E-01	  0.024609219	-1.619410E+02	  0.024609219	2.207000E+00	  0.024609219	-7.930000E+00
25	  0.024809619	-7.560000E-01	  0.024809619	-1.636100E+02	  0.024809619	2.219000E+00	  0.024809619	-7.186000E+00
26	  0.025010020	-7.690000E-01	  0.025010020	-1.652810E+02	  0.025010020	2.249000E+00	  0.025010020	-6.444000E+00
27	  0.025210422	-7.810000E-01	  0.025210422	-1.669750E+02	  0.025210422	2.277000E+00	  0.025210422	-5.695000E+00
28	  0.025410822	-7.950000E-01	  0.025410822	-1.686590E+02	  0.025410822	2.311000E+00	  0.025410822	-4.953000E+00
29	  0.025611224	-8.100000E-01	  0.025611224	-1.703740E+02	  0.025611224	2.346000E+00	  0.025611224	-4.200000E+00
30	  0.025811624	-8.240000E-01	  0.025811624	-1.721070E+02	  0.025811624	2.382000E+00	  0.025811624	-3.441000E+00
31	  0.026012026	-8.370000E-01	  0.026012026	-1.738510E+02	  0.026012026	2.415000E+00	  0.026012026	-2.678000E+00
32	  0.026212426	-8.470000E-01	  0.026212426	-1.755960E+02	  0.026212426	2.440000E+00	  0.026212426	-1.917000E+00
33	  0.026412826	-8.600000E-01	  0.026412826	-1.773370E+02	  0.026412826	2.477000E+00	  0.026412826	-1.158000E+00
34	  0.026613226	-8.770000E-01	  0.026613226	-1.791000E+02	  0.026613226	2.522000E+00	  0.026613226	-3.910000E-01
35	  0.026813626	-8.920000E-01	  0.026813626	1.791130E+02	  0.026813626	2.567000E+00	  0.026813626	3.850000E-01
36	  0.027014028	-9.090000E-01	  0.027014028	1.773380E+02	  0.027014028	2.616000E+00	  0.027014028	1.158000E+00
37	  0.027214428	-9.270000E-01	  0.027214428	1.755360E+02	  0.027214428	2.671000E+00	  0.027214428	1.943000E+00
38	  0.027414829	-9.420000E-01	  0.027414829	1.737110E+02	  0.027414829	2.718000E+00	  0.027414829	2.738000E+00
39	  0.027615231	-9.590000E-01	  0.027615231	1.719080E+02	  0.027615231	2.773000E+00	  0.027615231	3.525000E+00
40	  0.027815631	-9.800000E-01	  0.027815631	1.700760E+02	  0.027815631	2.840000E+00	  0.027815631	4.326000E+00
41	  0.028016033	-1.001000E+00	  0.028016033	1.682370E+02	  0.028016033	2.908000E+00	  0.028016033	5.133000E+00
42	  0.028216433	-1.021000E+00	  0.028216433	1.663950E+02	  0.028216433	2.977000E+00	  0.028216433	5.943000E+00
43	  0.028416833	-1.042000E+00	  0.028416833	1.645420E+02	  0.028416833	3.050000E+00	  0.028416833	6.761000E+00
44	  0.028617235	-1.062000E+00	  0.028617235	1.626810E+02	  0.028617235	3.124000E+00	  0.028617235	7.585000E+00
45	  0.028817635	-1.079000E+00	  0.028817635	1.608410E+02	  0.028817635	3.191000E+00	  0.028817635	8.404000E+00
46	  0.029018037	-1.099000E+00	  0.029018037	1.589960E+02	  0.029018037	3.267000E+00	  0.029018037	9.230000E+00
47	  0.029218437	-1.119000E+00	  0.029218437	1.571450E+02	  0.029218437	3.348000E+00	  0.029218437	1.006300E+01
48	  0.029418837	-1.143000E+00	  0.029418837	1.553220E+02	  0.029418837	3.442000E+00	  0.029418837	1.088700E+01
49	  0.029619239	-1.167000E+00	  0.029619239	1.534620E+02	  0.029619239	3.541000E+00	  0.029619239	1.173400E+01
50	  0.029819639	-1.195000E+00	  0.029819639	1.515790E+02	  0.029819639	3.654000E+00	  0.029819639	1.259700E+01
51	  0.030020041	-1.225000E+00	  0.030020041	1.496760E+02	  0.030020041	3.779000E+00	  0.030020041	1.347600E+01
52	  0.030220442	-1.256000E+00	  0.030220442	1.477420E+02	  0.030220442	3.909000E+00	  0.030220442	1.437700E+01
53	  0.030420844	-1.286000E+00	  0.030420844	1.458140E+02	  0.030420844	4.042000E+00	  0.030420844	1.528300E+01
54	  0.030621244	-1.317000E+00	  0.030621244	1.438870E+02	  0.030621244	4.182000E+00	  0.030621244	1.619700E+01
55	  0.030821644	-1.350000E+00	  0.030821644	1.419640E+02	  0.030821644	4.335000E+00	  0.030821644	1.711700E+01
56	  0.031022044	-1.385000E+00	  0.031022044	1.400360E+02	  0.031022044	4.500000E+00	  0.031022044	1.805000E+01
57	  0.031222444	-1.415000E+00	  0.031222444	1.381060E+02	  0.031222444	4.657000E+00	  0.031222444	1.899500E+01
58	  0.031422846	-1.452000E+00	  0.031422846	1.361260E+02	  0.031422846	4.842000E+00	  0.031422846	1.997400E+01
59	  0.031623244	-1.491000E+00	  0.031623244	1.341400E+02	  0.031623244	5.043000E+00	  0.031623244	2.096800E+01
60	  0.031823646	-1.531000E+00	  0.031823646	1.321190E+02	  0.031823646	5.254000E+00	  0.031823646	2.199400E+01
61	  0.032024048	-1.566000E+00	  0.032024048	1.301160E+02	  0.032024048	5.461000E+00	  0.032024048	2.302500E+01
62	  0.032224450	-1.603000E+00	  0.032224450	1.280950E+02	  0.032224450	5.681000E+00	  0.032224450	2.408000E+01
63	  0.032424849	-1.642000E+00	  0.032424849	1.260970E+02	  0.032424849	5.918000E+00	  0.032424849	2.513800E+01
64	  0.032625251	-1.676000E+00	  0.032625251	1.240820E+02	  0.032625251	6.148000E+00	  0.032625251	2.622500E+01
65	  0.032825653	-1.715000E+00	  0.032825653	1.220880E+02	  0.032825653	6.408000E+00	  0.032825653	2.731500E+01
66	  0.033026051	-1.752000E+00	  0.033026051	1.200610E+02	  0.033026051	6.676000E+00	  0.033026051	2.844400E+01
67	  0.033226453	-1.793000E+00	  0.033226453	1.180830E+02	  0.033226453	6.967000E+00	  0.033226453	2.956300E+01
68	  0.033426855	-1.839000E+00	  0.033426855	1.160770E+02	  0.033426855	7.295000E+00	  0.033426855	3.071600E+01
69	  0.033627257	-1.888000E+00	  0.033627257	1.140820E+02	  0.033627257	7.650000E+00	  0.033627257	3.188200E+01
70	  0.033827655	-1.939000E+00	  0.033827655	1.120660E+02	  0.033827655	8.035000E+00	  0.033827655	3.308100E+01
71	  0.034028057	-1.992000E+00	  0.034028057	1.100130E+02	  0.034028057	8.454000E+00	  0.034028057	3.432500E+01
72	  0.034228459	-2.040000E+00	  0.034228459	1.079210E+02	  0.034228459	8.876000E+00	  0.034228459	3.562400E+01
73	  0.034428857	-2.095000E+00	  0.034428857	1.057970E+02	  0.034428857	9.357000E+00	  0.034428857	3.696700E+01
74	  0.034629259	-2.141000E+00	  0.034629259	1.036910E+02	  0.034629259	9.826000E+00	  0.034629259	3.833400E+01
75	  0.034829661	-2.188000E+00	  0.034829661	1.015600E+02	  0.034829661	1.033100E+01	  0.034829661	3.975000E+01
76	  0.035030060	-2.235000E+00	  0.035030060	9.943600E+01	  0.035030060	1.086600E+01	  0.035030060	4.119600E+01
77	  0.035230462	-2.280000E+00	  0.035230462	9.732000E+01	  0.035230462	1.142600E+01	  0.035230462	4.267500E+01
78	  0.035430863	-2.323000E+00	  0.035430863	9.521400E+01	  0.035430863	1.201100E+01	  0.035430863	4.418600E+01
79	  0.035631265	-2.367000E+00	  0.035631265	9.311300E+01	  0.035631265	1.264100E+01	  0.035631265	4.573100E+01
80	  0.035831664	-2.410000E+00	  0.035831664	9.103500E+01	  0.035831664	1.330000E+01	  0.035831664	4.730200E+01
81	  0.036032066	-2.457000E+00	  0.036032066	8.898100E+01	  0.036032066	1.401700E+01	  0.036032066	4.889200E+01
82	  0.036232468	-2.500000E+00	  0.036232468	8.691300E+01	  0.036232468	1.477500E+01	  0.036232468	5.053900E+01
83	  0.036432866	-2.548000E+00	  0.036432866	8.485500E+01	  0.036432866	1.560400E+01	  0.036432866	5.221700E+01
84	  0.036633268	-2.598000E+00	  0.036633268	8.281700E+01	  0.036633268	1.650100E+01	  0.036633268	5.391800E+01
85	  0.036833670	-2.653000E+00	  0.036833670	8.077500E+01	  0.036833670	1.749200E+01	  0.036833670	5.565800E+01
86	  0.037034072	-2.712000E+00	  0.037034072	7.870600E+01	  0.037034072	1.859500E+01	  0.037034072	5.746000E+01
87	  0.037234470	-2.773000E+00	  0.037234470	7.663900E+01	  0.037234470	1.979600E+01	  0.037234470	5.929900E+01
88	  0.037434869	-2.841000E+00	  0.037434869	7.456500E+01	  0.037434869	2.113100E+01	  0.037434869	6.117600E+01
89	  0.037635271	-2.909000E+00	  0.037635271	7.247300E+01	  0.037635271	2.258800E+01	  0.037635271	6.310900E+01
90	  0.037835669	-2.984000E+00	  0.037835669	7.042400E+01	  0.037835669	2.417900E+01	  0.037835669	6.501900E+01
91	  0.038036071	-3.042000E+00	  0.038036071	6.841900E+01	  0.038036071	2.575200E+01	  0.038036071	6.697700E+01
92	  0.038236473	-3.093000E+00	  0.038236473	6.633200E+01	  0.038236473	2.744300E+01	  0.038236473	6.910600E+01
93	  0.038436871	-3.143000E+00	  0.038436871	6.420100E+01	  0.038436871	2.930800E+01	  0.038436871	7.134000E+01
94	  0.038637273	-3.196000E+00	  0.038637273	6.206900E+01	  0.038637273	3.135900E+01	  0.038637273	7.361600E+01
95	  0.038837675	-3.244000E+00	  0.038837675	5.996400E+01	  0.038837675	3.352900E+01	  0.038837675	7.593400E+01
96	  0.039038073	-3.288000E+00	  0.039038073	5.786200E+01	  0.039038073	3.586300E+01	  0.039038073	7.831900E+01
97	  0.039238475	-3.331000E+00	  0.039238475	5.579700E+01	  0.039238475	3.835700E+01	  0.039238475	8.071200E+01
98	  0.039438877	-3.381000E+00	  0.039438877	5.374400E+01	  0.039438877	4.112300E+01	  0.039438877	8.307300E+01
99	  0.039639279	-3.429000E+00	  0.039639279	5.171100E+01	  0.039639279	4.410700E+01	  0.039639279	8.543400E+01
100	  0.039839678	-3.484000E+00	  0.039839678	4.966000E+01	  0.039839678	4.743800E+01	  0.039839678	8.776600E+01
101	  0.040040080	-3.541000E+00	  0.040040080	4.761700E+01	  0.040040080	5.108600E+01	  0.040040080	9.003600E+01
102	  0.040240481	-3.599000E+00	  0.040240481	4.557100E+01	  0.040240481	5.507300E+01	  0.040240481	9.224600E+01
103	  0.040440880	-3.659000E+00	  0.040440880	4.349300E+01	  0.040440880	5.950000E+01	  0.040440880	9.437900E+01
104	  0.040641282	-3.715000E+00	  0.040641282	4.142200E+01	  0.040641282	6.427200E+01	  0.040641282	9.642500E+01
105	  0.040841684	-3.774000E+00	  0.040841684	3.934700E+01	  0.040841684	6.948800E+01	  0.040841684	9.827200E+01
106	  0.041042086	-3.827000E+00	  0.041042086	3.729300E+01	  0.041042086	7.505500E+01	  0.041042086	9.994800E+01
107	  0.041242484	-3.882000E+00	  0.041242484	3.523300E+01	  0.041242484	8.112400E+01	  0.041242484	1.012950E+02
108	  0.041442886	-3.934000E+00	  0.041442886	3.317000E+01	  0.041442886	8.765300E+01	  0.041442886	1.023410E+02
109	  0.041643288	-3.987000E+00	  0.041643288	3.112000E+01	  0.041643288	9.463700E+01	  0.041643288	1.028950E+02
110	  0.041843686	-4.038000E+00	  0.041843686	2.904900E+01	  0.041843686	1.021570E+02	  0.041843686	1.029490E+02
111	  0.042044088	-4.086000E+00	  0.042044088	2.700400E+01	  0.042044088	1.100340E+02	  0.042044088	1.023790E+02
112	  0.042244490	-4.136000E+00	  0.042244490	2.496500E+01	  0.042244490	1.182910E+02	  0.042244490	1.009810E+02
113	  0.042444889	-4.183000E+00	  0.042444889	2.297800E+01	  0.042444889	1.266370E+02	  0.042444889	9.877000E+01
114	  0.042645290	-4.232000E+00	  0.042645290	2.096900E+01	  0.042645290	1.352750E+02	  0.042645290	9.551100E+01
115	  0.042845692	-4.283000E+00	  0.042845692	1.898800E+01	  0.042845692	1.438090E+02	  0.042845692	9.115400E+01
116	  0.043046094	-4.330000E+00	  0.043046094	1.698500E+01	  0.043046094	1.523320E+02	  0.043046094	8.565600E+01
117	  0.043246493	-4.376000E+00	  0.043246493	1.500000E+01	  0.043246493	1.604760E+02	  0.043246493	7.905000E+01
118	  0.043446895	-4.421000E+00	  0.043446895	1.303200E+01	  0.043446895	1.679720E+02	  0.043446895	7.128500E+01
119	  0.043647297	-4.469000E+00	  0.043647297	1.106000E+01	  0.043647297	1.746330E+02	  0.043647297	6.232200E+01
120	  0.043847695	-4.514000E+00	  0.043847695	9.090000E+00	  0.043847695	1.803110E+02	  0.043847695	5.241600E+01
121	  0.044048097	-4.562000E+00	  0.044048097	7.126000E+00	  0.044048097	1.846220E+02	  0.044048097	4.165800E+01
122	  0.044248499	-4.607000E+00	  0.044248499	5.164000E+00	  0.044248499	1.876250E+02	  0.044248499	3.039500E+01
123	  0.044448901	-4.653000E+00	  0.044448901	3.224000E+00	  0.044448901	1.890600E+02	  0.044448901	1.893200E+01
124	  0.044649299	-4.700000E+00	  0.044649299	1.289000E+00	  0.044649299	1.889590E+02	  0.044649299	7.489000E+00
125	  0.044849701	-4.743000E+00	  0.044849701	-6.090000E-01	  0.044849701	1.875850E+02	  0.044849701	-3.479000E+00
126	  0.045050103	-4.784000E+00	  0.045050103	-2.534000E+00	  0.045050103	1.849390E+02	  0.045050103	-1.412300E+01
127	  0.045250501	-4.824000E+00	  0.045250501	-4.460000E+00	  0.045250501	1.811740E+02	  0.045250501	-2.410800E+01
128	  0.045450903	-4.860000E+00	  0.045450903	-6.356000E+00	  0.045450903	1.765730E+02	  0.045450903	-3.317400E+01
129	  0.045651305	-4.898000E+00	  0.045651305	-8.247000E+00	  0.045651305	1.711370E+02	  0.045651305	-4.130200E+01
130	  0.045851704	-4.941000E+00	  0.045851704	-1.012500E+01	  0.045851704	1.650330E+02	  0.045851704	-4.835200E+01
131	  0.046052106	-4.982000E+00	  0.046052106	-1.199500E+01	  0.046052106	1.585970E+02	  0.046052106	-5.442700E+01
132	  0.046252504	-5.020000E+00	  0.046252504	-1.385500E+01	  0.046252504	1.520440E+02	  0.046252504	-5.961700E+01
133	  0.046452906	-5.059000E+00	  0.046452906	-1.570800E+01	  0.046452906	1.453850E+02	  0.046452906	-6.390200E+01
134	  0.046653304	-5.100000E+00	  0.046653304	-1.755800E+01	  0.046653304	1.387240E+02	  0.046653304	-6.732800E+01
135	  0.046853706	-5.136000E+00	  0.046853706	-1.940700E+01	  0.046853706	1.322600E+02	  0.046853706	-7.015900E+01
136	  0.047054108	-5.174000E+00	  0.047054108	-2.122900E+01	  0.047054108	1.260050E+02	  0.047054108	-7.223500E+01
137	  0.047254506	-5.209000E+00	  0.047254506	-2.304800E+01	  0.047254506	1.200010E+02	  0.047254506	-7.382100E+01
138	  0.047454908	-5.242000E+00	  0.047454908	-2.485300E+01	  0.047454908	1.142990E+02	  0.047454908	-7.496200E+01
139	  0.047655310	-5.273000E+00	  0.047655310	-2.664200E+01	  0.047655310	1.088970E+02	  0.047655310	-7.569800E+01
140	  0.047855709	-5.301000E+00	  0.047855709	-2.839100E+01	  0.047855709	1.038650E+02	  0.047855709	-7.609700E+01
141	  0.048056111	-5.334000E+00	  0.048056111	-3.013000E+01	  0.048056111	9.910100E+01	  0.048056111	-7.612000E+01
142	  0.048256513	-5.367000E+00	  0.048256513	-3.187700E+01	  0.048256513	9.457100E+01	  0.048256513	-7.589800E+01
143	  0.048456915	-5.395000E+00	  0.048456915	-3.362100E+01	  0.048456915	9.030000E+01	  0.048456915	-7.554200E+01
144	  0.048657313	-5.428000E+00	  0.048657313	-3.534500E+01	  0.048657313	8.631600E+01	  0.048657313	-7.492000E+01
145	  0.048857715	-5.456000E+00	  0.048857715	-3.706300E+01	  0.048857715	8.256800E+01	  0.048857715	-7.424100E+01
146	  0.049058117	-5.485000E+00	  0.049058117	-3.879700E+01	  0.049058117	7.900800E+01	  0.049058117	-7.340900E+01
147	  0.049258515	-5.513000E+00	  0.049258515	-4.049200E+01	  0.049258515	7.572600E+01	  0.049258515	-7.250000E+01
148	  0.049458917	-5.536000E+00	  0.049458917	-4.218200E+01	  0.049458917	7.263400E+01	  0.049458917	-7.156800E+01
149	  0.049659319	-5.563000E+00	  0.049659319	-4.390300E+01	  0.049659319	6.967600E+01	  0.049659319	-7.050400E+01
150	  0.049859721	-5.593000E+00	  0.049859721	-4.554000E+01	  0.049859721	6.703500E+01	  0.049859721	-6.940600E+01
151	  0.050060119	-5.618000E+00	  0.050060119	-4.723000E+01	  0.050060119	6.445000E+01	  0.050060119	-6.828100E+01
152	  0.050260521	-5.641000E+00	  0.050260521	-4.890600E+01	  0.050260521	6.202600E+01	  0.050260521	-6.715300E+01
153	  0.050460923	-5.664000E+00	  0.050460923	-5.057600E+01	  0.050460923	5.974800E+01	  0.050460923	-6.599900E+01
154	  0.050661322	-5.683000E+00	  0.050661322	-5.224400E+01	  0.050661322	5.758900E+01	  0.050661322	-6.485400E+01
155	  0.050861724	-5.701000E+00	  0.050861724	-5.386200E+01	  0.050861724	5.560400E+01	  0.050861724	-6.373400E+01
156	  0.051062126	-5.720000E+00	  0.051062126	-5.549400E+01	  0.051062126	5.371300E+01	  0.051062126	-6.258900E+01
157	  0.051262524	-5.736000E+00	  0.051262524	-5.709800E+01	  0.051262524	5.194400E+01	  0.051262524	-6.147200E+01
158	  0.051462926	-5.754000E+00	  0.051462926	-5.866600E+01	  0.051462926	5.031600E+01	  0.051462926	-6.035400E+01
159	  0.051663328	-5.768000E+00	  0.051663328	-6.020800E+01	  0.051663328	4.877800E+01	  0.051663328	-5.928500E+01
160	  0.051863730	-5.785000E+00	  0.051863730	-6.175400E+01	  0.051863730	4.732600E+01	  0.051863730	-5.819200E+01
161	  0.052064128	-5.803000E+00	  0.052064128	-6.329400E+01	  0.052064128	4.595600E+01	  0.052064128	-5.710200E+01
162	  0.052264530	-5.822000E+00	  0.052264530	-6.481300E+01	  0.052264530	4.467900E+01	  0.052264530	-5.602000E+01
163	  0.052464932	-5.837000E+00	  0.052464932	-6.632200E+01	  0.052464932	4.345100E+01	  0.052464932	-5.498000E+01
164	  0.052665330	-5.856000E+00	  0.052665330	-6.786100E+01	  0.052665330	4.227800E+01	  0.052665330	-5.390200E+01
165	  0.052865732	-5.874000E+00	  0.052865732	-6.935600E+01	  0.052865732	4.119000E+01	  0.052865732	-5.286800E+01
166	  0.053066134	-5.896000E+00	  0.053066134	-7.087000E+01	  0.053066134	4.015600E+01	  0.053066134	-5.181200E+01
167	  0.053266536	-5.910000E+00	  0.053266536	-7.237500E+01	  0.053266536	3.914500E+01	  0.053266536	-5.081200E+01
168	  0.053466935	-5.927000E+00	  0.053466935	-7.388100E+01	  0.053466935	3.819200E+01	  0.053466935	-4.980600E+01
169	  0.053667337	-5.941000E+00	  0.053667337	-7.536700E+01	  0.053667337	3.728100E+01	  0.053667337	-4.883800E+01
170	  0.053867739	-5.952000E+00	  0.053867739	-7.688500E+01	  0.053867739	3.638400E+01	  0.053867739	-4.786800E+01
171	  0.054068137	-5.960000E+00	  0.054068137	-7.836400E+01	  0.054068137	3.553600E+01	  0.054068137	-4.694400E+01
172	  0.054268539	-5.972000E+00	  0.054268539	-7.982300E+01	  0.054268539	3.475000E+01	  0.054268539	-4.602800E+01
173	  0.054468941	-5.977000E+00	  0.054468941	-8.128100E+01	  0.054468941	3.397300E+01	  0.054468941	-4.514400E+01
174	  0.054669339	-5.990000E+00	  0.054669339	-8.269800E+01	  0.054669339	3.328100E+01	  0.054669339	-4.426600E+01
175	  0.054869737	-6.001000E+00	  0.054869737	-8.411400E+01	  0.054869737	3.260900E+01	  0.054869737	-4.340500E+01
176	  0.055070139	-6.012000E+00	  0.055070139	-8.551500E+01	  0.055070139	3.196900E+01	  0.055070139	-4.256400E+01
177	  0.055270538	-6.023000E+00	  0.055270538	-8.690300E+01	  0.055270538	3.136400E+01	  0.055270538	-4.173800E+01
178	  0.055470940	-6.033000E+00	  0.055470940	-8.829700E+01	  0.055470940	3.077900E+01	  0.055470940	-4.091700E+01
179	  0.055671342	-6.045000E+00	  0.055671342	-8.968600E+01	  0.055671342	3.022400E+01	  0.055671342	-4.010500E+01
180	  0.055871744	-6.053000E+00	  0.055871744	-9.107900E+01	  0.055871744	2.967300E+01	  0.055871744	-3.931100E+01
181	  0.056072142	-6.061000E+00	  0.056072142	-9.246200E+01	  0.056072142	2.915200E+01	  0.056072142	-3.852800E+01
182	  0.056272544	-6.074000E+00	  0.056272544	-9.383200E+01	  0.056272544	2.867000E+01	  0.056272544	-3.775000E+01
183	  0.056472946	-6.082000E+00	  0.056472946	-9.522600E+01	  0.056472946	2.818200E+01	  0.056472946	-3.697900E+01
184	  0.056673344	-6.092000E+00	  0.056673344	-9.661300E+01	  0.056673344	2.772300E+01	  0.056673344	-3.621400E+01
185	  0.056873746	-6.097000E+00	  0.056873746	-9.797000E+01	  0.056873746	2.727400E+01	  0.056873746	-3.548500E+01
186	  0.057074148	-6.105000E+00	  0.057074148	-9.930400E+01	  0.057074148	2.685800E+01	  0.057074148	-3.476900E+01
187	  0.057274550	-6.106000E+00	  0.057274550	-1.006810E+02	  0.057274550	2.642000E+01	  0.057274550	-3.405300E+01
188	  0.057474948	-6.109000E+00	  0.057474948	-1.020290E+02	  0.057474948	2.601400E+01	  0.057474948	-3.335300E+01
189	  0.057675350	-6.110000E+00	  0.057675350	-1.033310E+02	  0.057675350	2.563100E+01	  0.057675350	-3.268700E+01
190	  0.057875752	-6.112000E+00	  0.057875752	-1.046510E+02	  0.057875752	2.525700E+01	  0.057875752	-3.201500E+01
191	  0.058076151	-6.114000E+00	  0.058076151	-1.059600E+02	  0.058076151	2.490200E+01	  0.058076151	-3.135400E+01
192	  0.058276553	-6.118000E+00	  0.058276553	-1.072230E+02	  0.058276553	2.457500E+01	  0.058276553	-3.072000E+01
193	  0.058476955	-6.117000E+00	  0.058476955	-1.084870E+02	  0.058476955	2.424500E+01	  0.058476955	-3.009700E+01
194	  0.058677353	-6.118000E+00	  0.058677353	-1.097130E+02	  0.058677353	2.394200E+01	  0.058677353	-2.949400E+01
195	  0.058877755	-6.124000E+00	  0.058877755	-1.109900E+02	  0.058877755	2.364900E+01	  0.058877755	-2.886500E+01
196	  0.059078157	-6.126000E+00	  0.059078157	-1.122400E+02	  0.059078157	2.336300E+01	  0.059078157	-2.825900E+01
197	  0.059278559	-6.128000E+00	  0.059278559	-1.134730E+02	  0.059278559	2.309200E+01	  0.059278559	-2.766500E+01
198	  0.059478957	-6.134000E+00	  0.059478957	-1.147100E+02	  0.059478957	2.283700E+01	  0.059478957	-2.706900E+01
199	  0.059679359	-6.140000E+00	  0.059679359	-1.159670E+02	  0.059679359	2.258900E+01	  0.059679359	-2.646800E+01
200	  0.059879761	-6.142000E+00	  0.059879761	-1.171950E+02	  0.059879761	2.234300E+01	  0.059879761	-2.589100E+01
201	  0.060080159	-6.145000E+00	  0.060080159	-1.184190E+02	  0.060080159	2.211100E+01	  0.060080159	-2.531800E+01
202	  0.060280561	-6.148000E+00	  0.060280561	-1.196380E+02	  0.060280561	2.188400E+01	  0.060280561	-2.475200E+01
203	  0.060480963	-6.152000E+00	  0.060480963	-1.208670E+02	  0.060480963	2.167000E+01	  0.060480963	-2.418400E+01
204	  0.060681365	-6.157000E+00	  0.060681365	-1.221030E+02	  0.060681365	2.146300E+01	  0.060681365	-2.361500E+01
205	  0.060881764	-6.159000E+00	  0.060881764	-1.232890E+02	  0.060881764	2.126200E+01	  0.060881764	-2.307800E+01
206	  0.061082166	-6.162000E+00	  0.061082166	-1.244990E+02	  0.061082166	2.106700E+01	  0.061082166	-2.253100E+01
207	  0.061282568	-6.165000E+00	  0.061282568	-1.256910E+02	  0.061282568	2.088200E+01	  0.061282568	-2.199600E+01
208	  0.061482966	-6.164000E+00	  0.061482966	-1.268760E+02	  0.061482966	2.069100E+01	  0.061482966	-2.147200E+01
209	  0.061683368	-6.169000E+00	  0.061683368	-1.280130E+02	  0.061683368	2.053200E+01	  0.061683368	-2.096600E+01
210	  0.061883770	-6.171000E+00	  0.061883770	-1.292040E+02	  0.061883770	2.036100E+01	  0.061883770	-2.044200E+01
211	  0.062084168	-6.178000E+00	  0.062084168	-1.303370E+02	  0.062084168	2.022000E+01	  0.062084168	-1.994100E+01
212	  0.062284570	-6.183000E+00	  0.062284570	-1.314770E+02	  0.062284570	2.007500E+01	  0.062284570	-1.944400E+01
213	  0.062484972	-6.181000E+00	  0.062484972	-1.325260E+02	  0.062484972	1.992800E+01	  0.062484972	-1.899300E+01
214	  0.062685370	-6.189000E+00	  0.062685370	-1.336950E+02	  0.062685370	1.979900E+01	  0.062685370	-1.848500E+01
215	  0.062885776	-6.195000E+00	  0.062885776	-1.348290E+02	  0.062885776	1.967300E+01	  0.062885776	-1.799700E+01
216	  0.063086174	-6.202000E+00	  0.063086174	-1.359340E+02	  0.063086174	1.956100E+01	  0.063086174	-1.752200E+01
217	  0.063286573	-6.210000E+00	  0.063286573	-1.370570E+02	  0.063286573	1.944900E+01	  0.063286573	-1.704200E+01
218	  0.063486971	-6.216000E+00	  0.063486971	-1.381680E+02	  0.063486971	1.933900E+01	  0.063486971	-1.657100E+01
219	  0.063687377	-6.217000E+00	  0.063687377	-1.392760E+02	  0.063687377	1.922100E+01	  0.063687377	-1.610700E+01
220	  0.063887775	-6.220000E+00	  0.063887775	-1.403780E+02	  0.063887775	1.911200E+01	  0.063887775	-1.564600E+01
221	  0.064088173	-6.220000E+00	  0.064088173	-1.414470E+02	  0.064088173	1.900200E+01	  0.064088173	-1.520300E+01
222	  0.064288579	-6.221000E+00	  0.064288579	-1.425420E+02	  0.064288579	1.889600E+01	  0.064288579	-1.475000E+01
223	  0.064488977	-6.220000E+00	  0.064488977	-1.436330E+02	  0.064488977	1.878800E+01	  0.064488977	-1.430200E+01
224	  0.064689375	-6.217000E+00	  0.064689375	-1.446710E+02	  0.064689375	1.868400E+01	  0.064689375	-1.387900E+01
225	  0.064889781	-6.217000E+00	  0.064889781	-1.457150E+02	  0.064889781	1.859200E+01	  0.064889781	-1.345300E+01
226	  0.065090179	-6.213000E+00	  0.065090179	-1.467410E+02	  0.065090179	1.849500E+01	  0.065090179	-1.303700E+01
227	  0.065290578	-6.206000E+00	  0.065290578	-1.477780E+02	  0.065290578	1.839000E+01	  0.065290578	-1.262000E+01
228	  0.065490983	-6.198000E+00	  0.065490983	-1.488090E+02	  0.065490983	1.828800E+01	  0.065490983	-1.220700E+01
229	  0.065691382	-6.193000E+00	  0.065691382	-1.498580E+02	  0.065691382	1.819300E+01	  0.065691382	-1.178700E+01
230	  0.065891780	-6.188000E+00	  0.065891780	-1.508770E+02	  0.065891780	1.810400E+01	  0.065891780	-1.138000E+01
231	  0.066092186	-6.182000E+00	  0.066092186	-1.519160E+02	  0.066092186	1.801600E+01	  0.066092186	-1.096600E+01
232	  0.066292584	-6.177000E+00	  0.066292584	-1.529700E+02	  0.066292584	1.793100E+01	  0.066292584	-1.054600E+01
233	  0.066492982	-6.169000E+00	  0.066492982	-1.540130E+02	  0.066492982	1.784300E+01	  0.066492982	-1.013300E+01
234	  0.066693388	-6.167000E+00	  0.066693388	-1.550550E+02	  0.066693388	1.777300E+01	  0.066693388	-9.719000E+00
235	  0.066893786	-6.160000E+00	  0.066893786	-1.560780E+02	  0.066893786	1.769600E+01	  0.066893786	-9.315000E+00
236	  0.067094192	-6.156000E+00	  0.067094192	-1.571160E+02	  0.067094192	1.762600E+01	  0.067094192	-8.905000E+00
237	  0.067294590	-6.150000E+00	  0.067294590	-1.581690E+02	  0.067294590	1.755400E+01	  0.067294590	-8.491000E+00
238	  0.067494988	-6.148000E+00	  0.067494988	-1.592130E+02	  0.067494988	1.749700E+01	  0.067494988	-8.079000E+00
239	  0.067695394	-6.145000E+00	  0.067695394	-1.602560E+02	  0.067695394	1.743800E+01	  0.067695394	-7.670000E+00
240	  0.067895792	-6.134000E+00	  0.067895792	-1.612900E+02	  0.067895792	1.736300E+01	  0.067895792	-7.266000E+00
241	  0.068096191	-6.132000E+00	  0.068096191	-1.623530E+02	  0.068096191	1.731200E+01	  0.068096191	-6.850000E+00
242	  0.068296596	-6.136000E+00	  0.068296596	-1.633840E+02	  0.068296596	1.728200E+01	  0.068296596	-6.445000E+00
243	  0.068496995	-6.130000E+00	  0.068496995	-1.643910E+02	  0.068496995	1.722900E+01	  0.068496995	-6.052000E+00
244	  0.068697393	-6.128000E+00	  0.068697393	-1.654020E+02	  0.068697393	1.718800E+01	  0.068697393	-5.658000E+00
245	  0.068897791	-6.126000E+00	  0.068897791	-1.664480E+02	  0.068897791	1.714900E+01	  0.068897791	-5.250000E+00
246	  0.069098189	-6.121000E+00	  0.069098189	-1.674450E+02	  0.069098189	1.710600E+01	  0.069098189	-4.863000E+00
247	  0.069298595	-6.116000E+00	  0.069298595	-1.684680E+02	  0.069298595	1.706300E+01	  0.069298595	-4.466000E+00
248	  0.069498993	-6.113000E+00	  0.069498993	-1.694410E+02	  0.069498993	1.703200E+01	  0.069498993	-4.087000E+00
249	  0.069699399	-6.119000E+00	  0.069699399	-1.704540E+02	  0.069699399	1.702400E+01	  0.069699399	-3.693000E+00
250	  0.069899797	-6.115000E+00	  0.069899797	-1.714760E+02	  0.069899797	1.699100E+01	  0.069899797	-3.297000E+00
251	  0.070100196	-6.121000E+00	  0.070100196	-1.724780E+02	  0.070100196	1.698800E+01	  0.070100196	-2.908000E+00
252	  0.070300601	-6.121000E+00	  0.070300601	-1.734300E+02	  0.070300601	1.697200E+01	  0.070300601	-2.539000E+00
253	  0.070501000	-6.115000E+00	  0.070501000	-1.744350E+02	  0.070501000	1.694300E+01	  0.070501000	-2.151000E+00
254	  0.070701398	-6.116000E+00	  0.070701398	-1.754520E+02	  0.070701398	1.693400E+01	  0.070701398	-1.757000E+00
255	  0.070901804	-6.113000E+00	  0.070901804	-1.764230E+02	  0.070901804	1.691800E+01	  0.070901804	-1.382000E+00
256	  0.071102202	-6.108000E+00	  0.071102202	-1.773820E+02	  0.071102202	1.690000E+01	  0.071102202	-1.011000E+00
257	  0.071302600	-6.113000E+00	  0.071302600	-1.783820E+02	  0.071302600	1.690700E+01	  0.071302600	-6.250000E-01
258	  0.071503006	-6.116000E+00	  0.071503006	-1.793720E+02	  0.071503006	1.691100E+01	  0.071503006	-2.420000E-01
259	  0.071703404	-6.120000E+00	  0.071703404	1.796260E+02	  0.071703404	1.692000E+01	  0.071703404	1.440000E-01
260	  0.071903802	-6.118000E+00	  0.071903802	1.786850E+02	  0.071903802	1.691700E+01	  0.071903802	5.070000E-01
261	  0.072104208	-6.124000E+00	  0.072104208	1.777290E+02	  0.072104208	1.693800E+01	  0.072104208	8.770000E-01
262	  0.072304606	-6.123000E+00	  0.072304606	1.767500E+02	  0.072304606	1.694100E+01	  0.072304606	1.255000E+00
263	  0.072505005	-6.128000E+00	  0.072505005	1.757920E+02	  0.072505005	1.696200E+01	  0.072505005	1.625000E+00
264	  0.072705410	-6.133000E+00	  0.072705410	1.748350E+02	  0.072705410	1.698400E+01	  0.072705410	1.995000E+00
265	  0.072905809	-6.137000E+00	  0.072905809	1.738600E+02	  0.072905809	1.700700E+01	  0.072905809	2.372000E+00
266	  0.073106214	-6.140000E+00	  0.073106214	1.728910E+02	  0.073106214	1.703000E+01	  0.073106214	2.746000E+00
267	  0.073306613	-6.142000E+00	  0.073306613	1.719160E+02	  0.073306613	1.705200E+01	  0.073306613	3.123000E+00
268	  0.073507011	-6.148000E+00	  0.073507011	1.709900E+02	  0.073507011	1.708500E+01	  0.073507011	3.481000E+00
269	  0.073707417	-6.157000E+00	  0.073707417	1.700180E+02	  0.073707417	1.712900E+01	  0.073707417	3.857000E+00
270	  0.073907815	-6.159000E+00	  0.073907815	1.690590E+02	  0.073907815	1.715900E+01	  0.073907815	4.228000E+00
271	  0.074108213	-6.164000E+00	  0.074108213	1.681080E+02	  0.074108213	1.719700E+01	  0.074108213	4.597000E+00
272	  0.074308619	-6.170000E+00	  0.074308619	1.671500E+02	  0.074308619	1.724000E+01	  0.074308619	4.968000E+00
273	  0.074509017	-6.174000E+00	  0.074509017	1.661830E+02	  0.074509017	1.728100E+01	  0.074509017	5.343000E+00
274	  0.074709415	-6.182000E+00	  0.074709415	1.652210E+02	  0.074709415	1.733300E+01	  0.074709415	5.716000E+00
275	  0.074909821	-6.185000E+00	  0.074909821	1.642850E+02	  0.074909821	1.737500E+01	  0.074909821	6.080000E+00
276	  0.075110219	-6.198000E+00	  0.075110219	1.633360E+02	  0.075110219	1.744300E+01	  0.075110219	6.447000E+00
277	  0.075310618	-6.204000E+00	  0.075310618	1.624200E+02	  0.075310618	1.749600E+01	  0.075310618	6.803000E+00
278	  0.075511023	-6.215000E+00	  0.075511023	1.614960E+02	  0.075511023	1.756300E+01	  0.075511023	7.162000E+00
279	  0.075711422	-6.217000E+00	  0.075711422	1.605730E+02	  0.075711422	1.761000E+01	  0.075711422	7.523000E+00
280	  0.075911827	-6.225000E+00	  0.075911827	1.596760E+02	  0.075911827	1.767300E+01	  0.075911827	7.873000E+00
281	  0.076112226	-6.233000E+00	  0.076112226	1.587270E+02	  0.076112226	1.774200E+01	  0.076112226	8.242000E+00
282	  0.076312624	-6.243000E+00	  0.076312624	1.578090E+02	  0.076312624	1.781500E+01	  0.076312624	8.601000E+00
283	  0.076513030	-6.253000E+00	  0.076513030	1.568790E+02	  0.076513030	1.789200E+01	  0.076513030	8.964000E+00
284	  0.076713428	-6.264000E+00	  0.076713428	1.559640E+02	  0.076713428	1.797300E+01	  0.076713428	9.321000E+00
285	  0.076913826	-6.275000E+00	  0.076913826	1.550540E+02	  0.076913826	1.805800E+01	  0.076913826	9.676000E+00
286	  0.077114232	-6.285000E+00	  0.077114232	1.541600E+02	  0.077114232	1.813700E+01	  0.077114232	1.002600E+01
287	  0.077314630	-6.289000E+00	  0.077314630	1.532790E+02	  0.077314630	1.820700E+01	  0.077314630	1.037400E+01
288	  0.077515028	-6.296000E+00	  0.077515028	1.524110E+02	  0.077515028	1.828300E+01	  0.077515028	1.071600E+01
289	  0.077715434	-6.306000E+00	  0.077715434	1.515300E+02	  0.077715434	1.837100E+01	  0.077715434	1.106200E+01
290	  0.077915832	-6.320000E+00	  0.077915832	1.506540E+02	  0.077915832	1.847000E+01	  0.077915832	1.140500E+01
291	  0.078116231	-6.331000E+00	  0.078116231	1.497510E+02	  0.078116231	1.856700E+01	  0.078116231	1.176100E+01
292	  0.078316636	-6.346000E+00	  0.078316636	1.488900E+02	  0.078316636	1.867300E+01	  0.078316636	1.209900E+01
293	  0.078517035	-6.365000E+00	  0.078517035	1.480280E+02	  0.078517035	1.879200E+01	  0.078517035	1.243500E+01
294	  0.078717433	-6.379000E+00	  0.078717433	1.471760E+02	  0.078717433	1.889900E+01	  0.078717433	1.277000E+01
295	  0.078917839	-6.394000E+00	  0.078917839	1.463180E+02	  0.078917839	1.901400E+01	  0.078917839	1.310600E+01
296	  0.079118237	-6.407000E+00	  0.079118237	1.454580E+02	  0.079118237	1.912600E+01	  0.079118237	1.344600E+01
297	  0.079318643	-6.431000E+00	  0.079318643	1.446220E+02	  0.079318643	1.926400E+01	  0.079318643	1.377000E+01
298	  0.079519041	-6.442000E+00	  0.079519041	1.437490E+02	  0.079519041	1.937600E+01	  0.079519041	1.411600E+01
299	  0.079719439	-6.464000E+00	  0.079719439	1.429190E+02	  0.079719439	1.951500E+01	  0.079719439	1.443900E+01
300	  0.079919845	-6.483000E+00	  0.079919845	1.420560E+02	  0.079919845	1.965200E+01	  0.079919845	1.477800E+01
301	  0.080120243	-6.500000E+00	  0.080120243	1.412280E+02	  0.080120243	1.978300E+01	  0.080120243	1.510400E+01
302	  0.080320641	-6.517000E+00	  0.080320641	1.403500E+02	  0.080320641	1.992100E+01	  0.080320641	1.545000E+01
303	  0.080521047	-6.534000E+00	  0.080521047	1.395020E+02	  0.080521047	2.006100E+01	  0.080521047	1.578500E+01
304	  0.080721445	-6.551000E+00	  0.080721445	1.386680E+02	  0.080721445	2.019900E+01	  0.080721445	1.611400E+01
305	  0.080921844	-6.574000E+00	  0.080921844	1.378340E+02	  0.080921844	2.035900E+01	  0.080921844	1.643900E+01
306	  0.081122249	-6.587000E+00	  0.081122249	1.369930E+02	  0.081122249	2.049400E+01	  0.081122249	1.677500E+01
307	  0.081322648	-6.606000E+00	  0.081322648	1.361620E+02	  0.081322648	2.064500E+01	  0.081322648	1.710300E+01
308	  0.081523046	-6.621000E+00	  0.081523046	1.353540E+02	  0.081523046	2.078900E+01	  0.081523046	1.742400E+01
309	  0.081723452	-6.640000E+00	  0.081723452	1.344990E+02	  0.081723452	2.094800E+01	  0.081723452	1.776300E+01
310	  0.081923850	-6.656000E+00	  0.081923850	1.337180E+02	  0.081923850	2.109600E+01	  0.081923850	1.807300E+01
311	  0.082124248	-6.677000E+00	  0.082124248	1.328980E+02	  0.082124248	2.126300E+01	  0.082124248	1.839600E+01
312	  0.082324654	-6.695000E+00	  0.082324654	1.321180E+02	  0.082324654	2.142000E+01	  0.082324654	1.870500E+01
313	  0.082525052	-6.712000E+00	  0.082525052	1.313330E+02	  0.082525052	2.158000E+01	  0.082525052	1.901600E+01
314	  0.082725458	-6.732000E+00	  0.082725458	1.305780E+02	  0.082725458	2.174500E+01	  0.082725458	1.931300E+01
315	  0.082925856	-6.754000E+00	  0.082925856	1.298010E+02	  0.082925856	2.192100E+01	  0.082925856	1.961700E+01
316	  0.083126254	-6.777000E+00	  0.083126254	1.290260E+02	  0.083126254	2.210200E+01	  0.083126254	1.992000E+01
317	  0.083326660	-6.799000E+00	  0.083326660	1.282300E+02	  0.083326660	2.228600E+01	  0.083326660	2.023300E+01
318	  0.083527058	-6.817000E+00	  0.083527058	1.274470E+02	  0.083527058	2.246100E+01	  0.083527058	2.054300E+01
319	  0.083727457	-6.837000E+00	  0.083727457	1.266580E+02	  0.083727457	2.264500E+01	  0.083727457	2.085500E+01
320	  0.083927862	-6.855000E+00	  0.083927862	1.259220E+02	  0.083927862	2.282000E+01	  0.083927862	2.114700E+01
321	  0.084128261	-6.879000E+00	  0.084128261	1.251370E+02	  0.084128261	2.302000E+01	  0.084128261	2.145300E+01
322	  0.084328659	-6.894000E+00	  0.084328659	1.244310E+02	  0.084328659	2.318300E+01	  0.084328659	2.173600E+01
323	  0.084529065	-6.912000E+00	  0.084529065	1.237100E+02	  0.084529065	2.336300E+01	  0.084529065	2.202100E+01
324	  0.084729463	-6.940000E+00	  0.084729463	1.229730E+02	  0.084729463	2.357600E+01	  0.084729463	2.230100E+01
325	  0.084929861	-6.961000E+00	  0.084929861	1.222610E+02	  0.084929861	2.376600E+01	  0.084929861	2.257900E+01
326	  0.085130267	-6.985000E+00	  0.085130267	1.215070E+02	  0.085130267	2.397600E+01	  0.085130267	2.287200E+01
327	  0.085330658	-7.005000E+00	  0.085330658	1.207500E+02	  0.085330658	2.418000E+01	  0.085330658	2.316900E+01
328	  0.085531056	-7.028000E+00	  0.085531056	1.200770E+02	  0.085531056	2.437700E+01	  0.085531056	2.342800E+01
329	  0.085731462	-7.054000E+00	  0.085731462	1.193580E+02	  0.085731462	2.459600E+01	  0.085731462	2.370100E+01
330	  0.085931860	-7.082000E+00	  0.085931860	1.186450E+02	  0.085931860	2.482100E+01	  0.085931860	2.396900E+01
331	  0.086132258	-7.113000E+00	  0.086132258	1.179360E+02	  0.086132258	2.505700E+01	  0.086132258	2.423100E+01
332	  0.086332664	-7.141000E+00	  0.086332664	1.172520E+02	  0.086332664	2.528200E+01	  0.086332664	2.448500E+01
333	  0.086533062	-7.171000E+00	  0.086533062	1.164910E+02	  0.086533062	2.553400E+01	  0.086533062	2.476900E+01
334	  0.086733460	-7.200000E+00	  0.086733460	1.158060E+02	  0.086733460	2.577000E+01	  0.086733460	2.502000E+01
335	  0.086933866	-7.226000E+00	  0.086933866	1.150460E+02	  0.086933866	2.601500E+01	  0.086933866	2.530800E+01
336	  0.087134264	-7.257000E+00	  0.087134264	1.143100E+02	  0.087134264	2.627600E+01	  0.087134264	2.557600E+01
337	  0.087334670	-7.283000E+00	  0.087334670	1.135880E+02	  0.087334670	2.652100E+01	  0.087334670	2.584600E+01
338	  0.087535068	-7.315000E+00	  0.087535068	1.128260E+02	  0.087535068	2.679400E+01	  0.087535068	2.612400E+01
339	  0.087735467	-7.341000E+00	  0.087735467	1.121480E+02	  0.087735467	2.703500E+01	  0.087735467	2.637300E+01
340	  0.087935872	-7.371000E+00	  0.087935872	1.114040E+02	  0.087935872	2.730900E+01	  0.087935872	2.664200E+01
341	  0.088136271	-7.399000E+00	  0.088136271	1.107160E+02	  0.088136271	2.756300E+01	  0.088136271	2.689200E+01
342	  0.088336669	-7.427000E+00	  0.088336669	1.099960E+02	  0.088336669	2.783300E+01	  0.088336669	2.715200E+01
343	  0.088537075	-7.458000E+00	  0.088537075	1.092910E+02	  0.088537075	2.810600E+01	  0.088537075	2.740200E+01
344	  0.088737473	-7.484000E+00	  0.088737473	1.086200E+02	  0.088737473	2.836300E+01	  0.088737473	2.764200E+01
345	  0.088937871	-7.510000E+00	  0.088937871	1.079740E+02	  0.088937871	2.861300E+01	  0.088937871	2.787300E+01
346	  0.089138277	-7.545000E+00	  0.089138277	1.072820E+02	  0.089138277	2.890900E+01	  0.089138277	2.810400E+01
347	  0.089338675	-7.563000E+00	  0.089338675	1.066400E+02	  0.089338675	2.914300E+01	  0.089338675	2.834400E+01
348	  0.089539073	-7.605000E+00	  0.089539073	1.060060E+02	  0.089539073	2.944600E+01	  0.089539073	2.853600E+01
349	  0.089739479	-7.630000E+00	  0.089739479	1.053770E+02	  0.089739479	2.970200E+01	  0.089739479	2.875600E+01
350	  0.089939877	-7.668000E+00	  0.089939877	1.047480E+02	  0.089939877	2.999800E+01	  0.089939877	2.894800E+01
351	  0.090140276	-7.692000E+00	  0.090140276	1.041030E+02	  0.090140276	3.026200E+01	  0.090140276	2.917400E+01
352	  0.090340681	-7.725000E+00	  0.090340681	1.034870E+02	  0.090340681	3.054700E+01	  0.090340681	2.936700E+01
353	  0.090541080	-7.753000E+00	  0.090541080	1.028380E+02	  0.090541080	3.082800E+01	  0.090541080	2.958500E+01
354	  0.090741485	-7.781000E+00	  0.090741485	1.022500E+02	  0.090741485	3.109600E+01	  0.090741485	2.977400E+01
355	  0.090941884	-7.811000E+00	  0.090941884	1.016390E+02	  0.090941884	3.137700E+01	  0.090941884	2.996800E+01
356	  0.091142282	-7.839000E+00	  0.091142282	1.010350E+02	  0.091142282	3.165600E+01	  0.091142282	3.016000E+01
357	  0.091342688	-7.876000E+00	  0.091342688	1.004540E+02	  0.091342688	3.195200E+01	  0.091342688	3.032300E+01
358	  0.091543086	-7.904000E+00	  0.091543086	9.985300E+01	  0.091543086	3.223600E+01	  0.091543086	3.050900E+01
359	  0.091743484	-7.934000E+00	  0.091743484	9.929800E+01	  0.091743484	3.251000E+01	  0.091743484	3.067300E+01
360	  0.091943890	-7.959000E+00	  0.091943890	9.875000E+01	  0.091943890	3.277000E+01	  0.091943890	3.084300E+01
361	  0.092144288	-7.989000E+00	  0.092144288	9.818200E+01	  0.092144288	3.305500E+01	  0.092144288	3.100700E+01
362	  0.092344686	-8.016000E+00	  0.092344686	9.760300E+01	  0.092344686	3.333600E+01	  0.092344686	3.118300E+01
363	  0.092545092	-8.049000E+00	  0.092545092	9.703700E+01	  0.092545092	3.363100E+01	  0.092545092	3.133700E+01
364	  0.092745490	-8.080000E+00	  0.092745490	9.648600E+01	  0.092745490	3.392100E+01	  0.092745490	3.148500E+01
365	  0.092945889	-8.117000E+00	  0.092945889	9.595400E+01	  0.092945889	3.421900E+01	  0.092945889	3.161100E+01
366	  0.093146294	-8.150000E+00	  0.093146294	9.544500E+01	  0.093146294	3.450000E+01	  0.093146294	3.173500E+01
367	  0.093346693	-8.181000E+00	  0.093346693	9.486900E+01	  0.093346693	3.480600E+01	  0.093346693	3.188700E+01
368	  0.093547091	-8.214000E+00	  0.093547091	9.437200E+01	  0.093547091	3.508700E+01	  0.093547091	3.200300E+01
369	  0.093747497	-8.242000E+00	  0.093747497	9.382100E+01	  0.093747497	3.537600E+01	  0.093747497	3.215100E+01
370	  0.093947895	-8.279000E+00	  0.093947895	9.325400E+01	  0.093947895	3.570100E+01	  0.093947895	3.227700E+01
371	  0.094148301	-8.309000E+00	  0.094148301	9.269500E+01	  0.094148301	3.600500E+01	  0.094148301	3.241800E+01
372	  0.094348699	-8.342000E+00	  0.094348699	9.215200E+01	  0.094348699	3.631200E+01	  0.094348699	3.254300E+01
373	  0.094549097	-8.371000E+00	  0.094549097	9.162600E+01	  0.094549097	3.660500E+01	  0.094549097	3.266800E+01
374	  0.094749503	-8.409000E+00	  0.094749503	9.111300E+01	  0.094749503	3.691900E+01	  0.094749503	3.276100E+01
375	  0.094949901	-8.428000E+00	  0.094949901	9.059200E+01	  0.094949901	3.718800E+01	  0.094949901	3.290900E+01
376	  0.095150299	-8.460000E+00	  0.095150299	9.008400E+01	  0.095150299	3.748700E+01	  0.095150299	3.301200E+01
377	  0.095350705	-8.481000E+00	  0.095350705	8.954300E+01	  0.095350705	3.777500E+01	  0.095350705	3.315800E+01
378	  0.095551103	-8.512000E+00	  0.095551103	8.903700E+01	  0.095551103	3.807300E+01	  0.095551103	3.326000E+01
379	  0.095751502	-8.541000E+00	  0.095751502	8.855700E+01	  0.095751502	3.835900E+01	  0.095751502	3.335400E+01
380	  0.095951907	-8.558000E+00	  0.095951907	8.807200E+01	  0.095951907	3.861800E+01	  0.095951907	3.348600E+01
381	  0.096152306	-8.583000E+00	  0.096152306	8.758100E+01	  0.096152306	3.890200E+01	  0.096152306	3.359200E+01
382	  0.096352704	-8.611000E+00	  0.096352704	8.710600E+01	  0.096352704	3.918800E+01	  0.096352704	3.368200E+01
383	  0.096553110	-8.633000E+00	  0.096553110	8.665700E+01	  0.096553110	3.944900E+01	  0.096553110	3.377900E+01
384	  0.096753508	-8.657000E+00	  0.096753508	8.619800E+01	  0.096753508	3.972000E+01	  0.096753508	3.387100E+01
385	  0.096953906	-8.681000E+00	  0.096953906	8.574000E+01	  0.096953906	3.999400E+01	  0.096953906	3.396000E+01
386	  0.097154312	-8.701000E+00	  0.097154312	8.528000E+01	  0.097154312	4.026100E+01	  0.097154312	3.406200E+01
387	  0.097354710	-8.720000E+00	  0.097354710	8.481100E+01	  0.097354710	4.053100E+01	  0.097354710	3.416800E+01
388	  0.097555116	-8.745000E+00	  0.097555116	8.439400E+01	  0.097555116	4.079200E+01	  0.097555116	3.423300E+01
389	  0.097755514	-8.766000E+00	  0.097755514	8.397100E+01	  0.097755514	4.104700E+01	  0.097755514	3.431400E+01
390	  0.097955912	-8.788000E+00	  0.097955912	8.353400E+01	  0.097955912	4.131300E+01	  0.097955912	3.439500E+01
391	  0.098156318	-8.809000E+00	  0.098156318	8.311700E+01	  0.098156318	4.156700E+01	  0.098156318	3.447000E+01
392	  0.098356716	-8.823000E+00	  0.098356716	8.269300E+01	  0.098356716	4.181300E+01	  0.098356716	3.456500E+01
393	  0.098557115	-8.845000E+00	  0.098557115	8.227800E+01	  0.098557115	4.207200E+01	  0.098557115	3.463300E+01
394	  0.098757520	-8.859000E+00	  0.098757520	8.188300E+01	  0.098757520	4.230500E+01	  0.098757520	3.471800E+01
395	  0.098957919	-8.877000E+00	  0.098957919	8.149300E+01	  0.098957919	4.254500E+01	  0.098957919	3.478700E+01
396	  0.099158317	-8.894000E+00	  0.099158317	8.108200E+01	  0.099158317	4.279600E+01	  0.099158317	3.486400E+01
397	  0.099358723	-8.909000E+00	  0.099358723	8.069200E+01	  0.099358723	4.303200E+01	  0.099358723	3.494000E+01
398	  0.099559121	-8.924000E+00	  0.099559121	8.034000E+01	  0.099559121	4.324900E+01	  0.099559121	3.500300E+01
399	  0.099759519	-8.939000E+00	  0.099759519	7.995400E+01	  0.099759519	4.348400E+01	  0.099759519	3.507700E+01
400	  0.099959925	-8.950000E+00	  0.099959925	7.958300E+01	  0.099959925	4.370600E+01	  0.099959925	3.515700E+01
401	  0.100160323	-8.969000E+00	  0.100160323	7.913100E+01	  0.100160323	4.398900E+01	  0.100160323	3.523200E+01
402	  0.100360721	-8.989000E+00	  0.100360721	7.889200E+01	  0.100360721	4.416200E+01	  0.100360721	3.523300E+01
403	  0.100561127	-8.990000E+00	  0.100561127	7.845200E+01	  0.100561127	4.440400E+01	  0.100561127	3.536700E+01
404	  0.100761525	-9.013000E+00	  0.100761525	7.809200E+01	  0.100761525	4.464700E+01	  0.100761525	3.539700E+01
405	  0.100961931	-9.015000E+00	  0.100961931	7.769700E+01	  0.100961931	4.487000E+01	  0.100961931	3.551100E+01
406	  0.101162329	-9.044000E+00	  0.101162329	7.724900E+01	  0.101162329	4.517900E+01	  0.101162329	3.553900E+01
407	  0.101362728	-9.042000E+00	  0.101362728	7.689200E+01	  0.101362728	4.537500E+01	  0.101362728	3.565400E+01
408	  0.101563133	-9.070000E+00	  0.101563133	7.648900E+01	  0.101563133	4.565900E+01	  0.101563133	3.566700E+01
409	  0.101763532	-9.062000E+00	  0.101763532	7.610800E+01	  0.101763532	4.586000E+01	  0.101763532	3.581000E+01
410	  0.101963930	-9.089000E+00	  0.101963930	7.573600E+01	  0.101963930	4.612700E+01	  0.101963930	3.581500E+01
411	  0.102164336	-9.087000E+00	  0.102164336	7.536500E+01	  0.102164336	4.633800E+01	  0.102164336	3.593000E+01
412	  0.102364734	-9.086000E+00	  0.102364734	7.499100E+01	  0.102364734	4.655400E+01	  0.102364734	3.604000E+01
413	  0.102565132	-9.098000E+00	  0.102565132	7.462700E+01	  0.102565132	4.679100E+01	  0.102565132	3.609500E+01
414	  0.102765530	-9.102000E+00	  0.102765530	7.418000E+01	  0.102765530	4.706200E+01	  0.102765530	3.620800E+01
415	  0.102965929	-9.098000E+00	  0.102965929	7.384600E+01	  0.102965929	4.725500E+01	  0.102965929	3.631500E+01
416	  0.103166327	-9.100000E+00	  0.103166327	7.348700E+01	  0.103166327	4.747400E+01	  0.103166327	3.640700E+01
417	  0.103366733	-9.096000E+00	  0.103366733	7.320800E+01	  0.103366733	4.763600E+01	  0.103366733	3.649700E+01
418	  0.103567131	-9.088000E+00	  0.103567131	7.278600E+01	  0.103567131	4.787900E+01	  0.103567131	3.664400E+01
419	  0.103767529	-9.085000E+00	  0.103767529	7.248200E+01	  0.103767529	4.806100E+01	  0.103767529	3.673900E+01
420	  0.103967935	-9.089000E+00	  0.103967935	7.212600E+01	  0.103967935	4.828700E+01	  0.103967935	3.682000E+01
421	  0.104168333	-9.076000E+00	  0.104168333	7.174900E+01	  0.104168333	4.849900E+01	  0.104168333	3.697300E+01
422	  0.104368731	-9.054000E+00	  0.104368731	7.146700E+01	  0.104368731	4.863900E+01	  0.104368731	3.713600E+01
423	  0.104569137	-9.034000E+00	  0.104569137	7.109400E+01	  0.104569137	4.883900E+01	  0.104569137	3.732000E+01
424	  0.104769535	-9.024000E+00	  0.104769535	7.067700E+01	  0.104769535	4.908900E+01	  0.104769535	3.747000E+01
425	  0.104969934	-9.000000E+00	  0.104969934	7.025600E+01	  0.104969934	4.931900E+01	  0.104969934	3.768300E+01
426	  0.105170339	-8.976000E+00	  0.105170339	6.988900E+01	  0.105170339	4.951700E+01	  0.105170339	3.788200E+01
427	  0.105370738	-8.938000E+00	  0.105370738	6.948500E+01	  0.105370738	4.972000E+01	  0.105370738	3.814900E+01
428	  0.105571143	-8.921000E+00	  0.105571143	6.905500E+01	  0.105571143	4.997600E+01	  0.105571143	3.833700E+01
429	  0.105771542	-8.893000E+00	  0.105771542	6.863300E+01	  0.105771542	5.021200E+01	  0.105771542	3.856900E+01
430	  0.105971940	-8.874000E+00	  0.105971940	6.811500E+01	  0.105971940	5.053200E+01	  0.105971940	3.878700E+01
431	  0.106172346	-8.843000E+00	  0.106172346	6.765800E+01	  0.106172346	5.079500E+01	  0.106172346	3.904200E+01
432	  0.106372744	-8.818000E+00	  0.106372744	6.715900E+01	  0.106372744	5.110200E+01	  0.106372744	3.928300E+01
433	  0.106573142	-8.795000E+00	  0.106573142	6.665100E+01	  0.106573142	5.142200E+01	  0.106573142	3.951600E+01
434	  0.106773548	-8.767000E+00	  0.106773548	6.615900E+01	  0.106773548	5.172900E+01	  0.106773548	3.976600E+01
435	  0.106973946	-8.743000E+00	  0.106973946	6.561400E+01	  0.106973946	5.208200E+01	  0.106973946	4.001700E+01
436	  0.107174344	-8.713000E+00	  0.107174344	6.512600E+01	  0.107174344	5.239300E+01	  0.107174344	4.027900E+01
437	  0.107374750	-8.695000E+00	  0.107374750	6.449800E+01	  0.107374750	5.283000E+01	  0.107374750	4.051700E+01
438	  0.107575148	-8.677000E+00	  0.107575148	6.395600E+01	  0.107575148	5.321000E+01	  0.107575148	4.073200E+01
439	  0.107775547	-8.653000E+00	  0.107775547	6.338800E+01	  0.107775547	5.360700E+01	  0.107775547	4.098200E+01
440	  0.107975952	-8.635000E+00	  0.107975952	6.281300E+01	  0.107975952	5.402400E+01	  0.107975952	4.120200E+01
441	  0.108176351	-8.605000E+00	  0.108176351	6.217600E+01	  0.108176351	5.447800E+01	  0.108176351	4.150200E+01
442	  0.108376749	-8.581000E+00	  0.108376749	6.161500E+01	  0.108376749	5.488900E+01	  0.108376749	4.174800E+01
443	  0.108577155	-8.569000E+00	  0.108577155	6.096100E+01	  0.108577155	5.539900E+01	  0.108577155	4.195100E+01
444	  0.108777553	-8.542000E+00	  0.108777553	6.033000E+01	  0.108777553	5.588000E+01	  0.108777553	4.222200E+01
445	  0.108977959	-8.524000E+00	  0.108977959	5.966900E+01	  0.108977959	5.640400E+01	  0.108977959	4.245400E+01
446	  0.109178357	-8.515000E+00	  0.109178357	5.900400E+01	  0.109178357	5.695200E+01	  0.109178357	4.263200E+01
447	  0.109378755	-8.496000E+00	  0.109378755	5.834200E+01	  0.109378755	5.749500E+01	  0.109378755	4.285800E+01
448	  0.109579161	-8.467000E+00	  0.109579161	5.766100E+01	  0.109579161	5.805200E+01	  0.109579161	4.314500E+01
449	  0.109779559	-8.453000E+00	  0.109779559	5.697200E+01	  0.109779559	5.864300E+01	  0.109779559	4.334300E+01
450	  0.109979957	-8.428000E+00	  0.109979957	5.623700E+01	  0.109979957	5.927400E+01	  0.109979957	4.360900E+01
451	  0.110180363	-8.420000E+00	  0.110180363	5.556500E+01	  0.110180363	5.987700E+01	  0.110180363	4.375700E+01
452	  0.110380761	-8.404000E+00	  0.110380761	5.482200E+01	  0.110380761	6.054700E+01	  0.110380761	4.395600E+01
453	  0.110581160	-8.389000E+00	  0.110581160	5.411200E+01	  0.110581160	6.120000E+01	  0.110581160	4.414000E+01
454	  0.110781565	-8.383000E+00	  0.110781565	5.332900E+01	  0.110781565	6.193800E+01	  0.110781565	4.427200E+01
455	  0.110981964	-8.362000E+00	  0.110981964	5.260500E+01	  0.110981964	6.262200E+01	  0.110981964	4.447600E+01
456	  0.111182362	-8.350000E+00	  0.111182362	5.186200E+01	  0.111182362	6.334300E+01	  0.111182362	4.462100E+01
457	  0.111382768	-8.335000E+00	  0.111382768	5.113200E+01	  0.111382768	6.406100E+01	  0.111382768	4.477700E+01
458	  0.111583166	-8.329000E+00	  0.111583166	5.028400E+01	  0.111583166	6.491400E+01	  0.111583166	4.487200E+01
459	  0.111783572	-8.319000E+00	  0.111783572	4.948700E+01	  0.111783572	6.572800E+01	  0.111783572	4.497100E+01
460	  0.111983970	-8.313000E+00	  0.111983970	4.873600E+01	  0.111983970	6.650600E+01	  0.111983970	4.503600E+01
461	  0.112184368	-8.306000E+00	  0.112184368	4.793700E+01	  0.112184368	6.734800E+01	  0.112184368	4.508900E+01
462	  0.112384774	-8.301000E+00	  0.112384774	4.704600E+01	  0.112384774	6.830000E+01	  0.112384774	4.511700E+01
463	  0.112585172	-8.295000E+00	  0.112585172	4.621500E+01	  0.112585172	6.920000E+01	  0.112585172	4.513200E+01
464	  0.112785570	-8.293000E+00	  0.112785570	4.537200E+01	  0.112785570	7.012600E+01	  0.112785570	4.509700E+01
465	  0.112985976	-8.291000E+00	  0.112985976	4.455300E+01	  0.112985976	7.103600E+01	  0.112985976	4.504600E+01
466	  0.113186374	-8.294000E+00	  0.113186374	4.370100E+01	  0.113186374	7.199200E+01	  0.113186374	4.493700E+01
467	  0.113386773	-8.294000E+00	  0.113386773	4.286000E+01	  0.113386773	7.294700E+01	  0.113386773	4.483300E+01
468	  0.113587178	-8.299000E+00	  0.113587178	4.196000E+01	  0.113587178	7.397400E+01	  0.113587178	4.465500E+01
469	  0.113787577	-8.300000E+00	  0.113787577	4.106600E+01	  0.113787577	7.500700E+01	  0.113787577	4.447400E+01
470	  0.113987975	-8.312000E+00	  0.113987975	4.020000E+01	  0.113987975	7.600300E+01	  0.113987975	4.419500E+01
471	  0.114188381	-8.315000E+00	  0.114188381	3.929600E+01	  0.114188381	7.706300E+01	  0.114188381	4.394900E+01
472	  0.114388779	-8.322000E+00	  0.114388779	3.839900E+01	  0.114388779	7.811300E+01	  0.114388779	4.364300E+01
473	  0.114589177	-8.330000E+00	  0.114589177	3.743900E+01	  0.114589177	7.924400E+01	  0.114589177	4.328500E+01
474	  0.114789583	-8.348000E+00	  0.114789583	3.654900E+01	  0.114789583	8.026800E+01	  0.114789583	4.282500E+01
475	  0.114989981	-8.363000E+00	  0.114989981	3.564300E+01	  0.114989981	8.131800E+01	  0.114989981	4.235600E+01
476	  0.115190387	-8.380000E+00	  0.115190387	3.469700E+01	  0.115190387	8.241000E+01	  0.115190387	4.182300E+01
477	  0.115390785	-8.398000E+00	  0.115390785	3.371300E+01	  0.115390785	8.353700E+01	  0.115390785	4.122200E+01
478	  0.115591183	-8.412000E+00	  0.115591183	3.271800E+01	  0.115591183	8.468800E+01	  0.115591183	4.061100E+01
479	  0.115791589	-8.439000E+00	  0.115791589	3.174700E+01	  0.115791589	8.575100E+01	  0.115791589	3.986300E+01
480	  0.115991987	-8.458000E+00	  0.115991987	3.075500E+01	  0.115991987	8.685500E+01	  0.115991987	3.912300E+01
481	  0.116192386	-8.477000E+00	  0.116192386	2.976700E+01	  0.116192386	8.794600E+01	  0.116192386	3.835300E+01
482	  0.116392791	-8.504000E+00	  0.116392791	2.871200E+01	  0.116392791	8.906000E+01	  0.116392791	3.742700E+01
483	  0.116593190	-8.530000E+00	  0.116593190	2.768100E+01	  0.116593190	9.012800E+01	  0.116593190	3.647900E+01
484	  0.116793588	-8.565000E+00	  0.116793588	2.667000E+01	  0.116793588	9.110100E+01	  0.116793588	3.543900E+01
485	  0.116993994	-8.591000E+00	  0.116993994	2.554700E+01	  0.116993994	9.220900E+01	  0.116993994	3.432300E+01
486	  0.117194392	-8.624000E+00	  0.117194392	2.443000E+01	  0.117194392	9.324200E+01	  0.117194392	3.312000E+01
487	  0.117394790	-8.657000E+00	  0.117394790	2.339300E+01	  0.117394790	9.414700E+01	  0.117394790	3.194300E+01
488	  0.117595196	-8.705000E+00	  0.117595196	2.226100E+01	  0.117595196	9.501400E+01	  0.117595196	3.053800E+01
489	  0.117795594	-8.743000E+00	  0.117795594	2.115200E+01	  0.117795594	9.586600E+01	  0.117795594	2.918200E+01
490	  0.117995992	-8.782000E+00	  0.117995992	1.993800E+01	  0.117995992	9.675700E+01	  0.117995992	2.766800E+01
491	  0.118196398	-8.832000E+00	  0.118196398	1.882800E+01	  0.118196398	9.741600E+01	  0.118196398	2.617000E+01
492	  0.118396796	-8.886000E+00	  0.118396796	1.759700E+01	  0.118396796	9.807700E+01	  0.118396796	2.448100E+01
493	  0.118597202	-8.944000E+00	  0.118597202	1.641300E+01	  0.118597202	9.859500E+01	  0.118597202	2.280200E+01
494	  0.118797600	-8.990000E+00	  0.118797600	1.520300E+01	  0.118797600	9.915400E+01	  0.118797600	2.113800E+01
495	  0.118997999	-9.054000E+00	  0.118997999	1.395500E+01	  0.118997999	9.952100E+01	  0.118997999	1.932900E+01
496	  0.119198404	-9.115000E+00	  0.119198404	1.268100E+01	  0.119198404	9.983600E+01	  0.119198404	1.749000E+01
497	  0.119398803	-9.173000E+00	  0.119398803	1.143400E+01	  0.119398803	1.000790E+02	  0.119398803	1.570000E+01
498	  0.119599201	-9.254000E+00	  0.119599201	1.012900E+01	  0.119599201	1.000650E+02	  0.119599201	1.376100E+01
499	  0.119799607	-9.319000E+00	  0.119799607	8.861000E+00	  0.119799607	1.000900E+02	  0.119799607	1.194300E+01
500	  0.120000005	-9.395000E+00	  0.120000005	7.498000E+00	  0.120000005	9.996100E+01	  0.120000005	9.992000E+00
