! Anritsu VNA Master:             	Model: MS2036C/10/77
! SN:             	1601066
! /bd0/18may07/256.ns.m6.txt
! Existing Calibration Information:
! TYPE:             	Current Settings	Active Cal Settings
! TIME:             	05/07/2018 03:10:51 PM	05/07/2018 02:58:54 PM
! INTERNAL TEMP:    	60.3 C	58.8 C
! # POINTS:         	500	500
! START FREQ:       	20.000 MHz	20.000 MHz
! STOP FREQ:        	120.000 MHz	120.000 MHz
! SOURCE POWER:     	High	High
! IFBW:             	50 Hz	50 Hz
! AVG FACTOR:       	  1 	  1 
! REF PLANE 1:      	0 mm	0 mm
! REF PLANE 2:      	0 mm	0 mm
! CAL TYPE:         	Full S11	Full S11
! CAL METHOD:       	SOLT	SOLT
! CAL LINE TYPE:    	Coax	Coax
! DUT PORT 1:       	K-Conn(F)	K-Conn(F)
! DUT PORT 2:       	K-Conn(F)	K-Conn(F)
! CAL STATUS:       	OK: Accuracy High	--
! PROP-V:       	0.700
! CABLE LOSS:       	0.000 dB/m
! REF IMPEDANCE:       	50.0
! Trace Specific Parameters:	TR1	TR2	TR3	TR4
! TRACE.#.Y (GRAPH TYPE)	LOG MAG	PHASE	REAL IMPEDANCE	IMAGINARY IMPEDANCE
! TRACE.#.X 	FREQ.GHZ	FREQ.GHZ	FREQ.GHZ	FREQ.GHZ
! S-PARAMETER	S11	S11	S11	S11
! SMOOTH/APERTURE %	0	0	0	0
! WINDOW	NSL	NSL	NSL	NSL
! GATING	OFF	OFF	OFF	OFF
! FGTD	OFF	OFF	OFF	OFF
Marker Information per Trace:	TR1	TR2	TR3	TR4
!MK1	--	"MK1 TR2:  20.000 MHz,PH:-125.88°"	--	--
!MK2	--	--	"MK2 TR3:  70.100 200 MHz,Z:(17.093 ohm, -2.862 ohm)"	--
!MK3	--	--	--	--
!MK4	--	--	--	--
!MK5	--	--	--	--
!MK6	--	--	--	--
!MK7	--	--	--	--
!MK8	--	--	--	--
PNT	TR1.FREQ.GHZ	TR1.LOG MAG.dB	TR2.FREQ.GHZ	TR2.PHASE.deg	TR3.FREQ.GHZ	TR3.REAL IMPEDANCE.ohm	TR4.FREQ.GHZ	TR4.IMAGINARY IMPEDANCE.ohm
1	  0.020000000	-6.360000E-01	  0.020000000	-1.258770E+02	  0.020000000	2.308000E+00	  0.020000000	-2.550000E+01
2	  0.020200402	-6.360000E-01	  0.020200402	-1.273550E+02	  0.020200402	2.279000E+00	  0.020200402	-2.469400E+01
3	  0.020400802	-6.370000E-01	  0.020400802	-1.288210E+02	  0.020400802	2.254000E+00	  0.020400802	-2.390400E+01
4	  0.020601204	-6.400000E-01	  0.020601204	-1.303010E+02	  0.020601204	2.236000E+00	  0.020601204	-2.311700E+01
5	  0.020801604	-6.460000E-01	  0.020801604	-1.318060E+02	  0.020801604	2.231000E+00	  0.020801604	-2.232500E+01
6	  0.021002004	-6.510000E-01	  0.021002004	-1.333370E+02	  0.021002004	2.223000E+00	  0.021002004	-2.152900E+01
7	  0.021202406	-6.580000E-01	  0.021202406	-1.348700E+02	  0.021202406	2.222000E+00	  0.021202406	-2.074100E+01
8	  0.021402806	-6.640000E-01	  0.021402806	-1.364150E+02	  0.021402806	2.216000E+00	  0.021402806	-1.995700E+01
9	  0.021603208	-6.680000E-01	  0.021603208	-1.379660E+02	  0.021603208	2.207000E+00	  0.021603208	-1.917700E+01
10	  0.021803608	-6.730000E-01	  0.021803608	-1.395240E+02	  0.021803608	2.200000E+00	  0.021803608	-1.840200E+01
11	  0.022004008	-6.780000E-01	  0.022004008	-1.410780E+02	  0.022004008	2.195000E+00	  0.022004008	-1.763600E+01
12	  0.022204408	-6.850000E-01	  0.022204408	-1.426570E+02	  0.022204408	2.197000E+00	  0.022204408	-1.686600E+01
13	  0.022404809	-6.910000E-01	  0.022404809	-1.442300E+02	  0.022404809	2.197000E+00	  0.022404809	-1.610600E+01
14	  0.022605211	-6.940000E-01	  0.022605211	-1.458420E+02	  0.022605211	2.187000E+00	  0.022605211	-1.533400E+01
15	  0.022805611	-6.960000E-01	  0.022805611	-1.474500E+02	  0.022805611	2.173000E+00	  0.022805611	-1.457100E+01
16	  0.023006011	-6.990000E-01	  0.023006011	-1.490530E+02	  0.023006011	2.165000E+00	  0.023006011	-1.381700E+01
17	  0.023206413	-6.990000E-01	  0.023206413	-1.506490E+02	  0.023206413	2.149000E+00	  0.023206413	-1.307100E+01
18	  0.023406813	-7.040000E-01	  0.023406813	-1.522590E+02	  0.023406813	2.149000E+00	  0.023406813	-1.232400E+01
19	  0.023607215	-7.100000E-01	  0.023607215	-1.538580E+02	  0.023607215	2.154000E+00	  0.023607215	-1.158800E+01
20	  0.023807615	-7.150000E-01	  0.023807615	-1.554670E+02	  0.023807615	2.156000E+00	  0.023807615	-1.085100E+01
21	  0.024008015	-7.240000E-01	  0.024008015	-1.570980E+02	  0.024008015	2.168000E+00	  0.024008015	-1.010900E+01
22	  0.024208417	-7.340000E-01	  0.024208417	-1.587410E+02	  0.024208417	2.188000E+00	  0.024208417	-9.366000E+00
23	  0.024408817	-7.450000E-01	  0.024408817	-1.603990E+02	  0.024408817	2.207000E+00	  0.024408817	-8.620000E+00
24	  0.024609219	-7.530000E-01	  0.024609219	-1.620430E+02	  0.024609219	2.222000E+00	  0.024609219	-7.884000E+00
25	  0.024809619	-7.630000E-01	  0.024809619	-1.637040E+02	  0.024809619	2.240000E+00	  0.024809619	-7.144000E+00
26	  0.025010020	-7.760000E-01	  0.025010020	-1.653660E+02	  0.025010020	2.271000E+00	  0.025010020	-6.407000E+00
27	  0.025210422	-7.880000E-01	  0.025210422	-1.670510E+02	  0.025210422	2.296000E+00	  0.025210422	-5.662000E+00
28	  0.025410822	-8.030000E-01	  0.025410822	-1.687390E+02	  0.025410822	2.334000E+00	  0.025410822	-4.918000E+00
29	  0.025611224	-8.180000E-01	  0.025611224	-1.704390E+02	  0.025611224	2.369000E+00	  0.025611224	-4.171000E+00
30	  0.025811624	-8.310000E-01	  0.025811624	-1.721650E+02	  0.025811624	2.402000E+00	  0.025811624	-3.415000E+00
31	  0.026012026	-8.430000E-01	  0.026012026	-1.739060E+02	  0.026012026	2.433000E+00	  0.026012026	-2.655000E+00
32	  0.026212426	-8.560000E-01	  0.026212426	-1.756470E+02	  0.026212426	2.465000E+00	  0.026212426	-1.895000E+00
33	  0.026412826	-8.680000E-01	  0.026412826	-1.773900E+02	  0.026412826	2.500000E+00	  0.026412826	-1.135000E+00
34	  0.026613226	-8.850000E-01	  0.026613226	-1.791500E+02	  0.026613226	2.545000E+00	  0.026613226	-3.690000E-01
35	  0.026813626	-9.020000E-01	  0.026813626	1.790740E+02	  0.026813626	2.594000E+00	  0.026813626	4.020000E-01
36	  0.027014028	-9.170000E-01	  0.027014028	1.772950E+02	  0.027014028	2.639000E+00	  0.027014028	1.177000E+00
37	  0.027214428	-9.360000E-01	  0.027214428	1.754910E+02	  0.027214428	2.696000E+00	  0.027214428	1.962000E+00
38	  0.027414829	-9.520000E-01	  0.027414829	1.736810E+02	  0.027414829	2.746000E+00	  0.027414829	2.751000E+00
39	  0.027615231	-9.680000E-01	  0.027615231	1.718690E+02	  0.027615231	2.798000E+00	  0.027615231	3.542000E+00
40	  0.027815631	-9.870000E-01	  0.027815631	1.700320E+02	  0.027815631	2.860000E+00	  0.027815631	4.345000E+00
41	  0.028016033	-1.007000E+00	  0.028016033	1.681980E+02	  0.028016033	2.928000E+00	  0.028016033	5.150000E+00
42	  0.028216433	-1.028000E+00	  0.028216433	1.663520E+02	  0.028216433	2.998000E+00	  0.028216433	5.962000E+00
43	  0.028416833	-1.048000E+00	  0.028416833	1.645070E+02	  0.028416833	3.068000E+00	  0.028416833	6.776000E+00
44	  0.028617235	-1.067000E+00	  0.028617235	1.626580E+02	  0.028617235	3.139000E+00	  0.028617235	7.595000E+00
45	  0.028817635	-1.086000E+00	  0.028817635	1.608010E+02	  0.028817635	3.212000E+00	  0.028817635	8.422000E+00
46	  0.029018037	-1.103000E+00	  0.029018037	1.589710E+02	  0.029018037	3.280000E+00	  0.029018037	9.241000E+00
47	  0.029218437	-1.123000E+00	  0.029218437	1.571260E+02	  0.029218437	3.359000E+00	  0.029218437	1.007100E+01
48	  0.029418837	-1.145000E+00	  0.029418837	1.553030E+02	  0.029418837	3.449000E+00	  0.029418837	1.089500E+01
49	  0.029619239	-1.169000E+00	  0.029619239	1.534480E+02	  0.029619239	3.548000E+00	  0.029619239	1.174000E+01
50	  0.029819639	-1.197000E+00	  0.029819639	1.515750E+02	  0.029819639	3.660000E+00	  0.029819639	1.259900E+01
51	  0.030020041	-1.229000E+00	  0.030020041	1.496680E+02	  0.030020041	3.790000E+00	  0.030020041	1.347900E+01
52	  0.030220442	-1.258000E+00	  0.030220442	1.477510E+02	  0.030220442	3.917000E+00	  0.030220442	1.437200E+01
53	  0.030420844	-1.289000E+00	  0.030420844	1.458160E+02	  0.030420844	4.051000E+00	  0.030420844	1.528100E+01
54	  0.030621244	-1.319000E+00	  0.030621244	1.439090E+02	  0.030621244	4.191000E+00	  0.030621244	1.618600E+01
55	  0.030821644	-1.352000E+00	  0.030821644	1.420030E+02	  0.030821644	4.341000E+00	  0.030821644	1.709800E+01
56	  0.031022044	-1.388000E+00	  0.031022044	1.400620E+02	  0.031022044	4.509000E+00	  0.031022044	1.803700E+01
57	  0.031222444	-1.422000E+00	  0.031222444	1.381320E+02	  0.031222444	4.678000E+00	  0.031222444	1.898000E+01
58	  0.031422846	-1.460000E+00	  0.031422846	1.361670E+02	  0.031422846	4.865000E+00	  0.031422846	1.995200E+01
59	  0.031623244	-1.497000E+00	  0.031623244	1.341650E+02	  0.031623244	5.062000E+00	  0.031623244	2.095400E+01
60	  0.031823646	-1.537000E+00	  0.031823646	1.321540E+02	  0.031823646	5.273000E+00	  0.031823646	2.197400E+01
61	  0.032024048	-1.575000E+00	  0.032024048	1.301430E+02	  0.032024048	5.489000E+00	  0.032024048	2.300800E+01
62	  0.032224450	-1.613000E+00	  0.032224450	1.281300E+02	  0.032224450	5.713000E+00	  0.032224450	2.405800E+01
63	  0.032424849	-1.649000E+00	  0.032424849	1.261120E+02	  0.032424849	5.943000E+00	  0.032424849	2.512800E+01
64	  0.032625251	-1.685000E+00	  0.032625251	1.240770E+02	  0.032625251	6.183000E+00	  0.032625251	2.622400E+01
65	  0.032825653	-1.723000E+00	  0.032825653	1.220740E+02	  0.032825653	6.439000E+00	  0.032825653	2.732000E+01
66	  0.033026051	-1.758000E+00	  0.033026051	1.200640E+02	  0.033026051	6.699000E+00	  0.033026051	2.844000E+01
67	  0.033226453	-1.802000E+00	  0.033226453	1.180700E+02	  0.033226453	7.001000E+00	  0.033226453	2.956700E+01
68	  0.033426855	-1.847000E+00	  0.033426855	1.160910E+02	  0.033426855	7.328000E+00	  0.033426855	3.070300E+01
69	  0.033627257	-1.895000E+00	  0.033627257	1.140600E+02	  0.033627257	7.682000E+00	  0.033627257	3.189100E+01
70	  0.033827655	-1.946000E+00	  0.033827655	1.120470E+02	  0.033827655	8.065000E+00	  0.033827655	3.308800E+01
71	  0.034028057	-1.998000E+00	  0.034028057	1.099950E+02	  0.034028057	8.478000E+00	  0.034028057	3.433300E+01
72	  0.034228459	-2.046000E+00	  0.034228459	1.078910E+02	  0.034228459	8.906000E+00	  0.034228459	3.563900E+01
73	  0.034428857	-2.098000E+00	  0.034428857	1.057760E+02	  0.034428857	9.373000E+00	  0.034428857	3.697800E+01
74	  0.034629259	-2.143000E+00	  0.034629259	1.036500E+02	  0.034629259	9.841000E+00	  0.034629259	3.836000E+01
75	  0.034829661	-2.191000E+00	  0.034829661	1.015350E+02	  0.034829661	1.034800E+01	  0.034829661	3.976500E+01
76	  0.035030060	-2.237000E+00	  0.035030060	9.941100E+01	  0.035030060	1.088300E+01	  0.035030060	4.121200E+01
77	  0.035230462	-2.281000E+00	  0.035230462	9.732500E+01	  0.035230462	1.143100E+01	  0.035230462	4.267000E+01
78	  0.035430863	-2.323000E+00	  0.035430863	9.520800E+01	  0.035430863	1.201100E+01	  0.035430863	4.419100E+01
79	  0.035631265	-2.365000E+00	  0.035631265	9.313900E+01	  0.035631265	1.262500E+01	  0.035631265	4.571500E+01
80	  0.035831664	-2.411000E+00	  0.035831664	9.105900E+01	  0.035831664	1.329700E+01	  0.035831664	4.728300E+01
81	  0.036032066	-2.454000E+00	  0.036032066	8.900900E+01	  0.036032066	1.399600E+01	  0.036032066	4.887200E+01
82	  0.036232468	-2.499000E+00	  0.036232468	8.696400E+01	  0.036232468	1.475200E+01	  0.036232468	5.049800E+01
83	  0.036432866	-2.546000E+00	  0.036432866	8.492900E+01	  0.036432866	1.557200E+01	  0.036432866	5.215600E+01
84	  0.036633268	-2.600000E+00	  0.036633268	8.286400E+01	  0.036633268	1.649700E+01	  0.036633268	5.387100E+01
85	  0.036833670	-2.654000E+00	  0.036833670	8.082000E+01	  0.036833670	1.748700E+01	  0.036833670	5.561400E+01
86	  0.037034072	-2.715000E+00	  0.037034072	7.877200E+01	  0.037034072	1.859000E+01	  0.037034072	5.738900E+01
87	  0.037234470	-2.777000E+00	  0.037234470	7.669900E+01	  0.037234470	1.979300E+01	  0.037234470	5.923200E+01
88	  0.037434869	-2.844000E+00	  0.037434869	7.460200E+01	  0.037434869	2.113700E+01	  0.037434869	6.112800E+01
89	  0.037635271	-2.916000E+00	  0.037635271	7.251200E+01	  0.037635271	2.261700E+01	  0.037635271	6.304500E+01
90	  0.037835669	-2.991000E+00	  0.037835669	7.048900E+01	  0.037835669	2.419400E+01	  0.037835669	6.492200E+01
91	  0.038036071	-3.050000E+00	  0.038036071	6.845300E+01	  0.038036071	2.578600E+01	  0.038036071	6.691000E+01
92	  0.038236473	-3.102000E+00	  0.038236473	6.637100E+01	  0.038236473	2.748800E+01	  0.038236473	6.902100E+01
93	  0.038436871	-3.149000E+00	  0.038436871	6.420400E+01	  0.038436871	2.935200E+01	  0.038436871	7.130800E+01
94	  0.038637273	-3.198000E+00	  0.038637273	6.203700E+01	  0.038637273	3.140200E+01	  0.038637273	7.364400E+01
95	  0.038837675	-3.247000E+00	  0.038837675	5.990800E+01	  0.038837675	3.360100E+01	  0.038837675	7.598900E+01
96	  0.039038073	-3.291000E+00	  0.039038073	5.779900E+01	  0.039038073	3.594700E+01	  0.039038073	7.838300E+01
97	  0.039238475	-3.335000E+00	  0.039238475	5.571300E+01	  0.039238475	3.848000E+01	  0.039238475	8.079500E+01
98	  0.039438877	-3.377000E+00	  0.039438877	5.364600E+01	  0.039438877	4.120900E+01	  0.039438877	8.323400E+01
99	  0.039639279	-3.430000E+00	  0.039639279	5.162100E+01	  0.039639279	4.422900E+01	  0.039639279	8.555300E+01
100	  0.039839678	-3.482000E+00	  0.039839678	4.956600E+01	  0.039839678	4.756200E+01	  0.039839678	8.791200E+01
101	  0.040040080	-3.538000E+00	  0.040040080	4.752200E+01	  0.040040080	5.120900E+01	  0.040040080	9.020200E+01
102	  0.040240481	-3.593000E+00	  0.040240481	4.546500E+01	  0.040240481	5.520500E+01	  0.040240481	9.246400E+01
103	  0.040440880	-3.649000E+00	  0.040440880	4.339700E+01	  0.040440880	5.959800E+01	  0.040440880	9.464200E+01
104	  0.040641282	-3.705000E+00	  0.040641282	4.134000E+01	  0.040641282	6.436000E+01	  0.040641282	9.667900E+01
105	  0.040841684	-3.760000E+00	  0.040841684	3.928000E+01	  0.040841684	6.953500E+01	  0.040841684	9.857300E+01
106	  0.041042086	-3.811000E+00	  0.041042086	3.724700E+01	  0.041042086	7.505700E+01	  0.041042086	1.002650E+02
107	  0.041242484	-3.864000E+00	  0.041242484	3.520500E+01	  0.041242484	8.107000E+01	  0.041242484	1.016750E+02
108	  0.041442886	-3.919000E+00	  0.041442886	3.318000E+01	  0.041442886	8.752900E+01	  0.041442886	1.026490E+02
109	  0.041643288	-3.970000E+00	  0.041643288	3.113400E+01	  0.041643288	9.450900E+01	  0.041643288	1.032530E+02
110	  0.041843686	-4.021000E+00	  0.041843686	2.910800E+01	  0.041843686	1.018900E+02	  0.041843686	1.033210E+02
111	  0.042044088	-4.071000E+00	  0.042044088	2.708300E+01	  0.042044088	1.097060E+02	  0.042044088	1.027540E+02
112	  0.042244490	-4.117000E+00	  0.042244490	2.509300E+01	  0.042244490	1.177800E+02	  0.042244490	1.015230E+02
113	  0.042444889	-4.169000E+00	  0.042444889	2.310900E+01	  0.042444889	1.261270E+02	  0.042444889	9.927000E+01
114	  0.042645290	-4.220000E+00	  0.042645290	2.113200E+01	  0.042645290	1.346330E+02	  0.042645290	9.608200E+01
115	  0.042845692	-4.272000E+00	  0.042845692	1.915300E+01	  0.042845692	1.431720E+02	  0.042845692	9.175500E+01
116	  0.043046094	-4.322000E+00	  0.043046094	1.717600E+01	  0.043046094	1.515840E+02	  0.043046094	8.634400E+01
117	  0.043246493	-4.374000E+00	  0.043246493	1.521200E+01	  0.043246493	1.595760E+02	  0.043246493	7.973500E+01
118	  0.043446895	-4.423000E+00	  0.043446895	1.321800E+01	  0.043446895	1.671580E+02	  0.043446895	7.190400E+01
119	  0.043647297	-4.472000E+00	  0.043647297	1.124400E+01	  0.043647297	1.738460E+02	  0.043647297	6.300700E+01
120	  0.043847695	-4.519000E+00	  0.043847695	9.253000E+00	  0.043847695	1.796340E+02	  0.043847695	5.309500E+01
121	  0.044048097	-4.570000E+00	  0.044048097	7.282000E+00	  0.044048097	1.839260E+02	  0.044048097	4.232200E+01
122	  0.044248499	-4.617000E+00	  0.044248499	5.303000E+00	  0.044248499	1.869770E+02	  0.044248499	3.102800E+01
123	  0.044448901	-4.668000E+00	  0.044448901	3.343000E+00	  0.044448901	1.883340E+02	  0.044448901	1.948000E+01
124	  0.044649299	-4.713000E+00	  0.044649299	1.372000E+00	  0.044649299	1.884340E+02	  0.044649299	7.926000E+00
125	  0.044849701	-4.758000E+00	  0.044849701	-5.630000E-01	  0.044849701	1.870200E+02	  0.044849701	-3.197000E+00
126	  0.045050103	-4.800000E+00	  0.045050103	-2.519000E+00	  0.045050103	1.843880E+02	  0.045050103	-1.394800E+01
127	  0.045250501	-4.838000E+00	  0.045250501	-4.466000E+00	  0.045250501	1.806920E+02	  0.045250501	-2.399800E+01
128	  0.045450903	-4.876000E+00	  0.045450903	-6.387000E+00	  0.045450903	1.760190E+02	  0.045450903	-3.311200E+01
129	  0.045651305	-4.915000E+00	  0.045651305	-8.315000E+00	  0.045651305	1.704830E+02	  0.045651305	-4.132200E+01
130	  0.045851704	-4.954000E+00	  0.045851704	-1.022900E+01	  0.045851704	1.644170E+02	  0.045851704	-4.852000E+01
131	  0.046052106	-4.992000E+00	  0.046052106	-1.211700E+01	  0.046052106	1.580090E+02	  0.046052106	-5.464600E+01
132	  0.046252504	-5.029000E+00	  0.046252504	-1.399100E+01	  0.046252504	1.514270E+02	  0.046252504	-5.982400E+01
133	  0.046452906	-5.066000E+00	  0.046452906	-1.584300E+01	  0.046452906	1.448240E+02	  0.046452906	-6.408300E+01
134	  0.046653304	-5.102000E+00	  0.046653304	-1.771600E+01	  0.046653304	1.381840E+02	  0.046653304	-6.762400E+01
135	  0.046853706	-5.134000E+00	  0.046853706	-1.956000E+01	  0.046853706	1.317830E+02	  0.046853706	-7.046900E+01
136	  0.047054108	-5.169000E+00	  0.047054108	-2.138400E+01	  0.047054108	1.255620E+02	  0.047054108	-7.256800E+01
137	  0.047254506	-5.199000E+00	  0.047254506	-2.321400E+01	  0.047254506	1.195670E+02	  0.047254506	-7.422500E+01
138	  0.047454908	-5.229000E+00	  0.047454908	-2.498600E+01	  0.047454908	1.139740E+02	  0.047454908	-7.532900E+01
139	  0.047655310	-5.259000E+00	  0.047655310	-2.676600E+01	  0.047655310	1.085950E+02	  0.047655310	-7.603900E+01
140	  0.047855709	-5.287000E+00	  0.047855709	-2.851800E+01	  0.047855709	1.035570E+02	  0.047855709	-7.641900E+01
141	  0.048056111	-5.317000E+00	  0.048056111	-3.022400E+01	  0.048056111	9.888300E+01	  0.048056111	-7.644100E+01
142	  0.048256513	-5.346000E+00	  0.048256513	-3.194500E+01	  0.048256513	9.441600E+01	  0.048256513	-7.624800E+01
143	  0.048456915	-5.382000E+00	  0.048456915	-3.364200E+01	  0.048456915	9.024900E+01	  0.048456915	-7.574500E+01
144	  0.048657313	-5.412000E+00	  0.048657313	-3.534700E+01	  0.048657313	8.629900E+01	  0.048657313	-7.515500E+01
145	  0.048857715	-5.441000E+00	  0.048857715	-3.706600E+01	  0.048857715	8.254200E+01	  0.048857715	-7.444400E+01
146	  0.049058117	-5.473000E+00	  0.049058117	-3.875500E+01	  0.049058117	7.906900E+01	  0.049058117	-7.358500E+01
147	  0.049258515	-5.501000E+00	  0.049258515	-4.046400E+01	  0.049258515	7.575200E+01	  0.049258515	-7.266700E+01
148	  0.049458917	-5.530000E+00	  0.049458917	-4.213800E+01	  0.049458917	7.269600E+01	  0.049458917	-7.166100E+01
149	  0.049659319	-5.558000E+00	  0.049659319	-4.383100E+01	  0.049659319	6.978200E+01	  0.049659319	-7.060300E+01
150	  0.049859721	-5.588000E+00	  0.049859721	-4.550700E+01	  0.049859721	6.707500E+01	  0.049859721	-6.946700E+01
151	  0.050060119	-5.616000E+00	  0.050060119	-4.718200E+01	  0.050060119	6.451800E+01	  0.050060119	-6.832500E+01
152	  0.050260521	-5.642000E+00	  0.050260521	-4.886200E+01	  0.050260521	6.209600E+01	  0.050260521	-6.716100E+01
153	  0.050460923	-5.666000E+00	  0.050460923	-5.055700E+01	  0.050460923	5.978200E+01	  0.050460923	-6.598900E+01
154	  0.050661322	-5.686000E+00	  0.050661322	-5.223900E+01	  0.050661322	5.760600E+01	  0.050661322	-6.483200E+01
155	  0.050861724	-5.704000E+00	  0.050861724	-5.390300E+01	  0.050861724	5.556600E+01	  0.050861724	-6.368500E+01
156	  0.051062126	-5.725000E+00	  0.051062126	-5.554600E+01	  0.051062126	5.367400E+01	  0.051062126	-6.251400E+01
157	  0.051262524	-5.743000E+00	  0.051262524	-5.717100E+01	  0.051262524	5.189200E+01	  0.051262524	-6.137400E+01
158	  0.051462926	-5.757000E+00	  0.051462926	-5.875600E+01	  0.051462926	5.023200E+01	  0.051462926	-6.027800E+01
159	  0.051663328	-5.772000E+00	  0.051663328	-6.033200E+01	  0.051663328	4.866900E+01	  0.051663328	-5.918100E+01
160	  0.051863730	-5.786000E+00	  0.051863730	-6.187700E+01	  0.051863730	4.721200E+01	  0.051863730	-5.810800E+01
161	  0.052064128	-5.804000E+00	  0.052064128	-6.343700E+01	  0.052064128	4.583100E+01	  0.052064128	-5.700200E+01
162	  0.052264530	-5.819000E+00	  0.052264530	-6.496800E+01	  0.052264530	4.452900E+01	  0.052264530	-5.594100E+01
163	  0.052464932	-5.833000E+00	  0.052464932	-6.650400E+01	  0.052464932	4.328400E+01	  0.052464932	-5.488500E+01
164	  0.052665330	-5.847000E+00	  0.052665330	-6.805800E+01	  0.052665330	4.208600E+01	  0.052665330	-5.382300E+01
165	  0.052865732	-5.864000E+00	  0.052865732	-6.956300E+01	  0.052865732	4.099300E+01	  0.052865732	-5.278600E+01
166	  0.053066134	-5.879000E+00	  0.053066134	-7.107900E+01	  0.053066134	3.993500E+01	  0.053066134	-5.176300E+01
167	  0.053266536	-5.896000E+00	  0.053266536	-7.259500E+01	  0.053266536	3.893600E+01	  0.053266536	-5.073900E+01
168	  0.053466935	-5.906000E+00	  0.053466935	-7.408800E+01	  0.053466935	3.796900E+01	  0.053466935	-4.977100E+01
169	  0.053667337	-5.918000E+00	  0.053667337	-7.558100E+01	  0.053667337	3.705600E+01	  0.053667337	-4.880100E+01
170	  0.053867739	-5.928000E+00	  0.053867739	-7.706500E+01	  0.053867739	3.617700E+01	  0.053867739	-4.785600E+01
171	  0.054068137	-5.932000E+00	  0.054068137	-7.851300E+01	  0.054068137	3.533600E+01	  0.054068137	-4.696400E+01
172	  0.054268539	-5.940000E+00	  0.054268539	-7.998100E+01	  0.054268539	3.453700E+01	  0.054268539	-4.605000E+01
173	  0.054468941	-5.947000E+00	  0.054468941	-8.139200E+01	  0.054468941	3.379700E+01	  0.054468941	-4.518400E+01
174	  0.054669339	-5.960000E+00	  0.054669339	-8.279800E+01	  0.054669339	3.311300E+01	  0.054669339	-4.431000E+01
175	  0.054869737	-5.970000E+00	  0.054869737	-8.418600E+01	  0.054869737	3.245500E+01	  0.054869737	-4.346500E+01
176	  0.055070139	-5.981000E+00	  0.055070139	-8.559700E+01	  0.055070139	3.181500E+01	  0.055070139	-4.261200E+01
177	  0.055270538	-5.995000E+00	  0.055270538	-8.695700E+01	  0.055270538	3.123500E+01	  0.055270538	-4.179100E+01
178	  0.055470940	-6.005000E+00	  0.055470940	-8.832900E+01	  0.055470940	3.066000E+01	  0.055470940	-4.098000E+01
179	  0.055671342	-6.019000E+00	  0.055671342	-8.969900E+01	  0.055671342	3.012100E+01	  0.055671342	-4.017100E+01
180	  0.055871744	-6.029000E+00	  0.055871744	-9.109900E+01	  0.055871744	2.957800E+01	  0.055871744	-3.936300E+01
181	  0.056072142	-6.042000E+00	  0.056072142	-9.245900E+01	  0.056072142	2.908300E+01	  0.056072142	-3.858000E+01
182	  0.056272544	-6.050000E+00	  0.056272544	-9.386200E+01	  0.056272544	2.857200E+01	  0.056272544	-3.779400E+01
183	  0.056472946	-6.068000E+00	  0.056472946	-9.524700E+01	  0.056472946	2.812400E+01	  0.056472946	-3.700200E+01
184	  0.056673344	-6.073000E+00	  0.056673344	-9.663800E+01	  0.056673344	2.764600E+01	  0.056673344	-3.624600E+01
185	  0.056873746	-6.083000E+00	  0.056873746	-9.799100E+01	  0.056873746	2.721600E+01	  0.056873746	-3.550700E+01
186	  0.057074148	-6.088000E+00	  0.057074148	-9.937000E+01	  0.057074148	2.677800E+01	  0.057074148	-3.477200E+01
187	  0.057274550	-6.091000E+00	  0.057274550	-1.007480E+02	  0.057274550	2.634800E+01	  0.057274550	-3.405000E+01
188	  0.057474948	-6.094000E+00	  0.057474948	-1.021240E+02	  0.057474948	2.593600E+01	  0.057474948	-3.333400E+01
189	  0.057675350	-6.095000E+00	  0.057675350	-1.034610E+02	  0.057675350	2.554300E+01	  0.057675350	-3.264900E+01
190	  0.057875752	-6.093000E+00	  0.057875752	-1.047810E+02	  0.057875752	2.515900E+01	  0.057875752	-3.198400E+01
191	  0.058076151	-6.098000E+00	  0.058076151	-1.060920E+02	  0.058076151	2.481200E+01	  0.058076151	-3.131700E+01
192	  0.058276553	-6.098000E+00	  0.058276553	-1.073770E+02	  0.058276553	2.447100E+01	  0.058276553	-3.067700E+01
193	  0.058476955	-6.098000E+00	  0.058476955	-1.086450E+02	  0.058476955	2.414300E+01	  0.058476955	-3.005100E+01
194	  0.058677353	-6.096000E+00	  0.058677353	-1.098910E+02	  0.058677353	2.382600E+01	  0.058677353	-2.944400E+01
195	  0.058877755	-6.100000E+00	  0.058877755	-1.111760E+02	  0.058877755	2.352900E+01	  0.058877755	-2.881200E+01
196	  0.059078157	-6.101000E+00	  0.059078157	-1.124360E+02	  0.059078157	2.323800E+01	  0.059078157	-2.820200E+01
197	  0.059278559	-6.103000E+00	  0.059278559	-1.136810E+02	  0.059278559	2.296400E+01	  0.059278559	-2.760300E+01
198	  0.059478957	-6.105000E+00	  0.059478957	-1.149230E+02	  0.059478957	2.270000E+01	  0.059478957	-2.701000E+01
199	  0.059679359	-6.111000E+00	  0.059679359	-1.161630E+02	  0.059679359	2.245800E+01	  0.059679359	-2.641600E+01
200	  0.059879761	-6.114000E+00	  0.059879761	-1.174160E+02	  0.059879761	2.221400E+01	  0.059879761	-2.582400E+01
201	  0.060080159	-6.119000E+00	  0.060080159	-1.186090E+02	  0.060080159	2.199300E+01	  0.060080159	-2.526300E+01
202	  0.060280561	-6.122000E+00	  0.060280561	-1.198270E+02	  0.060280561	2.177100E+01	  0.060280561	-2.469700E+01
203	  0.060480963	-6.126000E+00	  0.060480963	-1.210420E+02	  0.060480963	2.155800E+01	  0.060480963	-2.413600E+01
204	  0.060681365	-6.129000E+00	  0.060681365	-1.222510E+02	  0.060681365	2.135200E+01	  0.060681365	-2.358200E+01
205	  0.060881764	-6.132000E+00	  0.060881764	-1.234530E+02	  0.060881764	2.115200E+01	  0.060881764	-2.303400E+01
206	  0.061082166	-6.139000E+00	  0.061082166	-1.246570E+02	  0.061082166	2.097200E+01	  0.061082166	-2.248500E+01
207	  0.061282568	-6.143000E+00	  0.061282568	-1.258510E+02	  0.061282568	2.078900E+01	  0.061282568	-2.194900E+01
208	  0.061482966	-6.146000E+00	  0.061482966	-1.270290E+02	  0.061482966	2.061400E+01	  0.061482966	-2.142300E+01
209	  0.061683368	-6.150000E+00	  0.061683368	-1.281810E+02	  0.061683368	2.045100E+01	  0.061683368	-2.091100E+01
210	  0.061883770	-6.153000E+00	  0.061883770	-1.293620E+02	  0.061883770	2.028600E+01	  0.061883770	-2.039000E+01
211	  0.062084168	-6.161000E+00	  0.062084168	-1.305130E+02	  0.062084168	2.014500E+01	  0.062084168	-1.988100E+01
212	  0.062284570	-6.169000E+00	  0.062284570	-1.316610E+02	  0.062284570	2.001200E+01	  0.062284570	-1.937600E+01
213	  0.062484972	-6.168000E+00	  0.062484972	-1.327720E+02	  0.062484972	1.985900E+01	  0.062484972	-1.889900E+01
214	  0.062685370	-6.174000E+00	  0.062685370	-1.339150E+02	  0.062685370	1.972900E+01	  0.062685370	-1.840300E+01
215	  0.062885776	-6.181000E+00	  0.062885776	-1.350900E+02	  0.062885776	1.960200E+01	  0.062885776	-1.789700E+01
216	  0.063086174	-6.188000E+00	  0.063086174	-1.362390E+02	  0.063086174	1.948300E+01	  0.063086174	-1.740400E+01
217	  0.063286573	-6.198000E+00	  0.063286573	-1.373710E+02	  0.063286573	1.938100E+01	  0.063286573	-1.691900E+01
218	  0.063486971	-6.203000E+00	  0.063486971	-1.385360E+02	  0.063486971	1.926200E+01	  0.063486971	-1.642600E+01
219	  0.063687377	-6.200000E+00	  0.063687377	-1.396790E+02	  0.063687377	1.913000E+01	  0.063687377	-1.595100E+01
220	  0.063887775	-6.201000E+00	  0.063887775	-1.408110E+02	  0.063887775	1.901500E+01	  0.063887775	-1.547900E+01
221	  0.064088173	-6.202000E+00	  0.064088173	-1.419310E+02	  0.064088173	1.890600E+01	  0.064088173	-1.501500E+01
222	  0.064288579	-6.199000E+00	  0.064288579	-1.430210E+02	  0.064288579	1.879100E+01	  0.064288579	-1.456700E+01
223	  0.064488977	-6.200000E+00	  0.064488977	-1.441420E+02	  0.064488977	1.868800E+01	  0.064488977	-1.410600E+01
224	  0.064689375	-6.191000E+00	  0.064689375	-1.451710E+02	  0.064689375	1.857100E+01	  0.064689375	-1.369000E+01
225	  0.064889781	-6.193000E+00	  0.064889781	-1.462280E+02	  0.064889781	1.848500E+01	  0.064889781	-1.325700E+01
226	  0.065090179	-6.183000E+00	  0.065090179	-1.473020E+02	  0.065090179	1.836700E+01	  0.065090179	-1.282600E+01
227	  0.065290578	-6.176000E+00	  0.065290578	-1.483070E+02	  0.065290578	1.826800E+01	  0.065290578	-1.242200E+01
228	  0.065490983	-6.170000E+00	  0.065490983	-1.493280E+02	  0.065490983	1.817200E+01	  0.065490983	-1.201200E+01
229	  0.065691382	-6.164000E+00	  0.065691382	-1.503430E+02	  0.065691382	1.808100E+01	  0.065691382	-1.160600E+01
230	  0.065891780	-6.160000E+00	  0.065891780	-1.513740E+02	  0.065891780	1.799600E+01	  0.065891780	-1.119300E+01
231	  0.066092186	-6.158000E+00	  0.066092186	-1.523500E+02	  0.066092186	1.792200E+01	  0.066092186	-1.080300E+01
232	  0.066292584	-6.148000E+00	  0.066292584	-1.533690E+02	  0.066292584	1.782900E+01	  0.066292584	-1.039900E+01
233	  0.066492982	-6.145000E+00	  0.066492982	-1.543730E+02	  0.066492982	1.775700E+01	  0.066492982	-9.999000E+00
234	  0.066693388	-6.144000E+00	  0.066693388	-1.553750E+02	  0.066693388	1.769400E+01	  0.066693388	-9.601000E+00
235	  0.066893786	-6.140000E+00	  0.066893786	-1.563590E+02	  0.066893786	1.762600E+01	  0.066893786	-9.212000E+00
236	  0.067094192	-6.136000E+00	  0.067094192	-1.573230E+02	  0.067094192	1.756200E+01	  0.067094192	-8.831000E+00
237	  0.067294590	-6.138000E+00	  0.067294590	-1.583200E+02	  0.067294590	1.751600E+01	  0.067294590	-8.435000E+00
238	  0.067494988	-6.136000E+00	  0.067494988	-1.593400E+02	  0.067494988	1.745800E+01	  0.067494988	-8.033000E+00
239	  0.067695394	-6.136000E+00	  0.067695394	-1.603360E+02	  0.067695394	1.741100E+01	  0.067695394	-7.641000E+00
240	  0.067895792	-6.138000E+00	  0.067895792	-1.613300E+02	  0.067895792	1.737000E+01	  0.067895792	-7.250000E+00
241	  0.068096191	-6.141000E+00	  0.068096191	-1.623600E+02	  0.068096191	1.733400E+01	  0.068096191	-6.844000E+00
242	  0.068296596	-6.146000E+00	  0.068296596	-1.633780E+02	  0.068296596	1.730700E+01	  0.068296596	-6.444000E+00
243	  0.068496995	-6.148000E+00	  0.068496995	-1.644000E+02	  0.068496995	1.727500E+01	  0.068496995	-6.044000E+00
244	  0.068697393	-6.152000E+00	  0.068697393	-1.654040E+02	  0.068697393	1.724900E+01	  0.068697393	-5.652000E+00
245	  0.068897791	-6.155000E+00	  0.068897791	-1.663900E+02	  0.068897791	1.722500E+01	  0.068897791	-5.266000E+00
246	  0.069098189	-6.156000E+00	  0.069098189	-1.674270E+02	  0.069098189	1.719500E+01	  0.069098189	-4.863000E+00
247	  0.069298595	-6.159000E+00	  0.069298595	-1.684520E+02	  0.069298595	1.717300E+01	  0.069298595	-4.464000E+00
248	  0.069498993	-6.155000E+00	  0.069498993	-1.694850E+02	  0.069498993	1.713700E+01	  0.069498993	-4.064000E+00
249	  0.069699399	-6.161000E+00	  0.069699399	-1.704770E+02	  0.069699399	1.713000E+01	  0.069699399	-3.678000E+00
250	  0.069899797	-6.163000E+00	  0.069899797	-1.715610E+02	  0.069899797	1.711300E+01	  0.069899797	-3.258000E+00
251	  0.070100196	-6.162000E+00	  0.070100196	-1.725850E+02	  0.070100196	1.709200E+01	  0.070100196	-2.862000E+00
252	  0.070300601	-6.166000E+00	  0.070300601	-1.736020E+02	  0.070300601	1.708500E+01	  0.070300601	-2.468000E+00
253	  0.070501000	-6.166000E+00	  0.070501000	-1.745950E+02	  0.070501000	1.707200E+01	  0.070501000	-2.085000E+00
254	  0.070701398	-6.159000E+00	  0.070701398	-1.756300E+02	  0.070701398	1.704200E+01	  0.070701398	-1.686000E+00
255	  0.070901804	-6.158000E+00	  0.070901804	-1.766700E+02	  0.070901804	1.702900E+01	  0.070901804	-1.284000E+00
256	  0.071102202	-6.159000E+00	  0.071102202	-1.776790E+02	  0.071102202	1.702700E+01	  0.071102202	-8.950000E-01
257	  0.071302600	-6.155000E+00	  0.071302600	-1.786650E+02	  0.071302600	1.701200E+01	  0.071302600	-5.140000E-01
258	  0.071503006	-6.155000E+00	  0.071503006	-1.796910E+02	  0.071503006	1.701000E+01	  0.071503006	-1.180000E-01
259	  0.071703404	-6.151000E+00	  0.071703404	1.793170E+02	  0.071703404	1.700100E+01	  0.071703404	2.630000E-01
260	  0.071903802	-6.153000E+00	  0.071903802	1.783820E+02	  0.071903802	1.700900E+01	  0.071903802	6.240000E-01
261	  0.072104208	-6.152000E+00	  0.072104208	1.773940E+02	  0.072104208	1.701100E+01	  0.072104208	1.005000E+00
262	  0.072304606	-6.148000E+00	  0.072304606	1.764350E+02	  0.072304606	1.700800E+01	  0.072304606	1.375000E+00
263	  0.072505005	-6.148000E+00	  0.072505005	1.754480E+02	  0.072505005	1.701600E+01	  0.072505005	1.757000E+00
264	  0.072705410	-6.150000E+00	  0.072705410	1.745100E+02	  0.072705410	1.703300E+01	  0.072705410	2.119000E+00
265	  0.072905809	-6.150000E+00	  0.072905809	1.735590E+02	  0.072905809	1.704600E+01	  0.072905809	2.486000E+00
266	  0.073106214	-6.153000E+00	  0.073106214	1.726030E+02	  0.073106214	1.706900E+01	  0.073106214	2.856000E+00
267	  0.073306613	-6.154000E+00	  0.073306613	1.716860E+02	  0.073306613	1.708700E+01	  0.073306613	3.211000E+00
268	  0.073507011	-6.157000E+00	  0.073507011	1.707350E+02	  0.073507011	1.711500E+01	  0.073507011	3.579000E+00
269	  0.073707417	-6.161000E+00	  0.073707417	1.698060E+02	  0.073707417	1.714600E+01	  0.073707417	3.938000E+00
270	  0.073907815	-6.169000E+00	  0.073907815	1.688660E+02	  0.073907815	1.718800E+01	  0.073907815	4.302000E+00
271	  0.074108213	-6.174000E+00	  0.074108213	1.679500E+02	  0.074108213	1.722500E+01	  0.074108213	4.657000E+00
272	  0.074308619	-6.178000E+00	  0.074308619	1.670320E+02	  0.074308619	1.726300E+01	  0.074308619	5.012000E+00
273	  0.074509017	-6.190000E+00	  0.074509017	1.660670E+02	  0.074509017	1.732500E+01	  0.074509017	5.385000E+00
274	  0.074709415	-6.196000E+00	  0.074709415	1.651230E+02	  0.074709415	1.737300E+01	  0.074709415	5.751000E+00
275	  0.074909821	-6.205000E+00	  0.074909821	1.642140E+02	  0.074909821	1.742900E+01	  0.074909821	6.103000E+00
276	  0.075110219	-6.220000E+00	  0.075110219	1.632630E+02	  0.075110219	1.750300E+01	  0.075110219	6.470000E+00
277	  0.075310618	-6.231000E+00	  0.075310618	1.623580E+02	  0.075310618	1.756800E+01	  0.075310618	6.820000E+00
278	  0.075511023	-6.240000E+00	  0.075511023	1.614350E+02	  0.075511023	1.763000E+01	  0.075511023	7.179000E+00
279	  0.075711422	-6.251000E+00	  0.075711422	1.605130E+02	  0.075711422	1.770100E+01	  0.075711422	7.536000E+00
280	  0.075911827	-6.263000E+00	  0.075911827	1.595860E+02	  0.075911827	1.777500E+01	  0.075911827	7.895000E+00
281	  0.076112226	-6.275000E+00	  0.076112226	1.586580E+02	  0.076112226	1.785500E+01	  0.076112226	8.255000E+00
282	  0.076312624	-6.287000E+00	  0.076312624	1.577210E+02	  0.076312624	1.793300E+01	  0.076312624	8.620000E+00
283	  0.076513030	-6.298000E+00	  0.076513030	1.567800E+02	  0.076513030	1.801600E+01	  0.076513030	8.986000E+00
284	  0.076713428	-6.309000E+00	  0.076713428	1.558270E+02	  0.076713428	1.809900E+01	  0.076713428	9.357000E+00
285	  0.076913826	-6.323000E+00	  0.076913826	1.549010E+02	  0.076913826	1.819200E+01	  0.076913826	9.717000E+00
286	  0.077114232	-6.330000E+00	  0.077114232	1.539640E+02	  0.077114232	1.826900E+01	  0.077114232	1.008500E+01
287	  0.077314630	-6.336000E+00	  0.077314630	1.530840E+02	  0.077314630	1.834000E+01	  0.077314630	1.043100E+01
288	  0.077515028	-6.347000E+00	  0.077515028	1.521720E+02	  0.077515028	1.843200E+01	  0.077515028	1.078800E+01
289	  0.077715434	-6.355000E+00	  0.077715434	1.512900E+02	  0.077715434	1.851600E+01	  0.077715434	1.113500E+01
290	  0.077915832	-6.365000E+00	  0.077915832	1.504110E+02	  0.077915832	1.860800E+01	  0.077915832	1.148000E+01
291	  0.078116231	-6.379000E+00	  0.078116231	1.494960E+02	  0.078116231	1.871200E+01	  0.078116231	1.183900E+01
292	  0.078316636	-6.387000E+00	  0.078316636	1.486310E+02	  0.078316636	1.880200E+01	  0.078316636	1.218100E+01
293	  0.078517035	-6.402000E+00	  0.078517035	1.477620E+02	  0.078517035	1.891300E+01	  0.078517035	1.252100E+01
294	  0.078717433	-6.417000E+00	  0.078717433	1.469170E+02	  0.078717433	1.902400E+01	  0.078717433	1.285200E+01
295	  0.078917839	-6.430000E+00	  0.078917839	1.460320E+02	  0.078917839	1.913500E+01	  0.078917839	1.320100E+01
296	  0.079118237	-6.446000E+00	  0.079118237	1.452000E+02	  0.079118237	1.925200E+01	  0.079118237	1.352700E+01
297	  0.079318643	-6.459000E+00	  0.079318643	1.443550E+02	  0.079318643	1.936400E+01	  0.079318643	1.386000E+01
298	  0.079519041	-6.471000E+00	  0.079519041	1.435360E+02	  0.079519041	1.947400E+01	  0.079519041	1.418400E+01
299	  0.079719439	-6.494000E+00	  0.079719439	1.426920E+02	  0.079719439	1.961800E+01	  0.079719439	1.451200E+01
300	  0.079919845	-6.510000E+00	  0.079919845	1.418630E+02	  0.079919845	1.974600E+01	  0.079919845	1.483800E+01
301	  0.080120243	-6.525000E+00	  0.080120243	1.410210E+02	  0.080120243	1.987100E+01	  0.080120243	1.517100E+01
302	  0.080320641	-6.542000E+00	  0.080320641	1.402020E+02	  0.080320641	2.000600E+01	  0.080320641	1.549300E+01
303	  0.080521047	-6.563000E+00	  0.080521047	1.393750E+02	  0.080521047	2.015400E+01	  0.080521047	1.581500E+01
304	  0.080721445	-6.579000E+00	  0.080721445	1.385800E+02	  0.080721445	2.028600E+01	  0.080721445	1.612900E+01
305	  0.080921844	-6.602000E+00	  0.080921844	1.377350E+02	  0.080921844	2.044700E+01	  0.080921844	1.645800E+01
306	  0.081122249	-6.625000E+00	  0.081122249	1.369460E+02	  0.081122249	2.060300E+01	  0.081122249	1.676500E+01
307	  0.081322648	-6.644000E+00	  0.081322648	1.361040E+02	  0.081322648	2.075600E+01	  0.081322648	1.709600E+01
308	  0.081523046	-6.661000E+00	  0.081523046	1.352960E+02	  0.081523046	2.090400E+01	  0.081523046	1.741500E+01
309	  0.081723452	-6.687000E+00	  0.081723452	1.345000E+02	  0.081723452	2.107600E+01	  0.081723452	1.772300E+01
310	  0.081923850	-6.705000E+00	  0.081923850	1.337060E+02	  0.081923850	2.123000E+01	  0.081923850	1.803500E+01
311	  0.082124248	-6.726000E+00	  0.082124248	1.328850E+02	  0.082124248	2.140000E+01	  0.082124248	1.835700E+01
312	  0.082324654	-6.747000E+00	  0.082324654	1.320770E+02	  0.082324654	2.157100E+01	  0.082324654	1.867300E+01
313	  0.082525052	-6.772000E+00	  0.082525052	1.313080E+02	  0.082525052	2.174700E+01	  0.082525052	1.897100E+01
314	  0.082725458	-6.793000E+00	  0.082725458	1.305350E+02	  0.082725458	2.191800E+01	  0.082725458	1.927300E+01
315	  0.082925856	-6.818000E+00	  0.082925856	1.297730E+02	  0.082925856	2.210100E+01	  0.082925856	1.956600E+01
316	  0.083126254	-6.841000E+00	  0.083126254	1.289750E+02	  0.083126254	2.228500E+01	  0.083126254	1.987700E+01
317	  0.083326660	-6.858000E+00	  0.083326660	1.281650E+02	  0.083326660	2.246000E+01	  0.083326660	2.019800E+01
318	  0.083527058	-6.881000E+00	  0.083527058	1.273610E+02	  0.083527058	2.265300E+01	  0.083527058	2.051100E+01
319	  0.083727457	-6.901000E+00	  0.083727457	1.265810E+02	  0.083727457	2.283500E+01	  0.083727457	2.081900E+01
320	  0.083927862	-6.918000E+00	  0.083927862	1.258220E+02	  0.083927862	2.301100E+01	  0.083927862	2.111900E+01
321	  0.084128261	-6.940000E+00	  0.084128261	1.250330E+02	  0.084128261	2.320800E+01	  0.084128261	2.142700E+01
322	  0.084328659	-6.956000E+00	  0.084328659	1.242560E+02	  0.084328659	2.338900E+01	  0.084328659	2.173700E+01
323	  0.084529065	-6.977000E+00	  0.084529065	1.235190E+02	  0.084529065	2.357800E+01	  0.084529065	2.202500E+01
324	  0.084729463	-6.993000E+00	  0.084729463	1.228030E+02	  0.084729463	2.375400E+01	  0.084729463	2.230900E+01
325	  0.084929861	-7.017000E+00	  0.084929861	1.220730E+02	  0.084929861	2.395800E+01	  0.084929861	2.259000E+01
326	  0.085130267	-7.033000E+00	  0.085130267	1.213320E+02	  0.085130267	2.414400E+01	  0.085130267	2.288500E+01
327	  0.085330658	-7.052000E+00	  0.085330658	1.206210E+02	  0.085330658	2.433600E+01	  0.085330658	2.316400E+01
328	  0.085531056	-7.073000E+00	  0.085531056	1.199160E+02	  0.085531056	2.453700E+01	  0.085531056	2.343600E+01
329	  0.085731462	-7.095000E+00	  0.085731462	1.192280E+02	  0.085731462	2.473900E+01	  0.085731462	2.370100E+01
330	  0.085931860	-7.121000E+00	  0.085931860	1.185360E+02	  0.085931860	2.495300E+01	  0.085931860	2.396300E+01
331	  0.086132258	-7.142000E+00	  0.086132258	1.178520E+02	  0.086132258	2.515900E+01	  0.086132258	2.422500E+01
332	  0.086332664	-7.168000E+00	  0.086332664	1.171550E+02	  0.086332664	2.538000E+01	  0.086332664	2.448800E+01
333	  0.086533062	-7.195000E+00	  0.086533062	1.164810E+02	  0.086533062	2.560400E+01	  0.086533062	2.473800E+01
334	  0.086733460	-7.223000E+00	  0.086733460	1.157720E+02	  0.086733460	2.584200E+01	  0.086733460	2.500000E+01
335	  0.086933866	-7.244000E+00	  0.086933866	1.151060E+02	  0.086933866	2.605400E+01	  0.086933866	2.525400E+01
336	  0.087134264	-7.277000E+00	  0.087134264	1.143770E+02	  0.087134264	2.631500E+01	  0.087134264	2.551700E+01
337	  0.087334670	-7.299000E+00	  0.087334670	1.137100E+02	  0.087334670	2.653700E+01	  0.087334670	2.576800E+01
338	  0.087535068	-7.330000E+00	  0.087535068	1.129620E+02	  0.087535068	2.680400E+01	  0.087535068	2.604100E+01
339	  0.087735467	-7.358000E+00	  0.087735467	1.122850E+02	  0.087735467	2.704900E+01	  0.087735467	2.628600E+01
340	  0.087935872	-7.389000E+00	  0.087935872	1.116150E+02	  0.087935872	2.730500E+01	  0.087935872	2.652200E+01
341	  0.088136271	-7.417000E+00	  0.088136271	1.109320E+02	  0.088136271	2.756000E+01	  0.088136271	2.676700E+01
342	  0.088336669	-7.449000E+00	  0.088336669	1.102420E+02	  0.088336669	2.782800E+01	  0.088336669	2.700900E+01
343	  0.088537075	-7.472000E+00	  0.088537075	1.095480E+02	  0.088537075	2.807900E+01	  0.088537075	2.726500E+01
344	  0.088737473	-7.505000E+00	  0.088737473	1.089160E+02	  0.088737473	2.834200E+01	  0.088737473	2.747800E+01
345	  0.088937871	-7.533000E+00	  0.088937871	1.082160E+02	  0.088937871	2.861300E+01	  0.088937871	2.772600E+01
346	  0.089138277	-7.561000E+00	  0.089138277	1.075620E+02	  0.089138277	2.887400E+01	  0.089138277	2.795500E+01
347	  0.089338675	-7.588000E+00	  0.089338675	1.069310E+02	  0.089338675	2.912900E+01	  0.089338675	2.817400E+01
348	  0.089539073	-7.628000E+00	  0.089539073	1.063200E+02	  0.089539073	2.941800E+01	  0.089539073	2.835700E+01
349	  0.089739479	-7.657000E+00	  0.089739479	1.056830E+02	  0.089739479	2.968700E+01	  0.089739479	2.857200E+01
350	  0.089939877	-7.692000E+00	  0.089939877	1.050560E+02	  0.089939877	2.997100E+01	  0.089939877	2.877100E+01
351	  0.090140276	-7.717000E+00	  0.090140276	1.043860E+02	  0.090140276	3.024400E+01	  0.090140276	2.900400E+01
352	  0.090340681	-7.745000E+00	  0.090340681	1.037470E+02	  0.090340681	3.052200E+01	  0.090340681	2.921600E+01
353	  0.090541080	-7.777000E+00	  0.090541080	1.031360E+02	  0.090541080	3.080200E+01	  0.090541080	2.940800E+01
354	  0.090741485	-7.804000E+00	  0.090741485	1.024710E+02	  0.090741485	3.108900E+01	  0.090741485	2.963100E+01
355	  0.090941884	-7.830000E+00	  0.090941884	1.018750E+02	  0.090941884	3.135500E+01	  0.090941884	2.982600E+01
356	  0.091142282	-7.855000E+00	  0.091142282	1.012700E+02	  0.091142282	3.162300E+01	  0.091142282	3.002600E+01
357	  0.091342688	-7.890000E+00	  0.091342688	1.006760E+02	  0.091342688	3.191600E+01	  0.091342688	3.019900E+01
358	  0.091543086	-7.912000E+00	  0.091543086	1.000640E+02	  0.091543086	3.218500E+01	  0.091543086	3.040500E+01
359	  0.091743484	-7.943000E+00	  0.091743484	9.949800E+01	  0.091743484	3.246500E+01	  0.091743484	3.056900E+01
360	  0.091943890	-7.965000E+00	  0.091943890	9.891200E+01	  0.091943890	3.273000E+01	  0.091943890	3.076200E+01
361	  0.092144288	-7.988000E+00	  0.092144288	9.834900E+01	  0.092144288	3.299200E+01	  0.092144288	3.094000E+01
362	  0.092344686	-8.012000E+00	  0.092344686	9.776500E+01	  0.092344686	3.326800E+01	  0.092344686	3.112400E+01
363	  0.092545092	-8.041000E+00	  0.092545092	9.720700E+01	  0.092545092	3.354800E+01	  0.092545092	3.128600E+01
364	  0.092745490	-8.069000E+00	  0.092745490	9.668200E+01	  0.092745490	3.381800E+01	  0.092745490	3.143300E+01
365	  0.092945889	-8.094000E+00	  0.092945889	9.617600E+01	  0.092945889	3.407400E+01	  0.092945889	3.157800E+01
366	  0.093146294	-8.132000E+00	  0.093146294	9.560300E+01	  0.093146294	3.439300E+01	  0.093146294	3.171500E+01
367	  0.093346693	-8.157000E+00	  0.093346693	9.511000E+01	  0.093346693	3.464800E+01	  0.093346693	3.185200E+01
368	  0.093547091	-8.189000E+00	  0.093547091	9.455900E+01	  0.093547091	3.494800E+01	  0.093547091	3.199200E+01
369	  0.093747497	-8.216000E+00	  0.093747497	9.402100E+01	  0.093747497	3.523000E+01	  0.093747497	3.213700E+01
370	  0.093947895	-8.250000E+00	  0.093947895	9.345900E+01	  0.093947895	3.554300E+01	  0.093947895	3.227300E+01
371	  0.094148301	-8.274000E+00	  0.094148301	9.292600E+01	  0.094148301	3.581900E+01	  0.094148301	3.242200E+01
372	  0.094348699	-8.305000E+00	  0.094348699	9.238600E+01	  0.094348699	3.612100E+01	  0.094348699	3.255000E+01
373	  0.094549097	-8.332000E+00	  0.094549097	9.185700E+01	  0.094549097	3.640800E+01	  0.094549097	3.268600E+01
374	  0.094749503	-8.364000E+00	  0.094749503	9.134800E+01	  0.094749503	3.670400E+01	  0.094749503	3.279600E+01
375	  0.094949901	-8.390000E+00	  0.094949901	9.085100E+01	  0.094949901	3.698200E+01	  0.094949901	3.291400E+01
376	  0.095150299	-8.417000E+00	  0.095150299	9.032000E+01	  0.095150299	3.727600E+01	  0.095150299	3.304400E+01
377	  0.095350705	-8.440000E+00	  0.095350705	8.981200E+01	  0.095350705	3.755400E+01	  0.095350705	3.317400E+01
378	  0.095551103	-8.464000E+00	  0.095551103	8.928800E+01	  0.095551103	3.784400E+01	  0.095551103	3.330400E+01
379	  0.095751502	-8.488000E+00	  0.095751502	8.879300E+01	  0.095751502	3.812400E+01	  0.095751502	3.342000E+01
380	  0.095951907	-8.509000E+00	  0.095951907	8.829800E+01	  0.095951907	3.839700E+01	  0.095951907	3.354500E+01
381	  0.096152306	-8.538000E+00	  0.096152306	8.781000E+01	  0.096152306	3.868800E+01	  0.096152306	3.364200E+01
382	  0.096352704	-8.558000E+00	  0.096352704	8.736400E+01	  0.096352704	3.894200E+01	  0.096352704	3.374600E+01
383	  0.096553110	-8.586000E+00	  0.096553110	8.689600E+01	  0.096553110	3.922500E+01	  0.096553110	3.383400E+01
384	  0.096753508	-8.607000E+00	  0.096753508	8.641500E+01	  0.096753508	3.950000E+01	  0.096753508	3.394600E+01
385	  0.096953906	-8.625000E+00	  0.096953906	8.593800E+01	  0.096953906	3.976600E+01	  0.096953906	3.406500E+01
386	  0.097154312	-8.644000E+00	  0.097154312	8.545000E+01	  0.097154312	4.004500E+01	  0.097154312	3.418000E+01
387	  0.097354710	-8.669000E+00	  0.097354710	8.499900E+01	  0.097354710	4.032000E+01	  0.097354710	3.426400E+01
388	  0.097555116	-8.694000E+00	  0.097555116	8.455000E+01	  0.097555116	4.059600E+01	  0.097555116	3.434400E+01
389	  0.097755514	-8.711000E+00	  0.097755514	8.411000E+01	  0.097755514	4.085100E+01	  0.097755514	3.444500E+01
390	  0.097955912	-8.730000E+00	  0.097955912	8.365800E+01	  0.097955912	4.111900E+01	  0.097955912	3.454100E+01
391	  0.098156318	-8.749000E+00	  0.098156318	8.324500E+01	  0.098156318	4.136700E+01	  0.098156318	3.462300E+01
392	  0.098356716	-8.772000E+00	  0.098356716	8.279000E+01	  0.098356716	4.164800E+01	  0.098356716	3.470500E+01
393	  0.098557115	-8.786000E+00	  0.098557115	8.236500E+01	  0.098557115	4.189600E+01	  0.098557115	3.480100E+01
394	  0.098757520	-8.799000E+00	  0.098757520	8.198800E+01	  0.098757520	4.211700E+01	  0.098757520	3.488600E+01
395	  0.098957919	-8.815000E+00	  0.098957919	8.152000E+01	  0.098957919	4.239500E+01	  0.098957919	3.498900E+01
396	  0.099158317	-8.832000E+00	  0.099158317	8.114200E+01	  0.099158317	4.262900E+01	  0.099158317	3.505800E+01
397	  0.099358723	-8.850000E+00	  0.099358723	8.073700E+01	  0.099358723	4.287900E+01	  0.099358723	3.513200E+01
398	  0.099559121	-8.867000E+00	  0.099559121	8.032400E+01	  0.099559121	4.313400E+01	  0.099559121	3.521000E+01
399	  0.099759519	-8.879000E+00	  0.099759519	7.995700E+01	  0.099759519	4.335700E+01	  0.099759519	3.528400E+01
400	  0.099959925	-8.887000E+00	  0.099959925	7.950500E+01	  0.099959925	4.361600E+01	  0.099959925	3.540200E+01
401	  0.100160323	-8.900000E+00	  0.100160323	7.916800E+01	  0.100160323	4.382600E+01	  0.100160323	3.546500E+01
402	  0.100360721	-8.926000E+00	  0.100360721	7.871900E+01	  0.100360721	4.412400E+01	  0.100360721	3.551700E+01
403	  0.100561127	-8.938000E+00	  0.100561127	7.839300E+01	  0.100561127	4.432800E+01	  0.100561127	3.557600E+01
404	  0.100761525	-8.954000E+00	  0.100761525	7.793100E+01	  0.100761525	4.461600E+01	  0.100761525	3.566300E+01
405	  0.100961931	-8.959000E+00	  0.100961931	7.750900E+01	  0.100961931	4.486300E+01	  0.100961931	3.577100E+01
406	  0.101162329	-8.970000E+00	  0.101162329	7.712300E+01	  0.101162329	4.510100E+01	  0.101162329	3.585200E+01
407	  0.101362728	-8.977000E+00	  0.101362728	7.670500E+01	  0.101362728	4.535300E+01	  0.101362728	3.595200E+01
408	  0.101563133	-8.992000E+00	  0.101563133	7.633100E+01	  0.101563133	4.559600E+01	  0.101563133	3.600800E+01
409	  0.101763532	-8.998000E+00	  0.101763532	7.588800E+01	  0.101763532	4.586300E+01	  0.101763532	3.611900E+01
410	  0.101963930	-9.002000E+00	  0.101963930	7.542400E+01	  0.101963930	4.614100E+01	  0.101963930	3.623800E+01
411	  0.102164336	-9.006000E+00	  0.102164336	7.502500E+01	  0.102164336	4.638300E+01	  0.102164336	3.634000E+01
412	  0.102364734	-9.020000E+00	  0.102364734	7.452800E+01	  0.102364734	4.670200E+01	  0.102364734	3.643200E+01
413	  0.102565132	-9.008000E+00	  0.102565132	7.413900E+01	  0.102565132	4.691300E+01	  0.102565132	3.658700E+01
414	  0.102765530	-9.014000E+00	  0.102765530	7.370900E+01	  0.102765530	4.718200E+01	  0.102765530	3.668700E+01
415	  0.102965929	-8.996000E+00	  0.102965929	7.329100E+01	  0.102965929	4.740200E+01	  0.102965929	3.687700E+01
416	  0.103166327	-9.002000E+00	  0.103166327	7.289600E+01	  0.103166327	4.765600E+01	  0.103166327	3.696200E+01
417	  0.103366733	-9.000000E+00	  0.103366733	7.248600E+01	  0.103366733	4.790500E+01	  0.103366733	3.708500E+01
418	  0.103567131	-9.003000E+00	  0.103567131	7.208700E+01	  0.103567131	4.815800E+01	  0.103567131	3.718400E+01
419	  0.103767529	-9.001000E+00	  0.103767529	7.165000E+01	  0.103767529	4.843000E+01	  0.103767529	3.730800E+01
420	  0.103967935	-8.997000E+00	  0.103967935	7.123900E+01	  0.103967935	4.868300E+01	  0.103967935	3.743500E+01
421	  0.104168333	-8.997000E+00	  0.104168333	7.082700E+01	  0.104168333	4.894600E+01	  0.104168333	3.754500E+01
422	  0.104368731	-8.989000E+00	  0.104368731	7.047900E+01	  0.104368731	4.915600E+01	  0.104368731	3.767300E+01
423	  0.104569137	-8.986000E+00	  0.104569137	7.010400E+01	  0.104569137	4.939400E+01	  0.104569137	3.778200E+01
424	  0.104769535	-8.975000E+00	  0.104769535	6.964600E+01	  0.104769535	4.967700E+01	  0.104769535	3.794600E+01
425	  0.104969934	-8.972000E+00	  0.104969934	6.926600E+01	  0.104969934	4.992200E+01	  0.104969934	3.805600E+01
426	  0.105170339	-8.960000E+00	  0.105170339	6.896200E+01	  0.105170339	5.010300E+01	  0.105170339	3.818900E+01
427	  0.105370738	-8.950000E+00	  0.105370738	6.859300E+01	  0.105370738	5.033500E+01	  0.105370738	3.832300E+01
428	  0.105571143	-8.936000E+00	  0.105571143	6.822300E+01	  0.105571143	5.056200E+01	  0.105571143	3.847900E+01
429	  0.105771542	-8.928000E+00	  0.105771542	6.778800E+01	  0.105771542	5.084600E+01	  0.105771542	3.862300E+01
430	  0.105971940	-8.914000E+00	  0.105971940	6.743100E+01	  0.105971940	5.106800E+01	  0.105971940	3.877500E+01
431	  0.106172346	-8.904000E+00	  0.106172346	6.708100E+01	  0.106172346	5.129600E+01	  0.106172346	3.890300E+01
432	  0.106372744	-8.882000E+00	  0.106372744	6.663700E+01	  0.106372744	5.157300E+01	  0.106372744	3.911100E+01
433	  0.106573142	-8.851000E+00	  0.106573142	6.630400E+01	  0.106573142	5.175800E+01	  0.106573142	3.933900E+01
434	  0.106773548	-8.843000E+00	  0.106773548	6.574700E+01	  0.106773548	5.214400E+01	  0.106773548	3.950600E+01
435	  0.106973946	-8.816000E+00	  0.106973946	6.534900E+01	  0.106973946	5.239100E+01	  0.106973946	3.972700E+01
436	  0.107174344	-8.802000E+00	  0.107174344	6.482900E+01	  0.107174344	5.275000E+01	  0.107174344	3.991400E+01
437	  0.107374750	-8.782000E+00	  0.107374750	6.433900E+01	  0.107374750	5.308100E+01	  0.107374750	4.012600E+01
438	  0.107575148	-8.754000E+00	  0.107575148	6.384900E+01	  0.107575148	5.340600E+01	  0.107575148	4.037200E+01
439	  0.107775547	-8.744000E+00	  0.107775547	6.325600E+01	  0.107775547	5.384100E+01	  0.107775547	4.055300E+01
440	  0.107975952	-8.713000E+00	  0.107975952	6.269600E+01	  0.107975952	5.422700E+01	  0.107975952	4.083100E+01
441	  0.108176351	-8.704000E+00	  0.108176351	6.205400E+01	  0.108176351	5.471400E+01	  0.108176351	4.101100E+01
442	  0.108376749	-8.669000E+00	  0.108376749	6.141500E+01	  0.108376749	5.517000E+01	  0.108376749	4.132800E+01
443	  0.108577155	-8.649000E+00	  0.108577155	6.082100E+01	  0.108577155	5.562000E+01	  0.108577155	4.155300E+01
444	  0.108777553	-8.629000E+00	  0.108777553	6.016400E+01	  0.108777553	5.612800E+01	  0.108777553	4.178600E+01
445	  0.108977959	-8.617000E+00	  0.108977959	5.947500E+01	  0.108977959	5.668200E+01	  0.108977959	4.198100E+01
446	  0.109178357	-8.589000E+00	  0.109178357	5.882300E+01	  0.109178357	5.719400E+01	  0.109178357	4.225400E+01
447	  0.109378755	-8.571000E+00	  0.109378755	5.812600E+01	  0.109378755	5.776600E+01	  0.109378755	4.247400E+01
448	  0.109579161	-8.547000E+00	  0.109579161	5.738900E+01	  0.109579161	5.837700E+01	  0.109579161	4.272900E+01
449	  0.109779559	-8.524000E+00	  0.109779559	5.672800E+01	  0.109779559	5.893300E+01	  0.109779559	4.296800E+01
450	  0.109979957	-8.501000E+00	  0.109979957	5.595200E+01	  0.109979957	5.960200E+01	  0.109979957	4.321700E+01
451	  0.110180363	-8.477000E+00	  0.110180363	5.524600E+01	  0.110180363	6.022100E+01	  0.110180363	4.345500E+01
452	  0.110380761	-8.461000E+00	  0.110380761	5.456400E+01	  0.110380761	6.083500E+01	  0.110380761	4.364200E+01
453	  0.110581160	-8.440000E+00	  0.110581160	5.383500E+01	  0.110581160	6.150000E+01	  0.110581160	4.385700E+01
454	  0.110781565	-8.424000E+00	  0.110781565	5.306600E+01	  0.110781565	6.221800E+01	  0.110781565	4.403600E+01
455	  0.110981964	-8.401000E+00	  0.110981964	5.234000E+01	  0.110981964	6.290300E+01	  0.110981964	4.425300E+01
456	  0.111182362	-8.379000E+00	  0.111182362	5.159200E+01	  0.111182362	6.362400E+01	  0.111182362	4.445400E+01
457	  0.111382768	-8.361000E+00	  0.111382768	5.086100E+01	  0.111382768	6.434400E+01	  0.111382768	4.462200E+01
458	  0.111583166	-8.351000E+00	  0.111583166	5.009600E+01	  0.111583166	6.511200E+01	  0.111583166	4.473300E+01
459	  0.111783572	-8.339000E+00	  0.111783572	4.934800E+01	  0.111783572	6.587600E+01	  0.111783572	4.483800E+01
460	  0.111983970	-8.335000E+00	  0.111983970	4.865500E+01	  0.111983970	6.659400E+01	  0.111983970	4.488400E+01
461	  0.112184368	-8.318000E+00	  0.112184368	4.781800E+01	  0.112184368	6.747300E+01	  0.112184368	4.500300E+01
462	  0.112384774	-8.322000E+00	  0.112384774	4.703600E+01	  0.112384774	6.830700E+01	  0.112384774	4.496800E+01
463	  0.112585172	-8.308000E+00	  0.112585172	4.623900E+01	  0.112585172	6.917000E+01	  0.112585172	4.503500E+01
464	  0.112785570	-8.315000E+00	  0.112785570	4.542400E+01	  0.112785570	7.005900E+01	  0.112785570	4.494100E+01
465	  0.112985976	-8.313000E+00	  0.112985976	4.460900E+01	  0.112985976	7.096100E+01	  0.112985976	4.488800E+01
466	  0.113186374	-8.312000E+00	  0.113186374	4.381800E+01	  0.113186374	7.184600E+01	  0.113186374	4.481500E+01
467	  0.113386773	-8.319000E+00	  0.113386773	4.296400E+01	  0.113386773	7.280400E+01	  0.113386773	4.465400E+01
468	  0.113587178	-8.330000E+00	  0.113587178	4.214000E+01	  0.113587178	7.373200E+01	  0.113587178	4.444800E+01
469	  0.113787577	-8.332000E+00	  0.113787577	4.127900E+01	  0.113787577	7.472000E+01	  0.113787577	4.427600E+01
470	  0.113987975	-8.346000E+00	  0.113987975	4.037500E+01	  0.113987975	7.574800E+01	  0.113987975	4.397600E+01
471	  0.114188381	-8.356000E+00	  0.114188381	3.950800E+01	  0.114188381	7.674200E+01	  0.114188381	4.368600E+01
472	  0.114388779	-8.366000E+00	  0.114388779	3.856400E+01	  0.114388779	7.783400E+01	  0.114388779	4.335400E+01
473	  0.114589177	-8.383000E+00	  0.114589177	3.766000E+01	  0.114589177	7.886600E+01	  0.114589177	4.294200E+01
474	  0.114789583	-8.403000E+00	  0.114789583	3.669600E+01	  0.114789583	7.996200E+01	  0.114789583	4.245200E+01
475	  0.114989981	-8.412000E+00	  0.114989981	3.580500E+01	  0.114989981	8.099500E+01	  0.114989981	4.203700E+01
476	  0.115190387	-8.433000E+00	  0.115190387	3.478800E+01	  0.115190387	8.214600E+01	  0.115190387	4.144400E+01
477	  0.115390785	-8.450000E+00	  0.115390785	3.377000E+01	  0.115390785	8.330300E+01	  0.115390785	4.084000E+01
478	  0.115591183	-8.467000E+00	  0.115591183	3.279900E+01	  0.115591183	8.439900E+01	  0.115591183	4.022000E+01
479	  0.115791589	-8.492000E+00	  0.115791589	3.179500E+01	  0.115791589	8.549300E+01	  0.115791589	3.947200E+01
480	  0.115991987	-8.507000E+00	  0.115991987	3.074800E+01	  0.115991987	8.666700E+01	  0.115991987	3.873900E+01
481	  0.116192386	-8.537000E+00	  0.116192386	2.975600E+01	  0.116192386	8.769900E+01	  0.116192386	3.788100E+01
482	  0.116392791	-8.554000E+00	  0.116392791	2.861400E+01	  0.116392791	8.893900E+01	  0.116392791	3.697200E+01
483	  0.116593190	-8.582000E+00	  0.116593190	2.760900E+01	  0.116593190	8.995100E+01	  0.116593190	3.603200E+01
484	  0.116793588	-8.602000E+00	  0.116793588	2.656100E+01	  0.116793588	9.102500E+01	  0.116793588	3.507200E+01
485	  0.116993994	-8.631000E+00	  0.116993994	2.542200E+01	  0.116993994	9.212600E+01	  0.116993994	3.393100E+01
486	  0.117194392	-8.657000E+00	  0.117194392	2.433100E+01	  0.117194392	9.315600E+01	  0.117194392	3.280100E+01
487	  0.117394790	-8.694000E+00	  0.117394790	2.324300E+01	  0.117394790	9.407900E+01	  0.117394790	3.155300E+01
488	  0.117595196	-8.723000E+00	  0.117595196	2.213500E+01	  0.117595196	9.502700E+01	  0.117595196	3.029700E+01
489	  0.117795594	-8.755000E+00	  0.117795594	2.101400E+01	  0.117795594	9.592200E+01	  0.117795594	2.896600E+01
490	  0.117995992	-8.802000E+00	  0.117995992	1.988100E+01	  0.117995992	9.667300E+01	  0.117995992	2.748800E+01
491	  0.118196398	-8.842000E+00	  0.118196398	1.872600E+01	  0.118196398	9.743100E+01	  0.118196398	2.599700E+01
492	  0.118396796	-8.887000E+00	  0.118396796	1.761200E+01	  0.118396796	9.805900E+01	  0.118396796	2.449300E+01
493	  0.118597202	-8.936000E+00	  0.118597202	1.643500E+01	  0.118597202	9.864200E+01	  0.118597202	2.287100E+01
494	  0.118797600	-8.995000E+00	  0.118797600	1.527200E+01	  0.118797600	9.906700E+01	  0.118797600	2.119900E+01
495	  0.118997999	-9.052000E+00	  0.118997999	1.411800E+01	  0.118997999	9.942400E+01	  0.118997999	1.953500E+01
496	  0.119198404	-9.113000E+00	  0.119198404	1.285300E+01	  0.119198404	9.975100E+01	  0.119198404	1.771500E+01
497	  0.119398803	-9.179000E+00	  0.119398803	1.164700E+01	  0.119398803	9.990800E+01	  0.119398803	1.594700E+01
498	  0.119599201	-9.254000E+00	  0.119599201	1.041800E+01	  0.119599201	9.992800E+01	  0.119599201	1.413100E+01
499	  0.119799607	-9.335000E+00	  0.119799607	9.118000E+00	  0.119799607	9.984400E+01	  0.119799607	1.222700E+01
500	  0.120000005	-9.420000E+00	  0.120000005	7.887000E+00	  0.120000005	9.961600E+01	  0.120000005	1.043400E+01
