! Anritsu VNA Master:             	Model: MS2036C/10/77
! SN:             	1601066
! /bd0/18may8/255.ns.m2.txt
! Existing Calibration Information:
! TYPE:             	Current Settings	Active Cal Settings
! TIME:             	05/08/2018 11:03:49 AM	05/08/2018 10:55:57 AM
! INTERNAL TEMP:    	50.5 C	49.3 C
! # POINTS:         	500	500
! START FREQ:       	20.000 MHz	20.000 MHz
! STOP FREQ:        	120.000 MHz	120.000 MHz
! SOURCE POWER:     	High	High
! IFBW:             	50 Hz	50 Hz
! AVG FACTOR:       	  1 	  1 
! REF PLANE 1:      	0 mm	0 mm
! REF PLANE 2:      	0 mm	0 mm
! CAL TYPE:         	Full S11	Full S11
! CAL METHOD:       	SOLT	SOLT
! CAL LINE TYPE:    	Coax	Coax
! DUT PORT 1:       	K-Conn(F)	K-Conn(F)
! DUT PORT 2:       	K-Conn(F)	K-Conn(F)
! CAL STATUS:       	OK: Accuracy High	--
! PROP-V:       	0.700
! CABLE LOSS:       	0.000 dB/m
! REF IMPEDANCE:       	50.0
! Trace Specific Parameters:	TR1	TR2	TR3	TR4
! TRACE.#.Y (GRAPH TYPE)	LOG MAG	PHASE	REAL IMPEDANCE	IMAGINARY IMPEDANCE
! TRACE.#.X 	FREQ.GHZ	FREQ.GHZ	FREQ.GHZ	FREQ.GHZ
! S-PARAMETER	S11	S11	S11	S11
! SMOOTH/APERTURE %	0	0	0	0
! WINDOW	NSL	NSL	NSL	NSL
! GATING	OFF	OFF	OFF	OFF
! FGTD	OFF	OFF	OFF	OFF
Marker Information per Trace:	TR1	TR2	TR3	TR4
!MK1	--	"MK1 TR2:  20.000 MHz,PH:-124.19°"	--	--
!MK2	--	--	"MK2 TR3:  70.100 200 MHz,Z:(17.485 ohm, -3.359 ohm)"	--
!MK3	--	--	--	--
!MK4	--	--	--	--
!MK5	--	--	--	--
!MK6	--	--	--	--
!MK7	--	--	--	--
!MK8	--	--	--	--
PNT	TR1.FREQ.GHZ	TR1.LOG MAG.dB	TR2.FREQ.GHZ	TR2.PHASE.deg	TR3.FREQ.GHZ	TR3.REAL IMPEDANCE.ohm	TR4.FREQ.GHZ	TR4.IMAGINARY IMPEDANCE.ohm
1	  0.020000000	-6.550000E-01	  0.020000000	-1.241910E+02	  0.020000000	2.412000E+00	  0.020000000	-2.643000E+01
2	  0.020200402	-6.550000E-01	  0.020200402	-1.256160E+02	  0.020200402	2.383000E+00	  0.020200402	-2.564100E+01
3	  0.020400802	-6.590000E-01	  0.020400802	-1.270520E+02	  0.020400802	2.365000E+00	  0.020400802	-2.485500E+01
4	  0.020601204	-6.650000E-01	  0.020601204	-1.285050E+02	  0.020601204	2.357000E+00	  0.020601204	-2.407000E+01
5	  0.020801604	-6.690000E-01	  0.020801604	-1.299900E+02	  0.020801604	2.344000E+00	  0.020801604	-2.327800E+01
6	  0.021002004	-6.800000E-01	  0.021002004	-1.315020E+02	  0.021002004	2.352000E+00	  0.021002004	-2.248000E+01
7	  0.021202406	-6.880000E-01	  0.021202406	-1.330270E+02	  0.021202406	2.354000E+00	  0.021202406	-2.168500E+01
8	  0.021402806	-6.970000E-01	  0.021402806	-1.345650E+02	  0.021402806	2.356000E+00	  0.021402806	-2.089300E+01
9	  0.021603208	-7.010000E-01	  0.021603208	-1.360810E+02	  0.021603208	2.346000E+00	  0.021603208	-2.012100E+01
10	  0.021803608	-7.060000E-01	  0.021803608	-1.376100E+02	  0.021803608	2.336000E+00	  0.021803608	-1.935100E+01
11	  0.022004008	-7.100000E-01	  0.022004008	-1.391530E+02	  0.022004008	2.325000E+00	  0.022004008	-1.858200E+01
12	  0.022204408	-7.130000E-01	  0.022204408	-1.407190E+02	  0.022204408	2.314000E+00	  0.022204408	-1.780900E+01
13	  0.022404809	-7.160000E-01	  0.022404809	-1.422920E+02	  0.022404809	2.301000E+00	  0.022404809	-1.704100E+01
14	  0.022605211	-7.230000E-01	  0.022605211	-1.438680E+02	  0.022605211	2.301000E+00	  0.022605211	-1.627800E+01
15	  0.022805611	-7.230000E-01	  0.022805611	-1.454750E+02	  0.022805611	2.281000E+00	  0.022805611	-1.550700E+01
16	  0.023006011	-7.210000E-01	  0.023006011	-1.470680E+02	  0.023006011	2.256000E+00	  0.023006011	-1.475000E+01
17	  0.023206413	-7.180000E-01	  0.023206413	-1.486410E+02	  0.023206413	2.230000E+00	  0.023206413	-1.400800E+01
18	  0.023406813	-7.150000E-01	  0.023406813	-1.502140E+02	  0.023406813	2.202000E+00	  0.023406813	-1.327200E+01
19	  0.023607215	-7.170000E-01	  0.023607215	-1.517860E+02	  0.023607215	2.193000E+00	  0.023607215	-1.254200E+01
20	  0.023807615	-7.200000E-01	  0.023807615	-1.533720E+02	  0.023807615	2.189000E+00	  0.023807615	-1.181000E+01
21	  0.024008015	-7.250000E-01	  0.024008015	-1.549850E+02	  0.024008015	2.187000E+00	  0.024008015	-1.107100E+01
22	  0.024208417	-7.290000E-01	  0.024208417	-1.565980E+02	  0.024208417	2.188000E+00	  0.024208417	-1.033600E+01
23	  0.024408817	-7.320000E-01	  0.024408817	-1.582120E+02	  0.024408817	2.184000E+00	  0.024408817	-9.605000E+00
24	  0.024609219	-7.350000E-01	  0.024609219	-1.598410E+02	  0.024609219	2.181000E+00	  0.024609219	-8.871000E+00
25	  0.024809619	-7.400000E-01	  0.024809619	-1.614580E+02	  0.024809619	2.186000E+00	  0.024809619	-8.146000E+00
26	  0.025010020	-7.450000E-01	  0.025010020	-1.630770E+02	  0.025010020	2.192000E+00	  0.025010020	-7.423000E+00
27	  0.025210422	-7.540000E-01	  0.025210422	-1.647090E+02	  0.025210422	2.208000E+00	  0.025210422	-6.698000E+00
28	  0.025410822	-7.620000E-01	  0.025410822	-1.663520E+02	  0.025410822	2.225000E+00	  0.025410822	-5.971000E+00
29	  0.025611224	-7.720000E-01	  0.025611224	-1.680250E+02	  0.025611224	2.244000E+00	  0.025611224	-5.233000E+00
30	  0.025811624	-7.810000E-01	  0.025811624	-1.696990E+02	  0.025811624	2.266000E+00	  0.025811624	-4.497000E+00
31	  0.026012026	-7.910000E-01	  0.026012026	-1.714110E+02	  0.026012026	2.290000E+00	  0.026012026	-3.746000E+00
32	  0.026212426	-7.990000E-01	  0.026212426	-1.731060E+02	  0.026212426	2.307000E+00	  0.026212426	-3.004000E+00
33	  0.026412826	-8.120000E-01	  0.026412826	-1.748120E+02	  0.026412826	2.341000E+00	  0.026412826	-2.259000E+00
34	  0.026613226	-8.250000E-01	  0.026613226	-1.765420E+02	  0.026613226	2.377000E+00	  0.026613226	-1.505000E+00
35	  0.026813626	-8.420000E-01	  0.026813626	-1.782710E+02	  0.026813626	2.422000E+00	  0.026813626	-7.520000E-01
36	  0.027014028	-8.590000E-01	  0.027014028	1.799810E+02	  0.027014028	2.470000E+00	  0.027014028	7.000000E-03
37	  0.027214428	-8.750000E-01	  0.027214428	1.782120E+02	  0.027214428	2.518000E+00	  0.027214428	7.780000E-01
38	  0.027414829	-8.950000E-01	  0.027414829	1.764310E+02	  0.027414829	2.577000E+00	  0.027414829	1.553000E+00
39	  0.027615231	-9.120000E-01	  0.027615231	1.746430E+02	  0.027615231	2.630000E+00	  0.027615231	2.332000E+00
40	  0.027815631	-9.360000E-01	  0.027815631	1.728460E+02	  0.027815631	2.704000E+00	  0.027815631	3.116000E+00
41	  0.028016033	-9.590000E-01	  0.028016033	1.710120E+02	  0.028016033	2.774000E+00	  0.028016033	3.917000E+00
42	  0.028216433	-9.820000E-01	  0.028216433	1.691830E+02	  0.028216433	2.851000E+00	  0.028216433	4.718000E+00
43	  0.028416833	-1.007000E+00	  0.028416833	1.673460E+02	  0.028416833	2.932000E+00	  0.028416833	5.525000E+00
44	  0.028617235	-1.032000E+00	  0.028617235	1.655130E+02	  0.028617235	3.015000E+00	  0.028617235	6.332000E+00
45	  0.028817635	-1.051000E+00	  0.028817635	1.636680E+02	  0.028817635	3.085000E+00	  0.028817635	7.147000E+00
46	  0.029018037	-1.074000E+00	  0.029018037	1.618450E+02	  0.029018037	3.167000E+00	  0.029018037	7.956000E+00
47	  0.029218437	-1.096000E+00	  0.029218437	1.600170E+02	  0.029218437	3.250000E+00	  0.029218437	8.772000E+00
48	  0.029418837	-1.122000E+00	  0.029418837	1.581860E+02	  0.029418837	3.345000E+00	  0.029418837	9.593000E+00
49	  0.029619239	-1.148000E+00	  0.029619239	1.563390E+02	  0.029619239	3.445000E+00	  0.029619239	1.042500E+01
50	  0.029819639	-1.178000E+00	  0.029819639	1.544780E+02	  0.029819639	3.558000E+00	  0.029819639	1.126900E+01
51	  0.030020041	-1.207000E+00	  0.030020041	1.525770E+02	  0.030020041	3.676000E+00	  0.030020041	1.213700E+01
52	  0.030220442	-1.236000E+00	  0.030220442	1.506680E+02	  0.030220442	3.795000E+00	  0.030220442	1.301400E+01
53	  0.030420844	-1.263000E+00	  0.030420844	1.487660E+02	  0.030420844	3.913000E+00	  0.030420844	1.389600E+01
54	  0.030621244	-1.293000E+00	  0.030621244	1.468650E+02	  0.030621244	4.043000E+00	  0.030621244	1.478400E+01
55	  0.030821644	-1.323000E+00	  0.030821644	1.449790E+02	  0.030821644	4.177000E+00	  0.030821644	1.567400E+01
56	  0.031022044	-1.356000E+00	  0.031022044	1.430670E+02	  0.031022044	4.326000E+00	  0.031022044	1.658400E+01
57	  0.031222444	-1.385000E+00	  0.031222444	1.411680E+02	  0.031222444	4.469000E+00	  0.031222444	1.749800E+01
58	  0.031422846	-1.418000E+00	  0.031422846	1.392140E+02	  0.031422846	4.631000E+00	  0.031422846	1.844700E+01
59	  0.031623244	-1.451000E+00	  0.031623244	1.372400E+02	  0.031623244	4.801000E+00	  0.031623244	1.941700E+01
60	  0.031823646	-1.484000E+00	  0.031823646	1.352600E+02	  0.031823646	4.977000E+00	  0.031823646	2.040200E+01
61	  0.032024048	-1.512000E+00	  0.032024048	1.333020E+02	  0.032024048	5.145000E+00	  0.032024048	2.139100E+01
62	  0.032224450	-1.543000E+00	  0.032224450	1.313360E+02	  0.032224450	5.326000E+00	  0.032224450	2.239500E+01
63	  0.032424849	-1.572000E+00	  0.032424849	1.293700E+02	  0.032424849	5.513000E+00	  0.032424849	2.341500E+01
64	  0.032625251	-1.603000E+00	  0.032625251	1.273910E+02	  0.032625251	5.713000E+00	  0.032625251	2.445600E+01
65	  0.032825653	-1.637000E+00	  0.032825653	1.254390E+02	  0.032825653	5.934000E+00	  0.032825653	2.549700E+01
66	  0.033026051	-1.672000E+00	  0.033026051	1.234830E+02	  0.033026051	6.169000E+00	  0.033026051	2.655700E+01
67	  0.033226453	-1.715000E+00	  0.033226453	1.215270E+02	  0.033226453	6.442000E+00	  0.033226453	2.763000E+01
68	  0.033426855	-1.757000E+00	  0.033426855	1.195290E+02	  0.033426855	6.731000E+00	  0.033426855	2.874600E+01
69	  0.033627257	-1.806000E+00	  0.033627257	1.175370E+02	  0.033627257	7.057000E+00	  0.033627257	2.987400E+01
70	  0.033827655	-1.857000E+00	  0.033827655	1.155090E+02	  0.033827655	7.413000E+00	  0.033827655	3.104300E+01
71	  0.034028057	-1.905000E+00	  0.034028057	1.134310E+02	  0.034028057	7.778000E+00	  0.034028057	3.226600E+01
72	  0.034228459	-1.953000E+00	  0.034228459	1.113570E+02	  0.034228459	8.160000E+00	  0.034228459	3.351100E+01
73	  0.034428857	-2.002000E+00	  0.034428857	1.092140E+02	  0.034428857	8.577000E+00	  0.034428857	3.482400E+01
74	  0.034629259	-2.046000E+00	  0.034629259	1.070970E+02	  0.034629259	8.993000E+00	  0.034629259	3.615300E+01
75	  0.034829661	-2.094000E+00	  0.034829661	1.049630E+02	  0.034829661	9.456000E+00	  0.034829661	3.752000E+01
76	  0.035030060	-2.139000E+00	  0.035030060	1.028620E+02	  0.035030060	9.928000E+00	  0.035030060	3.889900E+01
77	  0.035230462	-2.182000E+00	  0.035230462	1.007290E+02	  0.035230462	1.042400E+01	  0.035230462	4.033600E+01
78	  0.035430863	-2.225000E+00	  0.035430863	9.864500E+01	  0.035430863	1.094600E+01	  0.035430863	4.177300E+01
79	  0.035631265	-2.269000E+00	  0.035631265	9.656500E+01	  0.035631265	1.150300E+01	  0.035631265	4.324200E+01
80	  0.035831664	-2.315000E+00	  0.035831664	9.449900E+01	  0.035831664	1.210600E+01	  0.035831664	4.473600E+01
81	  0.036032066	-2.362000E+00	  0.036032066	9.244900E+01	  0.036032066	1.274600E+01	  0.036032066	4.625600E+01
82	  0.036232468	-2.415000E+00	  0.036232468	9.041700E+01	  0.036232468	1.346000E+01	  0.036232468	4.779100E+01
83	  0.036432866	-2.463000E+00	  0.036432866	8.839500E+01	  0.036432866	1.419700E+01	  0.036432866	4.936300E+01
84	  0.036633268	-2.520000E+00	  0.036633268	8.637400E+01	  0.036633268	1.502600E+01	  0.036633268	5.096100E+01
85	  0.036833670	-2.582000E+00	  0.036833670	8.436800E+01	  0.036833670	1.593700E+01	  0.036833670	5.257700E+01
86	  0.037034072	-2.643000E+00	  0.037034072	8.234200E+01	  0.037034072	1.691800E+01	  0.037034072	5.425100E+01
87	  0.037234470	-2.709000E+00	  0.037234470	8.028100E+01	  0.037234470	1.801100E+01	  0.037234470	5.598600E+01
88	  0.037434869	-2.776000E+00	  0.037434869	7.820400E+01	  0.037434869	1.918700E+01	  0.037434869	5.777900E+01
89	  0.037635271	-2.840000E+00	  0.037635271	7.612700E+01	  0.037635271	2.044400E+01	  0.037635271	5.961800E+01
90	  0.037835669	-2.908000E+00	  0.037835669	7.401900E+01	  0.037835669	2.183100E+01	  0.037835669	6.152400E+01
91	  0.038036071	-2.973000E+00	  0.038036071	7.190700E+01	  0.038036071	2.331600E+01	  0.038036071	6.348600E+01
92	  0.038236473	-3.035000E+00	  0.038236473	6.977400E+01	  0.038236473	2.490800E+01	  0.038236473	6.552700E+01
93	  0.038436871	-3.097000E+00	  0.038436871	6.764300E+01	  0.038436871	2.663100E+01	  0.038436871	6.761300E+01
94	  0.038637273	-3.154000E+00	  0.038637273	6.553200E+01	  0.038637273	2.844800E+01	  0.038637273	6.974400E+01
95	  0.038837675	-3.204000E+00	  0.038837675	6.341700E+01	  0.038837675	3.036800E+01	  0.038837675	7.196200E+01
96	  0.039038073	-3.253000E+00	  0.039038073	6.131900E+01	  0.039038073	3.243400E+01	  0.039038073	7.421400E+01
97	  0.039238475	-3.302000E+00	  0.039238475	5.927300E+01	  0.039238475	3.463300E+01	  0.039238475	7.645000E+01
98	  0.039438877	-3.355000E+00	  0.039438877	5.724200E+01	  0.039438877	3.704700E+01	  0.039438877	7.867100E+01
99	  0.039639279	-3.411000E+00	  0.039639279	5.521800E+01	  0.039639279	3.968100E+01	  0.039639279	8.089400E+01
100	  0.039839678	-3.471000E+00	  0.039839678	5.315800E+01	  0.039839678	4.262800E+01	  0.039839678	8.313400E+01
101	  0.040040080	-3.529000E+00	  0.040040080	5.109600E+01	  0.040040080	4.582700E+01	  0.040040080	8.538300E+01
102	  0.040240481	-3.591000E+00	  0.040240481	4.902400E+01	  0.040240481	4.935300E+01	  0.040240481	8.758700E+01
103	  0.040440880	-3.654000E+00	  0.040440880	4.693900E+01	  0.040440880	5.322200E+01	  0.040440880	8.974000E+01
104	  0.040641282	-3.715000E+00	  0.040641282	4.484200E+01	  0.040641282	5.743300E+01	  0.040641282	9.185700E+01
105	  0.040841684	-3.772000E+00	  0.040841684	4.274100E+01	  0.040841684	6.199600E+01	  0.040841684	9.390300E+01
106	  0.041042086	-3.828000E+00	  0.041042086	4.067600E+01	  0.041042086	6.687400E+01	  0.041042086	9.576100E+01
107	  0.041242484	-3.883000E+00	  0.041242484	3.858500E+01	  0.041242484	7.221800E+01	  0.041242484	9.747200E+01
108	  0.041442886	-3.936000E+00	  0.041442886	3.648900E+01	  0.041442886	7.801900E+01	  0.041442886	9.893800E+01
109	  0.041643288	-3.989000E+00	  0.041643288	3.439800E+01	  0.041643288	8.426600E+01	  0.041643288	1.000890E+02
110	  0.041843686	-4.042000E+00	  0.041843686	3.231600E+01	  0.041843686	9.096000E+01	  0.041843686	1.008070E+02
111	  0.042044088	-4.087000E+00	  0.042044088	3.025900E+01	  0.042044088	9.800800E+01	  0.042044088	1.011740E+02
112	  0.042244490	-4.135000E+00	  0.042244490	2.823900E+01	  0.042244490	1.053850E+02	  0.042244490	1.008860E+02
113	  0.042444889	-4.183000E+00	  0.042444889	2.622900E+01	  0.042444889	1.131180E+02	  0.042444889	9.988100E+01
114	  0.042645290	-4.232000E+00	  0.042645290	2.423900E+01	  0.042645290	1.210990E+02	  0.042645290	9.810700E+01
115	  0.042845692	-4.280000E+00	  0.042845692	2.226800E+01	  0.042845692	1.292210E+02	  0.042845692	9.544400E+01
116	  0.043046094	-4.327000E+00	  0.043046094	2.029800E+01	  0.043046094	1.374660E+02	  0.043046094	9.186400E+01
117	  0.043246493	-4.376000E+00	  0.043246493	1.833900E+01	  0.043246493	1.456090E+02	  0.043246493	8.720200E+01
118	  0.043446895	-4.424000E+00	  0.043446895	1.639200E+01	  0.043446895	1.534750E+02	  0.043446895	8.145800E+01
119	  0.043647297	-4.473000E+00	  0.043647297	1.446000E+01	  0.043647297	1.608490E+02	  0.043647297	7.463900E+01
120	  0.043847695	-4.523000E+00	  0.043847695	1.253900E+01	  0.043847695	1.675170E+02	  0.043847695	6.677400E+01
121	  0.044048097	-4.574000E+00	  0.044048097	1.062200E+01	  0.044048097	1.733150E+02	  0.044048097	5.794200E+01
122	  0.044248499	-4.627000E+00	  0.044248499	8.731000E+00	  0.044248499	1.779390E+02	  0.044248499	4.838100E+01
123	  0.044448901	-4.678000E+00	  0.044448901	6.820000E+00	  0.044448901	1.814730E+02	  0.044448901	3.813900E+01
124	  0.044649299	-4.730000E+00	  0.044649299	4.930000E+00	  0.044649299	1.836690E+02	  0.044649299	2.759900E+01
125	  0.044849701	-4.777000E+00	  0.044849701	3.030000E+00	  0.044849701	1.846870E+02	  0.044849701	1.688300E+01
126	  0.045050103	-4.828000E+00	  0.045050103	1.145000E+00	  0.045050103	1.842800E+02	  0.045050103	6.295000E+00
127	  0.045250501	-4.874000E+00	  0.045250501	-7.310000E-01	  0.045250501	1.827380E+02	  0.045250501	-3.948000E+00
128	  0.045450903	-4.917000E+00	  0.045450903	-2.604000E+00	  0.045450903	1.801930E+02	  0.045450903	-1.371600E+01
129	  0.045651305	-4.962000E+00	  0.045651305	-4.481000E+00	  0.045651305	1.765460E+02	  0.045651305	-2.288000E+01
130	  0.045851704	-5.006000E+00	  0.045851704	-6.316000E+00	  0.045851704	1.721350E+02	  0.045851704	-3.110100E+01
131	  0.046052106	-5.054000E+00	  0.046052106	-8.168000E+00	  0.046052106	1.669510E+02	  0.046052106	-3.855500E+01
132	  0.046252504	-5.098000E+00	  0.046252504	-1.001000E+01	  0.046252504	1.613790E+02	  0.046252504	-4.515500E+01
133	  0.046452906	-5.143000E+00	  0.046452906	-1.186000E+01	  0.046452906	1.553880E+02	  0.046452906	-5.089800E+01
134	  0.046653304	-5.182000E+00	  0.046653304	-1.370700E+01	  0.046653304	1.493490E+02	  0.046653304	-5.593800E+01
135	  0.046853706	-5.221000E+00	  0.046853706	-1.557800E+01	  0.046853706	1.430910E+02	  0.046853706	-6.022800E+01
136	  0.047054108	-5.260000E+00	  0.047054108	-1.740800E+01	  0.047054108	1.369480E+02	  0.047054108	-6.367800E+01
137	  0.047254506	-5.295000E+00	  0.047254506	-1.925500E+01	  0.047254506	1.308750E+02	  0.047254506	-6.659200E+01
138	  0.047454908	-5.329000E+00	  0.047454908	-2.109600E+01	  0.047454908	1.249440E+02	  0.047454908	-6.889500E+01
139	  0.047655310	-5.358000E+00	  0.047655310	-2.290900E+01	  0.047655310	1.192940E+02	  0.047655310	-7.070400E+01
140	  0.047855709	-5.385000E+00	  0.047855709	-2.469200E+01	  0.047855709	1.139280E+02	  0.047855709	-7.205700E+01
141	  0.048056111	-5.413000E+00	  0.048056111	-2.648500E+01	  0.048056111	1.087250E+02	  0.048056111	-7.298200E+01
142	  0.048256513	-5.441000E+00	  0.048256513	-2.828000E+01	  0.048256513	1.037370E+02	  0.048256513	-7.355000E+01
143	  0.048456915	-5.465000E+00	  0.048456915	-3.006400E+01	  0.048456915	9.901800E+01	  0.048456915	-7.385900E+01
144	  0.048657313	-5.493000E+00	  0.048657313	-3.182700E+01	  0.048657313	9.457200E+01	  0.048657313	-7.383500E+01
145	  0.048857715	-5.515000E+00	  0.048857715	-3.360300E+01	  0.048857715	9.033000E+01	  0.048857715	-7.368100E+01
146	  0.049058117	-5.534000E+00	  0.049058117	-3.537100E+01	  0.049058117	8.632300E+01	  0.049058117	-7.336500E+01
147	  0.049258515	-5.554000E+00	  0.049258515	-3.711100E+01	  0.049258515	8.258900E+01	  0.049258515	-7.286300E+01
148	  0.049458917	-5.572000E+00	  0.049458917	-3.882400E+01	  0.049458917	7.910800E+01	  0.049458917	-7.224000E+01
149	  0.049659319	-5.594000E+00	  0.049659319	-4.054400E+01	  0.049659319	7.581100E+01	  0.049659319	-7.146000E+01
150	  0.049859721	-5.614000E+00	  0.049859721	-4.223900E+01	  0.049859721	7.273400E+01	  0.049859721	-7.062400E+01
151	  0.050060119	-5.631000E+00	  0.050060119	-4.392200E+01	  0.050060119	6.984000E+01	  0.050060119	-6.973700E+01
152	  0.050260521	-5.647000E+00	  0.050260521	-4.562000E+01	  0.050260521	6.708000E+01	  0.050260521	-6.878400E+01
153	  0.050460923	-5.664000E+00	  0.050460923	-4.729000E+01	  0.050460923	6.451500E+01	  0.050460923	-6.778300E+01
154	  0.050661322	-5.678000E+00	  0.050661322	-4.896900E+01	  0.050661322	6.206900E+01	  0.050661322	-6.676000E+01
155	  0.050861724	-5.692000E+00	  0.050861724	-5.061100E+01	  0.050861724	5.980800E+01	  0.050861724	-6.571800E+01
156	  0.051062126	-5.705000E+00	  0.051062126	-5.223000E+01	  0.051062126	5.768900E+01	  0.051062126	-6.467800E+01
157	  0.051262524	-5.718000E+00	  0.051262524	-5.381200E+01	  0.051262524	5.573200E+01	  0.051262524	-6.362800E+01
158	  0.051462926	-5.732000E+00	  0.051462926	-5.538600E+01	  0.051462926	5.389000E+01	  0.051462926	-6.255900E+01
159	  0.051663328	-5.748000E+00	  0.051663328	-5.692300E+01	  0.051663328	5.219000E+01	  0.051663328	-6.149100E+01
160	  0.051863730	-5.768000E+00	  0.051863730	-5.846100E+01	  0.051863730	5.059000E+01	  0.051863730	-6.038700E+01
161	  0.052064128	-5.785000E+00	  0.052064128	-6.000000E+01	  0.052064128	4.906000E+01	  0.052064128	-5.930300E+01
162	  0.052264530	-5.805000E+00	  0.052264530	-6.154100E+01	  0.052264530	4.761400E+01	  0.052264530	-5.820300E+01
163	  0.052464932	-5.829000E+00	  0.052464932	-6.305800E+01	  0.052464932	4.628300E+01	  0.052464932	-5.709000E+01
164	  0.052665330	-5.852000E+00	  0.052665330	-6.462600E+01	  0.052665330	4.496700E+01	  0.052665330	-5.596600E+01
165	  0.052865732	-5.877000E+00	  0.052865732	-6.615800E+01	  0.052865732	4.375700E+01	  0.052865732	-5.486000E+01
166	  0.053066134	-5.900000E+00	  0.053066134	-6.769100E+01	  0.053066134	4.259500E+01	  0.053066134	-5.377800E+01
167	  0.053266536	-5.922000E+00	  0.053266536	-6.925800E+01	  0.053266536	4.146300E+01	  0.053266536	-5.268800E+01
168	  0.053466935	-5.940000E+00	  0.053466935	-7.079800E+01	  0.053466935	4.038600E+01	  0.053466935	-5.164800E+01
169	  0.053667337	-5.957000E+00	  0.053667337	-7.235800E+01	  0.053667337	3.934700E+01	  0.053667337	-5.060800E+01
170	  0.053867739	-5.969000E+00	  0.053867739	-7.388200E+01	  0.053867739	3.836100E+01	  0.053867739	-4.962100E+01
171	  0.054068137	-5.983000E+00	  0.054068137	-7.539900E+01	  0.054068137	3.743200E+01	  0.054068137	-4.863900E+01
172	  0.054268539	-5.997000E+00	  0.054268539	-7.688600E+01	  0.054268539	3.656300E+01	  0.054268539	-4.768600E+01
173	  0.054468941	-6.010000E+00	  0.054468941	-7.838000E+01	  0.054468941	3.572400E+01	  0.054468941	-4.674300E+01
174	  0.054669339	-6.030000E+00	  0.054669339	-7.983500E+01	  0.054669339	3.496800E+01	  0.054669339	-4.580900E+01
175	  0.054869737	-6.040000E+00	  0.054869737	-8.130600E+01	  0.054869737	3.420300E+01	  0.054869737	-4.490900E+01
176	  0.055070139	-6.055000E+00	  0.055070139	-8.274400E+01	  0.055070139	3.350600E+01	  0.055070139	-4.402000E+01
177	  0.055270538	-6.067000E+00	  0.055270538	-8.417700E+01	  0.055270538	3.282700E+01	  0.055270538	-4.315600E+01
178	  0.055470940	-6.081000E+00	  0.055470940	-8.560400E+01	  0.055470940	3.218700E+01	  0.055470940	-4.229700E+01
179	  0.055671342	-6.090000E+00	  0.055671342	-8.707000E+01	  0.055671342	3.154000E+01	  0.055671342	-4.144000E+01
180	  0.055871744	-6.099000E+00	  0.055871744	-8.850400E+01	  0.055871744	3.092900E+01	  0.055871744	-4.061200E+01
181	  0.056072142	-6.108000E+00	  0.056072142	-8.991800E+01	  0.056072142	3.035600E+01	  0.056072142	-3.980100E+01
182	  0.056272544	-6.120000E+00	  0.056272544	-9.135500E+01	  0.056272544	2.980700E+01	  0.056272544	-3.897800E+01
183	  0.056472946	-6.125000E+00	  0.056472946	-9.278300E+01	  0.056472946	2.925600E+01	  0.056472946	-3.818800E+01
184	  0.056673344	-6.131000E+00	  0.056673344	-9.418300E+01	  0.056673344	2.874000E+01	  0.056673344	-3.742000E+01
185	  0.056873746	-6.133000E+00	  0.056873746	-9.558700E+01	  0.056873746	2.822900E+01	  0.056873746	-3.666500E+01
186	  0.057074148	-6.130000E+00	  0.057074148	-9.696800E+01	  0.057074148	2.773100E+01	  0.057074148	-3.593900E+01
187	  0.057274550	-6.131000E+00	  0.057274550	-9.836500E+01	  0.057274550	2.725700E+01	  0.057274550	-3.520400E+01
188	  0.057474948	-6.126000E+00	  0.057474948	-9.975000E+01	  0.057474948	2.678400E+01	  0.057474948	-3.449400E+01
189	  0.057675350	-6.125000E+00	  0.057675350	-1.010820E+02	  0.057675350	2.635800E+01	  0.057675350	-3.380800E+01
190	  0.057875752	-6.119000E+00	  0.057875752	-1.023820E+02	  0.057875752	2.594000E+01	  0.057875752	-3.315300E+01
191	  0.058076151	-6.117000E+00	  0.058076151	-1.037030E+02	  0.058076151	2.554600E+01	  0.058076151	-3.248400E+01
192	  0.058276553	-6.110000E+00	  0.058276553	-1.049730E+02	  0.058276553	2.515900E+01	  0.058276553	-3.185700E+01
193	  0.058476955	-6.110000E+00	  0.058476955	-1.062300E+02	  0.058476955	2.481500E+01	  0.058476955	-3.122700E+01
194	  0.058677353	-6.110000E+00	  0.058677353	-1.075080E+02	  0.058677353	2.447500E+01	  0.058677353	-3.059200E+01
195	  0.058877755	-6.110000E+00	  0.058877755	-1.087580E+02	  0.058877755	2.415500E+01	  0.058877755	-2.997500E+01
196	  0.059078157	-6.108000E+00	  0.059078157	-1.100020E+02	  0.059078157	2.383800E+01	  0.059078157	-2.936900E+01
197	  0.059278559	-6.109000E+00	  0.059278559	-1.112430E+02	  0.059278559	2.354400E+01	  0.059278559	-2.876400E+01
198	  0.059478957	-6.111000E+00	  0.059478957	-1.125150E+02	  0.059478957	2.325300E+01	  0.059478957	-2.814900E+01
199	  0.059679359	-6.114000E+00	  0.059679359	-1.137730E+02	  0.059679359	2.298000E+01	  0.059679359	-2.754300E+01
200	  0.059879761	-6.120000E+00	  0.059879761	-1.150060E+02	  0.059879761	2.273000E+01	  0.059879761	-2.694900E+01
201	  0.060080159	-6.123000E+00	  0.060080159	-1.162260E+02	  0.060080159	2.248400E+01	  0.060080159	-2.637000E+01
202	  0.060280561	-6.125000E+00	  0.060280561	-1.174680E+02	  0.060280561	2.223800E+01	  0.060280561	-2.578500E+01
203	  0.060480963	-6.133000E+00	  0.060480963	-1.186880E+02	  0.060480963	2.202100E+01	  0.060480963	-2.520900E+01
204	  0.060681365	-6.134000E+00	  0.060681365	-1.199110E+02	  0.060681365	2.179300E+01	  0.060681365	-2.464300E+01
205	  0.060881764	-6.138000E+00	  0.060881764	-1.211420E+02	  0.060881764	2.157600E+01	  0.060881764	-2.407500E+01
206	  0.061082166	-6.141000E+00	  0.061082166	-1.223620E+02	  0.061082166	2.136800E+01	  0.061082166	-2.351700E+01
207	  0.061282568	-6.144000E+00	  0.061282568	-1.235830E+02	  0.061282568	2.116700E+01	  0.061282568	-2.296200E+01
208	  0.061482966	-6.149000E+00	  0.061482966	-1.247750E+02	  0.061482966	2.098100E+01	  0.061482966	-2.242200E+01
209	  0.061683368	-6.153000E+00	  0.061683368	-1.259520E+02	  0.061683368	2.080200E+01	  0.061683368	-2.189300E+01
210	  0.061883770	-6.159000E+00	  0.061883770	-1.271370E+02	  0.061883770	2.063400E+01	  0.061883770	-2.136200E+01
211	  0.062084168	-6.166000E+00	  0.062084168	-1.283070E+02	  0.062084168	2.047800E+01	  0.062084168	-2.084000E+01
212	  0.062284570	-6.170000E+00	  0.062284570	-1.294830E+02	  0.062284570	2.031700E+01	  0.062284570	-2.032100E+01
213	  0.062484972	-6.171000E+00	  0.062484972	-1.306440E+02	  0.062484972	2.015500E+01	  0.062484972	-1.981500E+01
214	  0.062685370	-6.181000E+00	  0.062685370	-1.317960E+02	  0.062685370	2.002600E+01	  0.062685370	-1.930800E+01
215	  0.062885776	-6.189000E+00	  0.062885776	-1.329560E+02	  0.062885776	1.989700E+01	  0.062885776	-1.880100E+01
216	  0.063086174	-6.194000E+00	  0.063086174	-1.341490E+02	  0.063086174	1.975700E+01	  0.063086174	-1.828700E+01
217	  0.063286573	-6.198000E+00	  0.063286573	-1.353540E+02	  0.063286573	1.961900E+01	  0.063286573	-1.777100E+01
218	  0.063486971	-6.210000E+00	  0.063486971	-1.365330E+02	  0.063486971	1.951100E+01	  0.063486971	-1.726300E+01
219	  0.063687377	-6.211000E+00	  0.063687377	-1.376790E+02	  0.063687377	1.938200E+01	  0.063687377	-1.677900E+01
220	  0.063887775	-6.214000E+00	  0.063887775	-1.388620E+02	  0.063887775	1.925700E+01	  0.063887775	-1.628200E+01
221	  0.064088173	-6.210000E+00	  0.064088173	-1.400560E+02	  0.064088173	1.911800E+01	  0.064088173	-1.578700E+01
222	  0.064288579	-6.215000E+00	  0.064288579	-1.412170E+02	  0.064288579	1.901300E+01	  0.064288579	-1.530100E+01
223	  0.064488977	-6.213000E+00	  0.064488977	-1.423290E+02	  0.064488977	1.889500E+01	  0.064488977	-1.484300E+01
224	  0.064689375	-6.218000E+00	  0.064689375	-1.434780E+02	  0.064689375	1.879900E+01	  0.064689375	-1.436700E+01
225	  0.064889781	-6.218000E+00	  0.064889781	-1.445850E+02	  0.064889781	1.869600E+01	  0.064889781	-1.391300E+01
226	  0.065090179	-6.218000E+00	  0.065090179	-1.457000E+02	  0.065090179	1.859800E+01	  0.065090179	-1.345800E+01
227	  0.065290578	-6.218000E+00	  0.065290578	-1.467910E+02	  0.065290578	1.850200E+01	  0.065290578	-1.301400E+01
228	  0.065490983	-6.220000E+00	  0.065490983	-1.478760E+02	  0.065490983	1.842000E+01	  0.065490983	-1.257300E+01
229	  0.065691382	-6.220000E+00	  0.065691382	-1.489600E+02	  0.065691382	1.833300E+01	  0.065691382	-1.213500E+01
230	  0.065891780	-6.219000E+00	  0.065891780	-1.500630E+02	  0.065891780	1.824600E+01	  0.065891780	-1.169200E+01
231	  0.066092186	-6.223000E+00	  0.066092186	-1.511290E+02	  0.066092186	1.818000E+01	  0.066092186	-1.126200E+01
232	  0.066292584	-6.224000E+00	  0.066292584	-1.521830E+02	  0.066292584	1.810800E+01	  0.066292584	-1.084000E+01
233	  0.066492982	-6.226000E+00	  0.066492982	-1.532370E+02	  0.066492982	1.804300E+01	  0.066492982	-1.041800E+01
234	  0.066693388	-6.226000E+00	  0.066693388	-1.543090E+02	  0.066693388	1.797400E+01	  0.066693388	-9.992000E+00
235	  0.066893786	-6.229000E+00	  0.066893786	-1.553300E+02	  0.066893786	1.792000E+01	  0.066893786	-9.585000E+00
236	  0.067094192	-6.230000E+00	  0.067094192	-1.563630E+02	  0.067094192	1.786200E+01	  0.067094192	-9.176000E+00
237	  0.067294590	-6.232000E+00	  0.067294590	-1.574100E+02	  0.067294590	1.780800E+01	  0.067294590	-8.762000E+00
238	  0.067494988	-6.236000E+00	  0.067494988	-1.584260E+02	  0.067494988	1.776400E+01	  0.067494988	-8.360000E+00
239	  0.067695394	-6.235000E+00	  0.067695394	-1.594340E+02	  0.067695394	1.771100E+01	  0.067695394	-7.964000E+00
240	  0.067895792	-6.246000E+00	  0.067895792	-1.604330E+02	  0.067895792	1.769300E+01	  0.067895792	-7.569000E+00
241	  0.068096191	-6.246000E+00	  0.068096191	-1.614940E+02	  0.068096191	1.764400E+01	  0.068096191	-7.154000E+00
242	  0.068296596	-6.249000E+00	  0.068296596	-1.624790E+02	  0.068296596	1.760900E+01	  0.068296596	-6.768000E+00
243	  0.068496995	-6.256000E+00	  0.068496995	-1.634540E+02	  0.068496995	1.758800E+01	  0.068496995	-6.386000E+00
244	  0.068697393	-6.262000E+00	  0.068697393	-1.644150E+02	  0.068697393	1.756800E+01	  0.068697393	-6.011000E+00
245	  0.068897791	-6.263000E+00	  0.068897791	-1.654200E+02	  0.068897791	1.753300E+01	  0.068897791	-5.620000E+00
246	  0.069098189	-6.269000E+00	  0.069098189	-1.663960E+02	  0.069098189	1.751600E+01	  0.069098189	-5.240000E+00
247	  0.069298595	-6.275000E+00	  0.069298595	-1.673480E+02	  0.069298595	1.750200E+01	  0.069298595	-4.870000E+00
248	  0.069498993	-6.281000E+00	  0.069498993	-1.683320E+02	  0.069498993	1.748800E+01	  0.069498993	-4.489000E+00
249	  0.069699399	-6.291000E+00	  0.069699399	-1.693030E+02	  0.069699399	1.748800E+01	  0.069699399	-4.112000E+00
250	  0.069899797	-6.299000E+00	  0.069899797	-1.702850E+02	  0.069899797	1.748700E+01	  0.069899797	-3.732000E+00
251	  0.070100196	-6.307000E+00	  0.070100196	-1.712530E+02	  0.070100196	1.748400E+01	  0.070100196	-3.358000E+00
252	  0.070300601	-6.317000E+00	  0.070300601	-1.722030E+02	  0.070300601	1.749300E+01	  0.070300601	-2.991000E+00
253	  0.070501000	-6.322000E+00	  0.070501000	-1.731560E+02	  0.070501000	1.748900E+01	  0.070501000	-2.625000E+00
254	  0.070701398	-6.324000E+00	  0.070701398	-1.741290E+02	  0.070701398	1.747800E+01	  0.070701398	-2.251000E+00
255	  0.070901804	-6.333000E+00	  0.070901804	-1.750610E+02	  0.070901804	1.749100E+01	  0.070901804	-1.892000E+00
256	  0.071102202	-6.345000E+00	  0.071102202	-1.760440E+02	  0.071102202	1.751100E+01	  0.071102202	-1.515000E+00
257	  0.071302600	-6.350000E+00	  0.071302600	-1.770390E+02	  0.071302600	1.751500E+01	  0.071302600	-1.133000E+00
258	  0.071503006	-6.361000E+00	  0.071503006	-1.780150E+02	  0.071503006	1.753800E+01	  0.071503006	-7.590000E-01
259	  0.071703404	-6.371000E+00	  0.071703404	-1.789350E+02	  0.071703404	1.755900E+01	  0.071703404	-4.070000E-01
260	  0.071903802	-6.375000E+00	  0.071903802	-1.799020E+02	  0.071903802	1.756900E+01	  0.071903802	-3.700000E-02
261	  0.072104208	-6.383000E+00	  0.072104208	1.791340E+02	  0.072104208	1.758900E+01	  0.072104208	3.310000E-01
262	  0.072304606	-6.388000E+00	  0.072304606	1.781900E+02	  0.072304606	1.760400E+01	  0.072304606	6.910000E-01
263	  0.072505005	-6.398000E+00	  0.072505005	1.772400E+02	  0.072505005	1.763500E+01	  0.072505005	1.054000E+00
264	  0.072705410	-6.406000E+00	  0.072705410	1.762820E+02	  0.072705410	1.766200E+01	  0.072705410	1.420000E+00
265	  0.072905809	-6.410000E+00	  0.072905809	1.753560E+02	  0.072905809	1.768200E+01	  0.072905809	1.774000E+00
266	  0.073106214	-6.416000E+00	  0.073106214	1.743780E+02	  0.073106214	1.770700E+01	  0.073106214	2.147000E+00
267	  0.073306613	-6.423000E+00	  0.073306613	1.734610E+02	  0.073306613	1.773900E+01	  0.073306613	2.497000E+00
268	  0.073507011	-6.425000E+00	  0.073507011	1.725020E+02	  0.073507011	1.776100E+01	  0.073507011	2.864000E+00
269	  0.073707417	-6.432000E+00	  0.073707417	1.715690E+02	  0.073707417	1.779600E+01	  0.073707417	3.220000E+00
270	  0.073907815	-6.436000E+00	  0.073907815	1.706280E+02	  0.073907815	1.782500E+01	  0.073907815	3.580000E+00
271	  0.074108213	-6.438000E+00	  0.074108213	1.697130E+02	  0.074108213	1.785100E+01	  0.074108213	3.930000E+00
272	  0.074308619	-6.437000E+00	  0.074308619	1.687780E+02	  0.074308619	1.787400E+01	  0.074308619	4.289000E+00
273	  0.074509017	-6.441000E+00	  0.074509017	1.678650E+02	  0.074509017	1.790800E+01	  0.074509017	4.639000E+00
274	  0.074709415	-6.444000E+00	  0.074709415	1.669520E+02	  0.074709415	1.794500E+01	  0.074709415	4.989000E+00
275	  0.074909821	-6.445000E+00	  0.074909821	1.660410E+02	  0.074909821	1.797700E+01	  0.074909821	5.339000E+00
276	  0.075110219	-6.453000E+00	  0.075110219	1.651230E+02	  0.075110219	1.802800E+01	  0.075110219	5.691000E+00
277	  0.075310618	-6.457000E+00	  0.075310618	1.642750E+02	  0.075310618	1.807100E+01	  0.075310618	6.017000E+00
278	  0.075511023	-6.457000E+00	  0.075511023	1.634120E+02	  0.075511023	1.810200E+01	  0.075511023	6.350000E+00
279	  0.075711422	-6.461000E+00	  0.075711422	1.625260E+02	  0.075711422	1.814900E+01	  0.075711422	6.691000E+00
280	  0.075911827	-6.462000E+00	  0.075911827	1.616770E+02	  0.075911827	1.818900E+01	  0.075911827	7.019000E+00
281	  0.076112226	-6.467000E+00	  0.076112226	1.608130E+02	  0.076112226	1.824300E+01	  0.076112226	7.353000E+00
282	  0.076312624	-6.470000E+00	  0.076312624	1.599360E+02	  0.076312624	1.829100E+01	  0.076312624	7.692000E+00
283	  0.076513030	-6.476000E+00	  0.076513030	1.590810E+02	  0.076513030	1.835000E+01	  0.076513030	8.022000E+00
284	  0.076713428	-6.485000E+00	  0.076713428	1.582310E+02	  0.076713428	1.841800E+01	  0.076713428	8.350000E+00
285	  0.076913826	-6.489000E+00	  0.076913826	1.573850E+02	  0.076913826	1.847400E+01	  0.076913826	8.678000E+00
286	  0.077114232	-6.494000E+00	  0.077114232	1.565550E+02	  0.077114232	1.853500E+01	  0.077114232	9.000000E+00
287	  0.077314630	-6.501000E+00	  0.077314630	1.557230E+02	  0.077314630	1.860200E+01	  0.077314630	9.322000E+00
288	  0.077515028	-6.507000E+00	  0.077515028	1.549290E+02	  0.077515028	1.866700E+01	  0.077515028	9.631000E+00
289	  0.077715434	-6.520000E+00	  0.077715434	1.541210E+02	  0.077715434	1.875100E+01	  0.077715434	9.942000E+00
290	  0.077915832	-6.532000E+00	  0.077915832	1.532690E+02	  0.077915832	1.883900E+01	  0.077915832	1.027100E+01
291	  0.078116231	-6.546000E+00	  0.078116231	1.524880E+02	  0.078116231	1.892800E+01	  0.078116231	1.057200E+01
292	  0.078316636	-6.556000E+00	  0.078316636	1.516670E+02	  0.078316636	1.901500E+01	  0.078316636	1.089000E+01
293	  0.078517035	-6.580000E+00	  0.078517035	1.508360E+02	  0.078517035	1.913800E+01	  0.078517035	1.120600E+01
294	  0.078717433	-6.596000E+00	  0.078717433	1.500320E+02	  0.078717433	1.924000E+01	  0.078717433	1.151500E+01
295	  0.078917839	-6.611000E+00	  0.078917839	1.492210E+02	  0.078917839	1.934300E+01	  0.078917839	1.182800E+01
296	  0.079118237	-6.633000E+00	  0.079118237	1.484200E+02	  0.079118237	1.946600E+01	  0.079118237	1.213300E+01
297	  0.079318643	-6.655000E+00	  0.079318643	1.476150E+02	  0.079318643	1.958900E+01	  0.079318643	1.244000E+01
298	  0.079519041	-6.677000E+00	  0.079519041	1.468070E+02	  0.079519041	1.971700E+01	  0.079519041	1.274800E+01
299	  0.079719439	-6.698000E+00	  0.079719439	1.459760E+02	  0.079719439	1.984800E+01	  0.079719439	1.306500E+01
300	  0.079919845	-6.721000E+00	  0.079919845	1.451280E+02	  0.079919845	1.998500E+01	  0.079919845	1.338900E+01
301	  0.080120243	-6.740000E+00	  0.080120243	1.443250E+02	  0.080120243	2.011100E+01	  0.080120243	1.369700E+01
302	  0.080320641	-6.767000E+00	  0.080320641	1.434960E+02	  0.080320641	2.026200E+01	  0.080320641	1.401000E+01
303	  0.080521047	-6.784000E+00	  0.080521047	1.426500E+02	  0.080521047	2.039300E+01	  0.080521047	1.433600E+01
304	  0.080721445	-6.807000E+00	  0.080721445	1.418360E+02	  0.080721445	2.053800E+01	  0.080721445	1.464600E+01
305	  0.080921844	-6.829000E+00	  0.080921844	1.410220E+02	  0.080921844	2.068400E+01	  0.080921844	1.495600E+01
306	  0.081122249	-6.847000E+00	  0.081122249	1.401770E+02	  0.081122249	2.082100E+01	  0.081122249	1.528300E+01
307	  0.081322648	-6.866000E+00	  0.081322648	1.393230E+02	  0.081322648	2.097000E+01	  0.081322648	1.561100E+01
308	  0.081523046	-6.887000E+00	  0.081523046	1.385050E+02	  0.081523046	2.112100E+01	  0.081523046	1.592400E+01
309	  0.081723452	-6.907000E+00	  0.081723452	1.376890E+02	  0.081723452	2.126900E+01	  0.081723452	1.623800E+01
310	  0.081923850	-6.927000E+00	  0.081923850	1.369040E+02	  0.081923850	2.141900E+01	  0.081923850	1.653800E+01
311	  0.082124248	-6.944000E+00	  0.082124248	1.361250E+02	  0.082124248	2.156300E+01	  0.082124248	1.683900E+01
312	  0.082324654	-6.961000E+00	  0.082324654	1.352990E+02	  0.082324654	2.171300E+01	  0.082324654	1.716000E+01
313	  0.082525052	-6.977000E+00	  0.082525052	1.345090E+02	  0.082525052	2.186200E+01	  0.082525052	1.746600E+01
314	  0.082725458	-6.993000E+00	  0.082725458	1.337590E+02	  0.082725458	2.200400E+01	  0.082725458	1.775700E+01
315	  0.082925856	-7.012000E+00	  0.082925856	1.329840E+02	  0.082925856	2.216200E+01	  0.082925856	1.805500E+01
316	  0.083126254	-7.033000E+00	  0.083126254	1.321740E+02	  0.083126254	2.233500E+01	  0.083126254	1.836500E+01
317	  0.083326660	-7.049000E+00	  0.083326660	1.313950E+02	  0.083326660	2.249000E+01	  0.083326660	1.866800E+01
318	  0.083527058	-7.062000E+00	  0.083527058	1.306120E+02	  0.083527058	2.264000E+01	  0.083527058	1.897700E+01
319	  0.083727457	-7.073000E+00	  0.083727457	1.298600E+02	  0.083727457	2.278500E+01	  0.083727457	1.927400E+01
320	  0.083927862	-7.088000E+00	  0.083927862	1.291260E+02	  0.083927862	2.293900E+01	  0.083927862	1.956000E+01
321	  0.084128261	-7.108000E+00	  0.084128261	1.283950E+02	  0.084128261	2.310800E+01	  0.084128261	1.984000E+01
322	  0.084328659	-7.119000E+00	  0.084328659	1.276770E+02	  0.084328659	2.325500E+01	  0.084328659	2.012400E+01
323	  0.084529065	-7.128000E+00	  0.084529065	1.269630E+02	  0.084529065	2.339800E+01	  0.084529065	2.040900E+01
324	  0.084729463	-7.152000E+00	  0.084729463	1.262790E+02	  0.084729463	2.357900E+01	  0.084729463	2.066600E+01
325	  0.084929861	-7.164000E+00	  0.084929861	1.255750E+02	  0.084929861	2.373200E+01	  0.084929861	2.094400E+01
326	  0.085130267	-7.180000E+00	  0.085130267	1.248750E+02	  0.085130267	2.389900E+01	  0.085130267	2.121500E+01
327	  0.085330658	-7.199000E+00	  0.085330658	1.241980E+02	  0.085330658	2.407100E+01	  0.085330658	2.147500E+01
328	  0.085531056	-7.219000E+00	  0.085531056	1.235370E+02	  0.085531056	2.424700E+01	  0.085531056	2.172500E+01
329	  0.085731462	-7.245000E+00	  0.085731462	1.228570E+02	  0.085731462	2.444300E+01	  0.085731462	2.197700E+01
330	  0.085931860	-7.264000E+00	  0.085931860	1.222140E+02	  0.085931860	2.461900E+01	  0.085931860	2.222100E+01
331	  0.086132258	-7.286000E+00	  0.086132258	1.215740E+02	  0.086132258	2.480200E+01	  0.086132258	2.246000E+01
332	  0.086332664	-7.315000E+00	  0.086332664	1.209130E+02	  0.086332664	2.501200E+01	  0.086332664	2.269700E+01
333	  0.086533062	-7.342000E+00	  0.086533062	1.202620E+02	  0.086533062	2.521700E+01	  0.086533062	2.293300E+01
334	  0.086733460	-7.367000E+00	  0.086733460	1.195760E+02	  0.086733460	2.542500E+01	  0.086733460	2.318600E+01
335	  0.086933866	-7.391000E+00	  0.086933866	1.189200E+02	  0.086933866	2.562600E+01	  0.086933866	2.342800E+01
336	  0.087134264	-7.417000E+00	  0.087134264	1.182570E+02	  0.087134264	2.583900E+01	  0.087134264	2.366800E+01
337	  0.087334670	-7.446000E+00	  0.087334670	1.176160E+02	  0.087334670	2.605600E+01	  0.087334670	2.389500E+01
338	  0.087535068	-7.471000E+00	  0.087535068	1.169430E+02	  0.087535068	2.627300E+01	  0.087535068	2.414000E+01
339	  0.087735467	-7.500000E+00	  0.087735467	1.162950E+02	  0.087735467	2.649700E+01	  0.087735467	2.436700E+01
340	  0.087935872	-7.528000E+00	  0.087935872	1.156460E+02	  0.087935872	2.672300E+01	  0.087935872	2.459500E+01
341	  0.088136271	-7.561000E+00	  0.088136271	1.150290E+02	  0.088136271	2.695600E+01	  0.088136271	2.480300E+01
342	  0.088336669	-7.587000E+00	  0.088336669	1.144000E+02	  0.088336669	2.717600E+01	  0.088336669	2.502400E+01
343	  0.088537075	-7.617000E+00	  0.088537075	1.137220E+02	  0.088537075	2.741900E+01	  0.088537075	2.526000E+01
344	  0.088737473	-7.647000E+00	  0.088737473	1.130960E+02	  0.088737473	2.765400E+01	  0.088737473	2.547300E+01
345	  0.088937871	-7.674000E+00	  0.088937871	1.124710E+02	  0.088937871	2.788500E+01	  0.088937871	2.568700E+01
346	  0.089138277	-7.708000E+00	  0.089138277	1.118790E+02	  0.089138277	2.812700E+01	  0.089138277	2.587700E+01
347	  0.089338675	-7.733000E+00	  0.089338675	1.112750E+02	  0.089338675	2.835100E+01	  0.089338675	2.608500E+01
348	  0.089539073	-7.773000E+00	  0.089539073	1.106890E+02	  0.089539073	2.861000E+01	  0.089539073	2.626000E+01
349	  0.089739479	-7.803000E+00	  0.089739479	1.100690E+02	  0.089739479	2.885700E+01	  0.089739479	2.646400E+01
350	  0.089939877	-7.840000E+00	  0.089939877	1.094600E+02	  0.089939877	2.912100E+01	  0.089939877	2.665000E+01
351	  0.090140276	-7.868000E+00	  0.090140276	1.087800E+02	  0.090140276	2.938300E+01	  0.090140276	2.688000E+01
352	  0.090340681	-7.901000E+00	  0.090340681	1.082050E+02	  0.090340681	2.963300E+01	  0.090340681	2.705500E+01
353	  0.090541080	-7.926000E+00	  0.090541080	1.075880E+02	  0.090541080	2.987400E+01	  0.090541080	2.726300E+01
354	  0.090741485	-7.959000E+00	  0.090741485	1.069720E+02	  0.090741485	3.014100E+01	  0.090741485	2.745200E+01
355	  0.090941884	-7.991000E+00	  0.090941884	1.063620E+02	  0.090941884	3.040500E+01	  0.090941884	2.764000E+01
356	  0.091142282	-8.025000E+00	  0.091142282	1.057720E+02	  0.091142282	3.067100E+01	  0.091142282	2.781400E+01
357	  0.091342688	-8.055000E+00	  0.091342688	1.051720E+02	  0.091342688	3.093000E+01	  0.091342688	2.800000E+01
358	  0.091543086	-8.077000E+00	  0.091543086	1.045970E+02	  0.091543086	3.116500E+01	  0.091543086	2.818800E+01
359	  0.091743484	-8.110000E+00	  0.091743484	1.039930E+02	  0.091743484	3.144100E+01	  0.091743484	2.836400E+01
360	  0.091943890	-8.132000E+00	  0.091943890	1.034360E+02	  0.091943890	3.167200E+01	  0.091943890	2.854500E+01
361	  0.092144288	-8.161000E+00	  0.092144288	1.028620E+02	  0.092144288	3.193100E+01	  0.092144288	2.871600E+01
362	  0.092344686	-8.186000E+00	  0.092344686	1.022570E+02	  0.092344686	3.219300E+01	  0.092344686	2.890600E+01
363	  0.092545092	-8.216000E+00	  0.092545092	1.017230E+02	  0.092545092	3.244800E+01	  0.092545092	2.905400E+01
364	  0.092745490	-8.244000E+00	  0.092745490	1.011570E+02	  0.092745490	3.270800E+01	  0.092745490	2.922000E+01
365	  0.092945889	-8.270000E+00	  0.092945889	1.005950E+02	  0.092945889	3.296500E+01	  0.092945889	2.938500E+01
366	  0.093146294	-8.296000E+00	  0.093146294	1.000440E+02	  0.093146294	3.322100E+01	  0.093146294	2.954600E+01
367	  0.093346693	-8.321000E+00	  0.093346693	9.949200E+01	  0.093346693	3.347700E+01	  0.093346693	2.970700E+01
368	  0.093547091	-8.343000E+00	  0.093547091	9.895400E+01	  0.093547091	3.372100E+01	  0.093547091	2.986900E+01
369	  0.093747497	-8.363000E+00	  0.093747497	9.840900E+01	  0.093747497	3.396700E+01	  0.093747497	3.003600E+01
370	  0.093947895	-8.387000E+00	  0.093947895	9.784100E+01	  0.093947895	3.423200E+01	  0.093947895	3.020200E+01
371	  0.094148301	-8.402000E+00	  0.094148301	9.729100E+01	  0.094148301	3.447100E+01	  0.094148301	3.038000E+01
372	  0.094348699	-8.428000E+00	  0.094348699	9.679200E+01	  0.094348699	3.472000E+01	  0.094348699	3.051200E+01
373	  0.094549097	-8.443000E+00	  0.094549097	9.627100E+01	  0.094549097	3.495300E+01	  0.094549097	3.067700E+01
374	  0.094749503	-8.460000E+00	  0.094749503	9.578700E+01	  0.094749503	3.518000E+01	  0.094749503	3.082100E+01
375	  0.094949901	-8.470000E+00	  0.094949901	9.527500E+01	  0.094949901	3.539900E+01	  0.094949901	3.099400E+01
376	  0.095150299	-8.483000E+00	  0.095150299	9.480200E+01	  0.095150299	3.561600E+01	  0.095150299	3.114200E+01
377	  0.095350705	-8.492000E+00	  0.095350705	9.435300E+01	  0.095350705	3.581300E+01	  0.095350705	3.129100E+01
378	  0.095551103	-8.505000E+00	  0.095551103	9.386300E+01	  0.095551103	3.603800E+01	  0.095551103	3.144600E+01
379	  0.095751502	-8.514000E+00	  0.095751502	9.344300E+01	  0.095751502	3.622800E+01	  0.095751502	3.158200E+01
380	  0.095951907	-8.523000E+00	  0.095951907	9.302000E+01	  0.095951907	3.641800E+01	  0.095951907	3.172100E+01
381	  0.096152306	-8.541000E+00	  0.096152306	9.263200E+01	  0.096152306	3.662200E+01	  0.096152306	3.182000E+01
382	  0.096352704	-8.550000E+00	  0.096352704	9.222400E+01	  0.096352704	3.681200E+01	  0.096352704	3.194900E+01
383	  0.096553110	-8.561000E+00	  0.096553110	9.184900E+01	  0.096553110	3.699400E+01	  0.096553110	3.206000E+01
384	  0.096753508	-8.572000E+00	  0.096753508	9.148200E+01	  0.096753508	3.717300E+01	  0.096753508	3.216900E+01
385	  0.096953906	-8.582000E+00	  0.096953906	9.111200E+01	  0.096953906	3.735400E+01	  0.096953906	3.227900E+01
386	  0.097154312	-8.596000E+00	  0.097154312	9.074800E+01	  0.097154312	3.754200E+01	  0.097154312	3.237600E+01
387	  0.097354710	-8.607000E+00	  0.097354710	9.040500E+01	  0.097354710	3.771500E+01	  0.097354710	3.247300E+01
388	  0.097555116	-8.620000E+00	  0.097555116	9.006800E+01	  0.097555116	3.789000E+01	  0.097555116	3.256400E+01
389	  0.097755514	-8.635000E+00	  0.097755514	8.971400E+01	  0.097755514	3.808000E+01	  0.097755514	3.265200E+01
390	  0.097955912	-8.652000E+00	  0.097955912	8.937600E+01	  0.097955912	3.826900E+01	  0.097955912	3.272700E+01
391	  0.098156318	-8.663000E+00	  0.098156318	8.905400E+01	  0.098156318	3.843600E+01	  0.098156318	3.281400E+01
392	  0.098356716	-8.677000E+00	  0.098356716	8.872300E+01	  0.098356716	3.861600E+01	  0.098356716	3.289400E+01
393	  0.098557115	-8.689000E+00	  0.098557115	8.837100E+01	  0.098557115	3.880300E+01	  0.098557115	3.298600E+01
394	  0.098757520	-8.706000E+00	  0.098757520	8.802100E+01	  0.098757520	3.900100E+01	  0.098757520	3.306100E+01
395	  0.098957919	-8.722000E+00	  0.098957919	8.766800E+01	  0.098957919	3.919700E+01	  0.098957919	3.314400E+01
396	  0.099158317	-8.736000E+00	  0.099158317	8.732300E+01	  0.099158317	3.938800E+01	  0.099158317	3.322500E+01
397	  0.099358723	-8.752000E+00	  0.099358723	8.699000E+01	  0.099358723	3.957700E+01	  0.099358723	3.329700E+01
398	  0.099559121	-8.765000E+00	  0.099559121	8.659700E+01	  0.099559121	3.979100E+01	  0.099559121	3.339400E+01
399	  0.099759519	-8.783000E+00	  0.099759519	8.625700E+01	  0.099759519	3.999100E+01	  0.099759519	3.345900E+01
400	  0.099959925	-8.805000E+00	  0.099959925	8.589400E+01	  0.099959925	4.021100E+01	  0.099959925	3.352000E+01
401	  0.100160323	-8.815000E+00	  0.100160323	8.548400E+01	  0.100160323	4.042800E+01	  0.100160323	3.363200E+01
402	  0.100360721	-8.830000E+00	  0.100360721	8.512000E+01	  0.100360721	4.063600E+01	  0.100360721	3.371100E+01
403	  0.100561127	-8.845000E+00	  0.100561127	8.459900E+01	  0.100561127	4.092100E+01	  0.100561127	3.384300E+01
404	  0.100761525	-8.857000E+00	  0.100761525	8.417700E+01	  0.100761525	4.115300E+01	  0.100761525	3.394900E+01
405	  0.100961931	-8.859000E+00	  0.100961931	8.374100E+01	  0.100961931	4.137100E+01	  0.100961931	3.409100E+01
406	  0.101162329	-8.871000E+00	  0.101162329	8.333500E+01	  0.101162329	4.159900E+01	  0.101162329	3.419100E+01
407	  0.101362728	-8.880000E+00	  0.101362728	8.281200E+01	  0.101362728	4.188000E+01	  0.101362728	3.433700E+01
408	  0.101563133	-8.874000E+00	  0.101563133	8.237500E+01	  0.101563133	4.208600E+01	  0.101563133	3.450500E+01
409	  0.101763532	-8.873000E+00	  0.101763532	8.187200E+01	  0.101763532	4.234000E+01	  0.101763532	3.467700E+01
410	  0.101963930	-8.872000E+00	  0.101963930	8.137100E+01	  0.101963930	4.259700E+01	  0.101963930	3.484500E+01
411	  0.102164336	-8.860000E+00	  0.102164336	8.083800E+01	  0.102164336	4.284800E+01	  0.102164336	3.506400E+01
412	  0.102364734	-8.860000E+00	  0.102364734	8.030500E+01	  0.102364734	4.312900E+01	  0.102364734	3.524000E+01
413	  0.102565132	-8.842000E+00	  0.102565132	7.982800E+01	  0.102565132	4.334500E+01	  0.102565132	3.545800E+01
414	  0.102765530	-8.826000E+00	  0.102765530	7.933700E+01	  0.102765530	4.357500E+01	  0.102765530	3.567700E+01
415	  0.102965929	-8.807000E+00	  0.102965929	7.883700E+01	  0.102965929	4.380800E+01	  0.102965929	3.590700E+01
416	  0.103166327	-8.803000E+00	  0.103166327	7.833600E+01	  0.103166327	4.407500E+01	  0.103166327	3.608600E+01
417	  0.103366733	-8.787000E+00	  0.103366733	7.780900E+01	  0.103366733	4.433500E+01	  0.103366733	3.631700E+01
418	  0.103567131	-8.755000E+00	  0.103567131	7.735600E+01	  0.103567131	4.452400E+01	  0.103567131	3.658000E+01
419	  0.103767529	-8.728000E+00	  0.103767529	7.681900E+01	  0.103767529	4.477400E+01	  0.103767529	3.685700E+01
420	  0.103967935	-8.720000E+00	  0.103967935	7.632700E+01	  0.103967935	4.504100E+01	  0.103967935	3.704600E+01
421	  0.104168333	-8.688000E+00	  0.104168333	7.588000E+01	  0.104168333	4.523600E+01	  0.104168333	3.731200E+01
422	  0.104368731	-8.664000E+00	  0.104368731	7.547700E+01	  0.104368731	4.542300E+01	  0.104368731	3.753700E+01
423	  0.104569137	-8.639000E+00	  0.104569137	7.496500E+01	  0.104569137	4.567600E+01	  0.104569137	3.780200E+01
424	  0.104769535	-8.621000E+00	  0.104769535	7.450400E+01	  0.104769535	4.591800E+01	  0.104769535	3.802100E+01
425	  0.104969934	-8.579000E+00	  0.104969934	7.401000E+01	  0.104969934	4.613300E+01	  0.104969934	3.834800E+01
426	  0.105170339	-8.561000E+00	  0.105170339	7.353500E+01	  0.105170339	4.638900E+01	  0.105170339	3.857600E+01
427	  0.105370738	-8.534000E+00	  0.105370738	7.306400E+01	  0.105370738	4.662800E+01	  0.105370738	3.883700E+01
428	  0.105571143	-8.510000E+00	  0.105571143	7.259900E+01	  0.105571143	4.687200E+01	  0.105571143	3.908800E+01
429	  0.105771542	-8.478000E+00	  0.105771542	7.211300E+01	  0.105771542	4.711900E+01	  0.105771542	3.937700E+01
430	  0.105971940	-8.469000E+00	  0.105971940	7.165900E+01	  0.105971940	4.739400E+01	  0.105971940	3.956300E+01
431	  0.106172346	-8.427000E+00	  0.106172346	7.118000E+01	  0.106172346	4.762100E+01	  0.106172346	3.989900E+01
432	  0.106372744	-8.427000E+00	  0.106372744	7.071600E+01	  0.106372744	4.793200E+01	  0.106372744	4.004300E+01
433	  0.106573142	-8.390000E+00	  0.106573142	7.022100E+01	  0.106573142	4.818900E+01	  0.106573142	4.036400E+01
434	  0.106773548	-8.374000E+00	  0.106773548	6.971500E+01	  0.106773548	4.850000E+01	  0.106773548	4.059800E+01
435	  0.106973946	-8.356000E+00	  0.106973946	6.918000E+01	  0.106973946	4.883400E+01	  0.106973946	4.084500E+01
436	  0.107174344	-8.345000E+00	  0.107174344	6.865500E+01	  0.107174344	4.917800E+01	  0.107174344	4.106100E+01
437	  0.107374750	-8.330000E+00	  0.107374750	6.810500E+01	  0.107374750	4.953800E+01	  0.107374750	4.130000E+01
438	  0.107575148	-8.317000E+00	  0.107575148	6.753000E+01	  0.107575148	4.992700E+01	  0.107575148	4.153300E+01
439	  0.107775547	-8.307000E+00	  0.107775547	6.696200E+01	  0.107775547	5.032000E+01	  0.107775547	4.175400E+01
440	  0.107975952	-8.295000E+00	  0.107975952	6.641100E+01	  0.107975952	5.070300E+01	  0.107975952	4.197600E+01
441	  0.108176351	-8.290000E+00	  0.108176351	6.576900E+01	  0.108176351	5.117400E+01	  0.108176351	4.218700E+01
442	  0.108376749	-8.276000E+00	  0.108376749	6.513000E+01	  0.108376749	5.163200E+01	  0.108376749	4.244300E+01
443	  0.108577155	-8.270000E+00	  0.108577155	6.450700E+01	  0.108577155	5.210200E+01	  0.108577155	4.264900E+01
444	  0.108777553	-8.269000E+00	  0.108777553	6.387000E+01	  0.108777553	5.259700E+01	  0.108777553	4.283100E+01
445	  0.108977959	-8.251000E+00	  0.108977959	6.320000E+01	  0.108977959	5.309600E+01	  0.108977959	4.310600E+01
446	  0.109178357	-8.251000E+00	  0.109178357	6.254700E+01	  0.109178357	5.362100E+01	  0.109178357	4.328000E+01
447	  0.109378755	-8.247000E+00	  0.109378755	6.186800E+01	  0.109378755	5.416800E+01	  0.109378755	4.347700E+01
448	  0.109579161	-8.237000E+00	  0.109579161	6.118000E+01	  0.109579161	5.472300E+01	  0.109579161	4.369900E+01
449	  0.109779559	-8.232000E+00	  0.109779559	6.048600E+01	  0.109779559	5.529900E+01	  0.109779559	4.389600E+01
450	  0.109979957	-8.232000E+00	  0.109979957	5.981000E+01	  0.109979957	5.587500E+01	  0.109979957	4.405800E+01
451	  0.110180363	-8.221000E+00	  0.110180363	5.905700E+01	  0.110180363	5.651100E+01	  0.110180363	4.429000E+01
452	  0.110380761	-8.221000E+00	  0.110380761	5.834500E+01	  0.110380761	5.713700E+01	  0.110380761	4.444600E+01
453	  0.110581160	-8.209000E+00	  0.110581160	5.761800E+01	  0.110581160	5.777000E+01	  0.110581160	4.466600E+01
454	  0.110781565	-8.198000E+00	  0.110781565	5.680500E+01	  0.110781565	5.849500E+01	  0.110781565	4.489200E+01
455	  0.110981964	-8.200000E+00	  0.110981964	5.602200E+01	  0.110981964	5.922000E+01	  0.110981964	4.502600E+01
456	  0.111182362	-8.196000E+00	  0.111182362	5.530400E+01	  0.111182362	5.988900E+01	  0.111182362	4.517200E+01
457	  0.111382768	-8.195000E+00	  0.111382768	5.457400E+01	  0.111382768	6.058300E+01	  0.111382768	4.529600E+01
458	  0.111583166	-8.182000E+00	  0.111583166	5.379500E+01	  0.111583166	6.132300E+01	  0.111583166	4.549100E+01
459	  0.111783572	-8.187000E+00	  0.111783572	5.300700E+01	  0.111783572	6.210000E+01	  0.111783572	4.556500E+01
460	  0.111983970	-8.183000E+00	  0.111983970	5.222600E+01	  0.111983970	6.287400E+01	  0.111983970	4.568400E+01
461	  0.112184368	-8.184000E+00	  0.112184368	5.142500E+01	  0.112184368	6.368300E+01	  0.112184368	4.576200E+01
462	  0.112384774	-8.174000E+00	  0.112384774	5.061100E+01	  0.112384774	6.451200E+01	  0.112384774	4.589900E+01
463	  0.112585172	-8.187000E+00	  0.112585172	4.982100E+01	  0.112585172	6.534000E+01	  0.112585172	4.586300E+01
464	  0.112785570	-8.174000E+00	  0.112785570	4.895100E+01	  0.112785570	6.625300E+01	  0.112785570	4.599800E+01
465	  0.112985976	-8.180000E+00	  0.112985976	4.817900E+01	  0.112985976	6.708100E+01	  0.112985976	4.597400E+01
466	  0.113186374	-8.183000E+00	  0.113186374	4.733300E+01	  0.113186374	6.799800E+01	  0.113186374	4.595900E+01
467	  0.113386773	-8.179000E+00	  0.113386773	4.647100E+01	  0.113386773	6.894500E+01	  0.113386773	4.598000E+01
468	  0.113587178	-8.185000E+00	  0.113587178	4.562100E+01	  0.113587178	6.989000E+01	  0.113587178	4.590500E+01
469	  0.113787577	-8.191000E+00	  0.113787577	4.476500E+01	  0.113787577	7.085200E+01	  0.113787577	4.580400E+01
470	  0.113987975	-8.199000E+00	  0.113987975	4.384800E+01	  0.113987975	7.189200E+01	  0.113987975	4.566800E+01
471	  0.114188381	-8.195000E+00	  0.114188381	4.297800E+01	  0.114188381	7.289900E+01	  0.114188381	4.559800E+01
472	  0.114388779	-8.196000E+00	  0.114388779	4.206300E+01	  0.114388779	7.396600E+01	  0.114388779	4.546100E+01
473	  0.114589177	-8.203000E+00	  0.114589177	4.116400E+01	  0.114589177	7.501700E+01	  0.114589177	4.524800E+01
474	  0.114789583	-8.210000E+00	  0.114789583	4.023900E+01	  0.114789583	7.610800E+01	  0.114789583	4.500000E+01
475	  0.114989981	-8.220000E+00	  0.114989981	3.930400E+01	  0.114989981	7.721700E+01	  0.114989981	4.470500E+01
476	  0.115190387	-8.235000E+00	  0.115190387	3.839000E+01	  0.115190387	7.829400E+01	  0.115190387	4.433500E+01
477	  0.115390785	-8.239000E+00	  0.115390785	3.745700E+01	  0.115390785	7.942000E+01	  0.115390785	4.401500E+01
478	  0.115591183	-8.250000E+00	  0.115591183	3.648200E+01	  0.115591183	8.058700E+01	  0.115591183	4.358500E+01
479	  0.115791589	-8.262000E+00	  0.115791589	3.550600E+01	  0.115791589	8.175500E+01	  0.115791589	4.311200E+01
480	  0.115991987	-8.274000E+00	  0.115991987	3.453000E+01	  0.115991987	8.292300E+01	  0.115991987	4.259700E+01
481	  0.116192386	-8.292000E+00	  0.116192386	3.354600E+01	  0.116192386	8.408200E+01	  0.116192386	4.199100E+01
482	  0.116392791	-8.309000E+00	  0.116392791	3.259600E+01	  0.116392791	8.519600E+01	  0.116392791	4.137200E+01
483	  0.116593190	-8.328000E+00	  0.116593190	3.157700E+01	  0.116593190	8.637800E+01	  0.116593190	4.065200E+01
484	  0.116793588	-8.354000E+00	  0.116793588	3.056500E+01	  0.116793588	8.751000E+01	  0.116793588	3.983300E+01
485	  0.116993994	-8.387000E+00	  0.116993994	2.954700E+01	  0.116993994	8.860100E+01	  0.116993994	3.891200E+01
486	  0.117194392	-8.406000E+00	  0.117194392	2.853200E+01	  0.117194392	8.972800E+01	  0.117194392	3.805600E+01
487	  0.117394790	-8.439000E+00	  0.117394790	2.754200E+01	  0.117394790	9.074200E+01	  0.117394790	3.707100E+01
488	  0.117595196	-8.477000E+00	  0.117595196	2.649200E+01	  0.117595196	9.176700E+01	  0.117595196	3.595500E+01
489	  0.117795594	-8.517000E+00	  0.117795594	2.546100E+01	  0.117795594	9.272200E+01	  0.117795594	3.479900E+01
490	  0.117995992	-8.558000E+00	  0.117995992	2.442500E+01	  0.117995992	9.363600E+01	  0.117995992	3.359000E+01
491	  0.118196398	-8.601000E+00	  0.118196398	2.337300E+01	  0.118196398	9.451700E+01	  0.118196398	3.231900E+01
492	  0.118396796	-8.658000E+00	  0.118396796	2.225400E+01	  0.118396796	9.532700E+01	  0.118396796	3.084900E+01
493	  0.118597202	-8.716000E+00	  0.118597202	2.116900E+01	  0.118597202	9.603400E+01	  0.118597202	2.937600E+01
494	  0.118797600	-8.774000E+00	  0.118797600	2.004900E+01	  0.118797600	9.671000E+01	  0.118797600	2.783800E+01
495	  0.118997999	-8.836000E+00	  0.118997999	1.893400E+01	  0.118997999	9.729100E+01	  0.118997999	2.626200E+01
496	  0.119198404	-8.911000E+00	  0.119198404	1.773700E+01	  0.119198404	9.777800E+01	  0.119198404	2.450500E+01
497	  0.119398803	-8.984000E+00	  0.119398803	1.658900E+01	  0.119398803	9.815400E+01	  0.119398803	2.280200E+01
498	  0.119599201	-9.064000E+00	  0.119599201	1.541000E+01	  0.119599201	9.842700E+01	  0.119599201	2.103300E+01
499	  0.119799607	-9.150000E+00	  0.119799607	1.416400E+01	  0.119799607	9.861200E+01	  0.119799607	1.915900E+01
500	  0.120000005	-9.237000E+00	  0.120000005	1.291300E+01	  0.120000005	9.871000E+01	  0.120000005	1.729400E+01
