! Anritsu VNA Master:             	Model: MS2036C/10/77
! SN:             	1601066
! /bd0/18may8/255.ns.m6.txt
! Existing Calibration Information:
! TYPE:             	Current Settings	Active Cal Settings
! TIME:             	05/08/2018 11:20:25 AM	05/08/2018 11:16:31 AM
! INTERNAL TEMP:    	51.5 C	51.3 C
! # POINTS:         	500	500
! START FREQ:       	20.000 MHz	20.000 MHz
! STOP FREQ:        	120.000 MHz	120.000 MHz
! SOURCE POWER:     	High	High
! IFBW:             	50 Hz	50 Hz
! AVG FACTOR:       	  1 	  1 
! REF PLANE 1:      	0 mm	0 mm
! REF PLANE 2:      	0 mm	0 mm
! CAL TYPE:         	Full S11	Full S11
! CAL METHOD:       	SOLT	SOLT
! CAL LINE TYPE:    	Coax	Coax
! DUT PORT 1:       	K-Conn(F)	K-Conn(F)
! DUT PORT 2:       	K-Conn(F)	K-Conn(F)
! CAL STATUS:       	OK: Accuracy High	--
! PROP-V:       	0.700
! CABLE LOSS:       	0.000 dB/m
! REF IMPEDANCE:       	50.0
! Trace Specific Parameters:	TR1	TR2	TR3	TR4
! TRACE.#.Y (GRAPH TYPE)	LOG MAG	PHASE	REAL IMPEDANCE	IMAGINARY IMPEDANCE
! TRACE.#.X 	FREQ.GHZ	FREQ.GHZ	FREQ.GHZ	FREQ.GHZ
! S-PARAMETER	S11	S11	S11	S11
! SMOOTH/APERTURE %	0	0	0	0
! WINDOW	NSL	NSL	NSL	NSL
! GATING	OFF	OFF	OFF	OFF
! FGTD	OFF	OFF	OFF	OFF
Marker Information per Trace:	TR1	TR2	TR3	TR4
!MK1	--	"MK1 TR2:  20.000 MHz,PH:-124.40°"	--	--
!MK2	--	--	"MK2 TR3:  70.100 200 MHz,Z:(17.355 ohm, -3.207 ohm)"	--
!MK3	--	--	--	--
!MK4	--	--	--	--
!MK5	--	--	--	--
!MK6	--	--	--	--
!MK7	--	--	--	--
!MK8	--	--	--	--
PNT	TR1.FREQ.GHZ	TR1.LOG MAG.dB	TR2.FREQ.GHZ	TR2.PHASE.deg	TR3.FREQ.GHZ	TR3.REAL IMPEDANCE.ohm	TR4.FREQ.GHZ	TR4.IMAGINARY IMPEDANCE.ohm
1	  0.020000000	-5.720000E-01	  0.020000000	-1.244030E+02	  0.020000000	2.102000E+00	  0.020000000	-2.632300E+01
2	  0.020200402	-5.600000E-01	  0.020200402	-1.258380E+02	  0.020200402	2.035000E+00	  0.020200402	-2.553100E+01
3	  0.020400802	-5.510000E-01	  0.020400802	-1.272520E+02	  0.020400802	1.975000E+00	  0.020400802	-2.476000E+01
4	  0.020601204	-5.430000E-01	  0.020601204	-1.286970E+02	  0.020601204	1.923000E+00	  0.020601204	-2.398200E+01
5	  0.020801604	-5.400000E-01	  0.020801604	-1.301570E+02	  0.020801604	1.890000E+00	  0.020801604	-2.320400E+01
6	  0.021002004	-5.400000E-01	  0.021002004	-1.316310E+02	  0.021002004	1.869000E+00	  0.021002004	-2.242800E+01
7	  0.021202406	-5.400000E-01	  0.021202406	-1.331340E+02	  0.021202406	1.845000E+00	  0.021202406	-2.164500E+01
8	  0.021402806	-5.400000E-01	  0.021402806	-1.346340E+02	  0.021402806	1.826000E+00	  0.021402806	-2.087300E+01
9	  0.021603208	-5.440000E-01	  0.021603208	-1.361280E+02	  0.021603208	1.820000E+00	  0.021603208	-2.011300E+01
10	  0.021803608	-5.440000E-01	  0.021803608	-1.376330E+02	  0.021803608	1.802000E+00	  0.021803608	-1.935400E+01
11	  0.022004008	-5.460000E-01	  0.022004008	-1.391340E+02	  0.022004008	1.791000E+00	  0.022004008	-1.860600E+01
12	  0.022204408	-5.490000E-01	  0.022204408	-1.406520E+02	  0.022204408	1.783000E+00	  0.022204408	-1.785600E+01
13	  0.022404809	-5.560000E-01	  0.022404809	-1.421910E+02	  0.022404809	1.790000E+00	  0.022404809	-1.710300E+01
14	  0.022605211	-5.640000E-01	  0.022605211	-1.437540E+02	  0.022605211	1.797000E+00	  0.022605211	-1.634500E+01
15	  0.022805611	-5.700000E-01	  0.022805611	-1.453000E+02	  0.022805611	1.802000E+00	  0.022805611	-1.560200E+01
16	  0.023006011	-5.750000E-01	  0.023006011	-1.468660E+02	  0.023006011	1.801000E+00	  0.023006011	-1.485600E+01
17	  0.023206413	-5.800000E-01	  0.023206413	-1.484320E+02	  0.023206413	1.802000E+00	  0.023206413	-1.411600E+01
18	  0.023406813	-5.860000E-01	  0.023406813	-1.499910E+02	  0.023406813	1.807000E+00	  0.023406813	-1.338400E+01
19	  0.023607215	-5.960000E-01	  0.023607215	-1.515410E+02	  0.023607215	1.825000E+00	  0.023607215	-1.266300E+01
20	  0.023807615	-6.110000E-01	  0.023807615	-1.531320E+02	  0.023807615	1.859000E+00	  0.023807615	-1.192700E+01
21	  0.024008015	-6.260000E-01	  0.024008015	-1.547220E+02	  0.024008015	1.892000E+00	  0.024008015	-1.119600E+01
22	  0.024208417	-6.410000E-01	  0.024208417	-1.563440E+02	  0.024208417	1.926000E+00	  0.024208417	-1.045600E+01
23	  0.024408817	-6.570000E-01	  0.024408817	-1.579770E+02	  0.024408817	1.963000E+00	  0.024408817	-9.714000E+00
24	  0.024609219	-6.710000E-01	  0.024609219	-1.596140E+02	  0.024609219	1.994000E+00	  0.024609219	-8.976000E+00
25	  0.024809619	-6.870000E-01	  0.024809619	-1.612580E+02	  0.024809619	2.031000E+00	  0.024809619	-8.237000E+00
26	  0.025010020	-7.040000E-01	  0.025010020	-1.629020E+02	  0.025010020	2.073000E+00	  0.025010020	-7.503000E+00
27	  0.025210422	-7.210000E-01	  0.025210422	-1.645610E+02	  0.025210422	2.114000E+00	  0.025210422	-6.765000E+00
28	  0.025410822	-7.400000E-01	  0.025410822	-1.662400E+02	  0.025410822	2.159000E+00	  0.025410822	-6.021000E+00
29	  0.025611224	-7.550000E-01	  0.025611224	-1.679320E+02	  0.025611224	2.198000E+00	  0.025611224	-5.274000E+00
30	  0.025811624	-7.720000E-01	  0.025811624	-1.696570E+02	  0.025811624	2.239000E+00	  0.025811624	-4.515000E+00
31	  0.026012026	-7.820000E-01	  0.026012026	-1.714020E+02	  0.026012026	2.263000E+00	  0.026012026	-3.750000E+00
32	  0.026212426	-7.930000E-01	  0.026212426	-1.731280E+02	  0.026212426	2.291000E+00	  0.026212426	-2.995000E+00
33	  0.026412826	-8.050000E-01	  0.026412826	-1.748540E+02	  0.026412826	2.320000E+00	  0.026412826	-2.241000E+00
34	  0.026613226	-8.170000E-01	  0.026613226	-1.766040E+02	  0.026613226	2.352000E+00	  0.026613226	-1.478000E+00
35	  0.026813626	-8.290000E-01	  0.026813626	-1.783700E+02	  0.026813626	2.386000E+00	  0.026813626	-7.090000E-01
36	  0.027014028	-8.410000E-01	  0.027014028	1.798700E+02	  0.027014028	2.421000E+00	  0.027014028	5.600000E-02
37	  0.027214428	-8.520000E-01	  0.027214428	1.780890E+02	  0.027214428	2.452000E+00	  0.027214428	8.310000E-01
38	  0.027414829	-8.600000E-01	  0.027414829	1.762990E+02	  0.027414829	2.477000E+00	  0.027414829	1.611000E+00
39	  0.027615231	-8.690000E-01	  0.027615231	1.745120E+02	  0.027615231	2.506000E+00	  0.027615231	2.390000E+00
40	  0.027815631	-8.800000E-01	  0.027815631	1.726910E+02	  0.027815631	2.543000E+00	  0.027815631	3.185000E+00
41	  0.028016033	-8.930000E-01	  0.028016033	1.708830E+02	  0.028016033	2.585000E+00	  0.028016033	3.975000E+00
42	  0.028216433	-9.050000E-01	  0.028216433	1.690480E+02	  0.028216433	2.627000E+00	  0.028216433	4.779000E+00
43	  0.028416833	-9.170000E-01	  0.028416833	1.672260E+02	  0.028416833	2.672000E+00	  0.028416833	5.580000E+00
44	  0.028617235	-9.280000E-01	  0.028617235	1.654080E+02	  0.028617235	2.713000E+00	  0.028617235	6.382000E+00
45	  0.028817635	-9.380000E-01	  0.028817635	1.635860E+02	  0.028817635	2.754000E+00	  0.028817635	7.189000E+00
46	  0.029018037	-9.490000E-01	  0.029018037	1.617740E+02	  0.029018037	2.800000E+00	  0.029018037	7.995000E+00
47	  0.029218437	-9.610000E-01	  0.029218437	1.599670E+02	  0.029218437	2.851000E+00	  0.029218437	8.802000E+00
48	  0.029418837	-9.780000E-01	  0.029418837	1.581590E+02	  0.029418837	2.918000E+00	  0.029418837	9.614000E+00
49	  0.029619239	-9.960000E-01	  0.029619239	1.563380E+02	  0.029619239	2.991000E+00	  0.029619239	1.043700E+01
50	  0.029819639	-1.020000E+00	  0.029819639	1.544850E+02	  0.029819639	3.083000E+00	  0.029819639	1.127900E+01
51	  0.030020041	-1.046000E+00	  0.030020041	1.526100E+02	  0.030020041	3.186000E+00	  0.030020041	1.213600E+01
52	  0.030220442	-1.072000E+00	  0.030220442	1.507280E+02	  0.030220442	3.292000E+00	  0.030220442	1.300400E+01
53	  0.030420844	-1.100000E+00	  0.030420844	1.488160E+02	  0.030420844	3.408000E+00	  0.030420844	1.389200E+01
54	  0.030621244	-1.130000E+00	  0.030621244	1.469360E+02	  0.030621244	3.534000E+00	  0.030621244	1.477200E+01
55	  0.030821644	-1.165000E+00	  0.030821644	1.450560E+02	  0.030821644	3.680000E+00	  0.030821644	1.566000E+01
56	  0.031022044	-1.200000E+00	  0.031022044	1.431500E+02	  0.031022044	3.830000E+00	  0.031022044	1.656800E+01
57	  0.031222444	-1.236000E+00	  0.031222444	1.412710E+02	  0.031222444	3.987000E+00	  0.031222444	1.747300E+01
58	  0.031422846	-1.275000E+00	  0.031422846	1.393270E+02	  0.031422846	4.165000E+00	  0.031422846	1.841800E+01
59	  0.031623244	-1.319000E+00	  0.031623244	1.373650E+02	  0.031623244	4.364000E+00	  0.031623244	1.938200E+01
60	  0.031823646	-1.358000E+00	  0.031823646	1.353730E+02	  0.031823646	4.556000E+00	  0.031823646	2.037400E+01
61	  0.032024048	-1.400000E+00	  0.032024048	1.333960E+02	  0.032024048	4.761000E+00	  0.032024048	2.137000E+01
62	  0.032224450	-1.439000E+00	  0.032224450	1.314180E+02	  0.032224450	4.969000E+00	  0.032224450	2.238000E+01
63	  0.032424849	-1.483000E+00	  0.032424849	1.294490E+02	  0.032424849	5.202000E+00	  0.032424849	2.339900E+01
64	  0.032625251	-1.525000E+00	  0.032625251	1.274700E+02	  0.032625251	5.434000E+00	  0.032625251	2.443800E+01
65	  0.032825653	-1.569000E+00	  0.032825653	1.254970E+02	  0.032825653	5.687000E+00	  0.032825653	2.548900E+01
66	  0.033026051	-1.615000E+00	  0.033026051	1.235300E+02	  0.033026051	5.960000E+00	  0.033026051	2.655200E+01
67	  0.033226453	-1.662000E+00	  0.033226453	1.215590E+02	  0.033226453	6.247000E+00	  0.033226453	2.763300E+01
68	  0.033426855	-1.716000E+00	  0.033426855	1.195660E+02	  0.033426855	6.573000E+00	  0.033426855	2.874300E+01
69	  0.033627257	-1.772000E+00	  0.033627257	1.175590E+02	  0.033627257	6.923000E+00	  0.033627257	2.987800E+01
70	  0.033827655	-1.830000E+00	  0.033827655	1.155080E+02	  0.033827655	7.307000E+00	  0.033827655	3.105800E+01
71	  0.034028057	-1.880000E+00	  0.034028057	1.134640E+02	  0.034028057	7.674000E+00	  0.034028057	3.226000E+01
72	  0.034228459	-1.934000E+00	  0.034228459	1.113300E+02	  0.034228459	8.087000E+00	  0.034228459	3.353900E+01
73	  0.034428857	-1.983000E+00	  0.034428857	1.092140E+02	  0.034428857	8.497000E+00	  0.034428857	3.483700E+01
74	  0.034629259	-2.031000E+00	  0.034629259	1.070430E+02	  0.034629259	8.935000E+00	  0.034629259	3.619900E+01
75	  0.034829661	-2.076000E+00	  0.034829661	1.049120E+02	  0.034829661	9.381000E+00	  0.034829661	3.756900E+01
76	  0.035030060	-2.115000E+00	  0.035030060	1.028030E+02	  0.035030060	9.826000E+00	  0.035030060	3.896100E+01
77	  0.035230462	-2.154000E+00	  0.035230462	1.006960E+02	  0.035230462	1.029700E+01	  0.035230462	4.038600E+01
78	  0.035430863	-2.192000E+00	  0.035430863	9.855600E+01	  0.035430863	1.080400E+01	  0.035430863	4.187200E+01
79	  0.035631265	-2.228000E+00	  0.035631265	9.647000E+01	  0.035631265	1.131900E+01	  0.035631265	4.335900E+01
80	  0.035831664	-2.264000E+00	  0.035831664	9.438600E+01	  0.035831664	1.186900E+01	  0.035831664	4.488600E+01
81	  0.036032066	-2.302000E+00	  0.036032066	9.231800E+01	  0.036032066	1.246700E+01	  0.036032066	4.643800E+01
82	  0.036232468	-2.341000E+00	  0.036232468	9.026100E+01	  0.036232468	1.310600E+01	  0.036232468	4.802300E+01
83	  0.036432866	-2.380000E+00	  0.036432866	8.821400E+01	  0.036432866	1.378300E+01	  0.036432866	4.964600E+01
84	  0.036633268	-2.425000E+00	  0.036633268	8.619300E+01	  0.036633268	1.453600E+01	  0.036633268	5.128200E+01
85	  0.036833670	-2.471000E+00	  0.036833670	8.416200E+01	  0.036833670	1.535300E+01	  0.036833670	5.297000E+01
86	  0.037034072	-2.523000E+00	  0.037034072	8.211900E+01	  0.037034072	1.627300E+01	  0.037034072	5.470200E+01
87	  0.037234470	-2.579000E+00	  0.037234470	8.007200E+01	  0.037234470	1.728000E+01	  0.037234470	5.647900E+01
88	  0.037434869	-2.637000E+00	  0.037434869	7.800200E+01	  0.037434869	1.838600E+01	  0.037434869	5.832000E+01
89	  0.037635271	-2.695000E+00	  0.037635271	7.594200E+01	  0.037635271	1.956900E+01	  0.037635271	6.020300E+01
90	  0.037835669	-2.756000E+00	  0.037835669	7.383700E+01	  0.037835669	2.089000E+01	  0.037835669	6.217300E+01
91	  0.038036071	-2.815000E+00	  0.038036071	7.171500E+01	  0.038036071	2.230700E+01	  0.038036071	6.422100E+01
92	  0.038236473	-2.873000E+00	  0.038236473	6.961300E+01	  0.038236473	2.382900E+01	  0.038236473	6.630400E+01
93	  0.038436871	-2.931000E+00	  0.038436871	6.749100E+01	  0.038436871	2.549200E+01	  0.038436871	6.846300E+01
94	  0.038637273	-2.987000E+00	  0.038637273	6.539500E+01	  0.038637273	2.725900E+01	  0.038637273	7.065800E+01
95	  0.038837675	-3.041000E+00	  0.038837675	6.330400E+01	  0.038837675	2.916500E+01	  0.038837675	7.290700E+01
96	  0.039038073	-3.090000E+00	  0.039038073	6.124600E+01	  0.039038073	3.116500E+01	  0.039038073	7.519900E+01
97	  0.039238475	-3.145000E+00	  0.039238475	5.924400E+01	  0.039238475	3.334800E+01	  0.039238475	7.742900E+01
98	  0.039438877	-3.200000E+00	  0.039438877	5.722300E+01	  0.039438877	3.573800E+01	  0.039438877	7.972400E+01
99	  0.039639279	-3.266000E+00	  0.039639279	5.524400E+01	  0.039639279	3.838800E+01	  0.039639279	8.191400E+01
100	  0.039839678	-3.333000E+00	  0.039839678	5.321100E+01	  0.039839678	4.133400E+01	  0.039839678	8.418000E+01
101	  0.040040080	-3.404000E+00	  0.040040080	5.120300E+01	  0.040040080	4.454700E+01	  0.040040080	8.636200E+01
102	  0.040240481	-3.475000E+00	  0.040240481	4.917300E+01	  0.040240481	4.807200E+01	  0.040240481	8.853300E+01
103	  0.040440880	-3.548000E+00	  0.040440880	4.712300E+01	  0.040440880	5.195600E+01	  0.040440880	9.064800E+01
104	  0.040641282	-3.622000E+00	  0.040641282	4.508900E+01	  0.040641282	5.614600E+01	  0.040641282	9.264400E+01
105	  0.040841684	-3.688000E+00	  0.040841684	4.300900E+01	  0.040841684	6.072200E+01	  0.040841684	9.465900E+01
106	  0.041042086	-3.758000E+00	  0.041042086	4.097300E+01	  0.041042086	6.562200E+01	  0.041042086	9.641000E+01
107	  0.041242484	-3.828000E+00	  0.041242484	3.890200E+01	  0.041242484	7.101000E+01	  0.041242484	9.796700E+01
108	  0.041442886	-3.896000E+00	  0.041442886	3.682000E+01	  0.041442886	7.683700E+01	  0.041442886	9.928700E+01
109	  0.041643288	-3.960000E+00	  0.041643288	3.472400E+01	  0.041643288	8.312400E+01	  0.041643288	1.003390E+02
110	  0.041843686	-4.022000E+00	  0.041843686	3.265200E+01	  0.041843686	8.978800E+01	  0.041843686	1.009570E+02
111	  0.042044088	-4.079000E+00	  0.042044088	3.059600E+01	  0.042044088	9.681800E+01	  0.042044088	1.011690E+02
112	  0.042244490	-4.134000E+00	  0.042244490	2.854000E+01	  0.042244490	1.042740E+02	  0.042244490	1.008170E+02
113	  0.042444889	-4.189000E+00	  0.042444889	2.650300E+01	  0.042444889	1.120440E+02	  0.042444889	9.975400E+01
114	  0.042645290	-4.242000E+00	  0.042645290	2.447100E+01	  0.042645290	1.201110E+02	  0.042645290	9.793000E+01
115	  0.042845692	-4.290000E+00	  0.042845692	2.244500E+01	  0.042845692	1.284080E+02	  0.042845692	9.531600E+01
116	  0.043046094	-4.339000E+00	  0.043046094	2.040800E+01	  0.043046094	1.368730E+02	  0.043046094	9.166500E+01
117	  0.043246493	-4.386000E+00	  0.043246493	1.839300E+01	  0.043246493	1.452400E+02	  0.043246493	8.701000E+01
118	  0.043446895	-4.431000E+00	  0.043446895	1.637300E+01	  0.043446895	1.534520E+02	  0.043446895	8.122300E+01
119	  0.043647297	-4.473000E+00	  0.043647297	1.438500E+01	  0.043647297	1.611690E+02	  0.043647297	7.441300E+01
120	  0.043847695	-4.514000E+00	  0.043847695	1.238500E+01	  0.043847695	1.683370E+02	  0.043847695	6.643000E+01
121	  0.044048097	-4.554000E+00	  0.044048097	1.040900E+01	  0.044048097	1.746180E+02	  0.044048097	5.749200E+01
122	  0.044248499	-4.595000E+00	  0.044248499	8.423000E+00	  0.044248499	1.798650E+02	  0.044248499	4.755300E+01
123	  0.044448901	-4.633000E+00	  0.044448901	6.479000E+00	  0.044448901	1.838290E+02	  0.044448901	3.710100E+01
124	  0.044649299	-4.668000E+00	  0.044649299	4.520000E+00	  0.044649299	1.865780E+02	  0.044649299	2.608200E+01
125	  0.044849701	-4.704000E+00	  0.044849701	2.575000E+00	  0.044849701	1.878510E+02	  0.044849701	1.484800E+01
126	  0.045050103	-4.736000E+00	  0.045050103	6.510000E-01	  0.045050103	1.878170E+02	  0.045050103	3.727000E+00
127	  0.045250501	-4.767000E+00	  0.045250501	-1.259000E+00	  0.045250501	1.864660E+02	  0.045250501	-7.103000E+00
128	  0.045450903	-4.796000E+00	  0.045450903	-3.141000E+00	  0.045450903	1.838950E+02	  0.045450903	-1.735200E+01
129	  0.045651305	-4.829000E+00	  0.045651305	-5.006000E+00	  0.045651305	1.801410E+02	  0.045651305	-2.687200E+01
130	  0.045851704	-4.861000E+00	  0.045851704	-6.850000E+00	  0.045851704	1.755250E+02	  0.045851704	-3.552400E+01
131	  0.046052106	-4.897000E+00	  0.046052106	-8.670000E+00	  0.046052106	1.701230E+02	  0.046052106	-4.316500E+01
132	  0.046252504	-4.932000E+00	  0.046252504	-1.050700E+01	  0.046252504	1.641700E+02	  0.046252504	-4.998400E+01
133	  0.046452906	-4.966000E+00	  0.046452906	-1.230800E+01	  0.046452906	1.580150E+02	  0.046452906	-5.582500E+01
134	  0.046653304	-5.000000E+00	  0.046653304	-1.410200E+01	  0.046653304	1.516470E+02	  0.046653304	-6.077600E+01
135	  0.046853706	-5.035000E+00	  0.046853706	-1.588900E+01	  0.046853706	1.452000E+02	  0.046853706	-6.487900E+01
136	  0.047054108	-5.071000E+00	  0.047054108	-1.767900E+01	  0.047054108	1.387450E+02	  0.047054108	-6.823000E+01
137	  0.047254506	-5.107000E+00	  0.047254506	-1.945500E+01	  0.047254506	1.324280E+02	  0.047254506	-7.085000E+01
138	  0.047454908	-5.142000E+00	  0.047454908	-2.121000E+01	  0.047454908	1.263690E+02	  0.047454908	-7.289000E+01
139	  0.047655310	-5.180000E+00	  0.047655310	-2.296600E+01	  0.047655310	1.204770E+02	  0.047655310	-7.433200E+01
140	  0.047855709	-5.217000E+00	  0.047855709	-2.466900E+01	  0.047855709	1.149920E+02	  0.047855709	-7.528900E+01
141	  0.048056111	-5.260000E+00	  0.048056111	-2.638800E+01	  0.048056111	1.096850E+02	  0.048056111	-7.578300E+01
142	  0.048256513	-5.296000E+00	  0.048256513	-2.810200E+01	  0.048256513	1.046800E+02	  0.048256513	-7.605400E+01
143	  0.048456915	-5.339000E+00	  0.048456915	-2.981500E+01	  0.048456915	9.992400E+01	  0.048456915	-7.593900E+01
144	  0.048657313	-5.379000E+00	  0.048657313	-3.154700E+01	  0.048657313	9.538900E+01	  0.048657313	-7.565500E+01
145	  0.048857715	-5.416000E+00	  0.048857715	-3.327900E+01	  0.048857715	9.111400E+01	  0.048857715	-7.521100E+01
146	  0.049058117	-5.457000E+00	  0.049058117	-3.502300E+01	  0.049058117	8.706300E+01	  0.049058117	-7.452200E+01
147	  0.049258515	-5.494000E+00	  0.049258515	-3.674500E+01	  0.049258515	8.329900E+01	  0.049258515	-7.376700E+01
148	  0.049458917	-5.530000E+00	  0.049458917	-3.847300E+01	  0.049458917	7.974400E+01	  0.049458917	-7.289300E+01
149	  0.049659319	-5.568000E+00	  0.049659319	-4.021200E+01	  0.049659319	7.638500E+01	  0.049659319	-7.189600E+01
150	  0.049859721	-5.604000E+00	  0.049859721	-4.191600E+01	  0.049859721	7.329200E+01	  0.049859721	-7.085900E+01
151	  0.050060119	-5.638000E+00	  0.050060119	-4.365200E+01	  0.050060119	7.032100E+01	  0.050060119	-6.977200E+01
152	  0.050260521	-5.668000E+00	  0.050260521	-4.540600E+01	  0.050260521	6.749100E+01	  0.050260521	-6.866000E+01
153	  0.050460923	-5.692000E+00	  0.050460923	-4.714400E+01	  0.050460923	6.483000E+01	  0.050460923	-6.758000E+01
154	  0.050661322	-5.714000E+00	  0.050661322	-4.889500E+01	  0.050661322	6.230300E+01	  0.050661322	-6.645700E+01
155	  0.050861724	-5.732000E+00	  0.050861724	-5.062800E+01	  0.050861724	5.993200E+01	  0.050861724	-6.534900E+01
156	  0.051062126	-5.748000E+00	  0.051062126	-5.234800E+01	  0.051062126	5.770100E+01	  0.051062126	-6.424000E+01
157	  0.051262524	-5.763000E+00	  0.051262524	-5.404000E+01	  0.051262524	5.563100E+01	  0.051262524	-6.312300E+01
158	  0.051462926	-5.773000E+00	  0.051462926	-5.569300E+01	  0.051462926	5.369500E+01	  0.051462926	-6.205500E+01
159	  0.051663328	-5.778000E+00	  0.051663328	-5.732000E+01	  0.051663328	5.187300E+01	  0.051663328	-6.102200E+01
160	  0.051863730	-5.789000E+00	  0.051863730	-5.894900E+01	  0.051863730	5.016300E+01	  0.051863730	-5.993200E+01
161	  0.052064128	-5.800000E+00	  0.052064128	-6.056800E+01	  0.052064128	4.854800E+01	  0.052064128	-5.884800E+01
162	  0.052264530	-5.803000E+00	  0.052264530	-6.218100E+01	  0.052264530	4.699500E+01	  0.052264530	-5.780500E+01
163	  0.052464932	-5.810000E+00	  0.052464932	-6.376500E+01	  0.052464932	4.555800E+01	  0.052464932	-5.675800E+01
164	  0.052665330	-5.820000E+00	  0.052665330	-6.538500E+01	  0.052665330	4.417200E+01	  0.052665330	-5.567200E+01
165	  0.052865732	-5.821000E+00	  0.052865732	-6.696800E+01	  0.052865732	4.285200E+01	  0.052865732	-5.465500E+01
166	  0.053066134	-5.827000E+00	  0.053066134	-6.854400E+01	  0.053066134	4.161900E+01	  0.053066134	-5.362000E+01
167	  0.053266536	-5.826000E+00	  0.053266536	-7.007600E+01	  0.053266536	4.044800E+01	  0.053266536	-5.265300E+01
168	  0.053466935	-5.830000E+00	  0.053466935	-7.161600E+01	  0.053466935	3.934700E+01	  0.053466935	-5.165700E+01
169	  0.053667337	-5.827000E+00	  0.053667337	-7.317400E+01	  0.053667337	3.825600E+01	  0.053667337	-5.068800E+01
170	  0.053867739	-5.827000E+00	  0.053867739	-7.464800E+01	  0.053867739	3.727700E+01	  0.053867739	-4.976500E+01
171	  0.054068137	-5.821000E+00	  0.054068137	-7.614000E+01	  0.054068137	3.630900E+01	  0.054068137	-4.885600E+01
172	  0.054268539	-5.822000E+00	  0.054268539	-7.759100E+01	  0.054268539	3.543400E+01	  0.054268539	-4.795300E+01
173	  0.054468941	-5.825000E+00	  0.054468941	-7.900000E+01	  0.054468941	3.462700E+01	  0.054468941	-4.707300E+01
174	  0.054669339	-5.829000E+00	  0.054669339	-8.040300E+01	  0.054669339	3.386000E+01	  0.054669339	-4.620100E+01
175	  0.054869737	-5.834000E+00	  0.054869737	-8.177300E+01	  0.054869737	3.314900E+01	  0.054869737	-4.535200E+01
176	  0.055070139	-5.842000E+00	  0.055070139	-8.315800E+01	  0.055070139	3.246700E+01	  0.055070139	-4.449300E+01
177	  0.055270538	-5.854000E+00	  0.055270538	-8.450700E+01	  0.055270538	3.184900E+01	  0.055270538	-4.365000E+01
178	  0.055470940	-5.863000E+00	  0.055470940	-8.585000E+01	  0.055470940	3.124400E+01	  0.055470940	-4.283100E+01
179	  0.055671342	-5.874000E+00	  0.055671342	-8.722100E+01	  0.055671342	3.065700E+01	  0.055671342	-4.200000E+01
180	  0.055871744	-5.892000E+00	  0.055871744	-8.855200E+01	  0.055871744	3.013900E+01	  0.055871744	-4.117800E+01
181	  0.056072142	-5.909000E+00	  0.056072142	-8.987700E+01	  0.056072142	2.963700E+01	  0.056072142	-4.037500E+01
182	  0.056272544	-5.928000E+00	  0.056272544	-9.124500E+01	  0.056272544	2.914800E+01	  0.056272544	-3.955100E+01
183	  0.056472946	-5.946000E+00	  0.056472946	-9.258900E+01	  0.056472946	2.868400E+01	  0.056472946	-3.875400E+01
184	  0.056673344	-5.964000E+00	  0.056673344	-9.394300E+01	  0.056673344	2.823400E+01	  0.056673344	-3.796200E+01
185	  0.056873746	-5.982000E+00	  0.056873746	-9.528400E+01	  0.056873746	2.780500E+01	  0.056873746	-3.718700E+01
186	  0.057074148	-5.997000E+00	  0.057074148	-9.663800E+01	  0.057074148	2.737700E+01	  0.057074148	-3.642200E+01
187	  0.057274550	-6.013000E+00	  0.057274550	-9.799600E+01	  0.057274550	2.697100E+01	  0.057274550	-3.565900E+01
188	  0.057474948	-6.026000E+00	  0.057474948	-9.933800E+01	  0.057474948	2.657300E+01	  0.057474948	-3.492200E+01
189	  0.057675350	-6.039000E+00	  0.057675350	-1.006810E+02	  0.057675350	2.619000E+01	  0.057675350	-3.419200E+01
190	  0.057875752	-6.051000E+00	  0.057875752	-1.020140E+02	  0.057875752	2.582300E+01	  0.057875752	-3.347600E+01
191	  0.058076151	-6.064000E+00	  0.058076151	-1.033280E+02	  0.058076151	2.547800E+01	  0.058076151	-3.277600E+01
192	  0.058276553	-6.078000E+00	  0.058276553	-1.046240E+02	  0.058276553	2.515100E+01	  0.058276553	-3.209300E+01
193	  0.058476955	-6.092000E+00	  0.058476955	-1.059280E+02	  0.058476955	2.483800E+01	  0.058476955	-3.140900E+01
194	  0.058677353	-6.103000E+00	  0.058677353	-1.072240E+02	  0.058677353	2.452700E+01	  0.058677353	-3.074400E+01
195	  0.058877755	-6.111000E+00	  0.058877755	-1.085590E+02	  0.058877755	2.420800E+01	  0.058877755	-3.007100E+01
196	  0.059078157	-6.120000E+00	  0.059078157	-1.098600E+02	  0.059078157	2.391200E+01	  0.059078157	-2.941900E+01
197	  0.059278559	-6.127000E+00	  0.059278559	-1.111940E+02	  0.059278559	2.361100E+01	  0.059278559	-2.876100E+01
198	  0.059478957	-6.133000E+00	  0.059478957	-1.125010E+02	  0.059478957	2.332500E+01	  0.059478957	-2.812300E+01
199	  0.059679359	-6.137000E+00	  0.059679359	-1.138380E+02	  0.059679359	2.303900E+01	  0.059679359	-2.747700E+01
200	  0.059879761	-6.138000E+00	  0.059879761	-1.151670E+02	  0.059879761	2.275300E+01	  0.059879761	-2.684700E+01
201	  0.060080159	-6.137000E+00	  0.060080159	-1.164520E+02	  0.060080159	2.247900E+01	  0.060080159	-2.624500E+01
202	  0.060280561	-6.134000E+00	  0.060280561	-1.177790E+02	  0.060280561	2.220300E+01	  0.060280561	-2.562900E+01
203	  0.060480963	-6.130000E+00	  0.060480963	-1.190650E+02	  0.060480963	2.193900E+01	  0.060480963	-2.503900E+01
204	  0.060681365	-6.123000E+00	  0.060681365	-1.203610E+02	  0.060681365	2.167400E+01	  0.060681365	-2.445100E+01
205	  0.060881764	-6.112000E+00	  0.060881764	-1.216110E+02	  0.060881764	2.141500E+01	  0.060881764	-2.389200E+01
206	  0.061082166	-6.104000E+00	  0.061082166	-1.228920E+02	  0.061082166	2.116300E+01	  0.061082166	-2.332000E+01
207	  0.061282568	-6.092000E+00	  0.061282568	-1.241420E+02	  0.061282568	2.091900E+01	  0.061282568	-2.276800E+01
208	  0.061482966	-6.083000E+00	  0.061482966	-1.253450E+02	  0.061482966	2.069500E+01	  0.061482966	-2.223700E+01
209	  0.061683368	-6.072000E+00	  0.061683368	-1.265560E+02	  0.061683368	2.047000E+01	  0.061683368	-2.170800E+01
210	  0.061883770	-6.061000E+00	  0.061883770	-1.277490E+02	  0.061883770	2.025700E+01	  0.061883770	-2.118900E+01
211	  0.062084168	-6.053000E+00	  0.062084168	-1.288950E+02	  0.062084168	2.006500E+01	  0.062084168	-2.069000E+01
212	  0.062284570	-6.045000E+00	  0.062284570	-1.300550E+02	  0.062284570	1.987500E+01	  0.062284570	-2.018800E+01
213	  0.062484972	-6.031000E+00	  0.062484972	-1.311780E+02	  0.062484972	1.968200E+01	  0.062484972	-1.970900E+01
214	  0.062685370	-6.027000E+00	  0.062685370	-1.323070E+02	  0.062685370	1.951900E+01	  0.062685370	-1.922100E+01
215	  0.062885776	-6.019000E+00	  0.062885776	-1.334470E+02	  0.062885776	1.935000E+01	  0.062885776	-1.873400E+01
216	  0.063086174	-6.016000E+00	  0.063086174	-1.345790E+02	  0.063086174	1.920000E+01	  0.063086174	-1.824800E+01
217	  0.063286573	-6.011000E+00	  0.063286573	-1.357140E+02	  0.063286573	1.904900E+01	  0.063286573	-1.776600E+01
218	  0.063486971	-6.012000E+00	  0.063486971	-1.368380E+02	  0.063486971	1.892100E+01	  0.063486971	-1.728500E+01
219	  0.063687377	-6.012000E+00	  0.063687377	-1.379570E+02	  0.063687377	1.879500E+01	  0.063687377	-1.681000E+01
220	  0.063887775	-6.005000E+00	  0.063887775	-1.390480E+02	  0.063887775	1.865700E+01	  0.063887775	-1.635300E+01
221	  0.064088173	-6.004000E+00	  0.064088173	-1.401310E+02	  0.064088173	1.854300E+01	  0.064088173	-1.589700E+01
222	  0.064288579	-6.004000E+00	  0.064288579	-1.412430E+02	  0.064288579	1.843100E+01	  0.064288579	-1.543000E+01
223	  0.064488977	-6.007000E+00	  0.064488977	-1.423080E+02	  0.064488977	1.833500E+01	  0.064488977	-1.498400E+01
224	  0.064689375	-6.012000E+00	  0.064689375	-1.433470E+02	  0.064689375	1.825000E+01	  0.064689375	-1.454800E+01
225	  0.064889781	-6.024000E+00	  0.064889781	-1.444490E+02	  0.064889781	1.818100E+01	  0.064889781	-1.408500E+01
226	  0.065090179	-6.030000E+00	  0.065090179	-1.455000E+02	  0.065090179	1.810600E+01	  0.065090179	-1.364800E+01
227	  0.065290578	-6.038000E+00	  0.065290578	-1.465260E+02	  0.065290578	1.804000E+01	  0.065290578	-1.322200E+01
228	  0.065490983	-6.047000E+00	  0.065490983	-1.475730E+02	  0.065490983	1.798000E+01	  0.065490983	-1.278800E+01
229	  0.065691382	-6.057000E+00	  0.065691382	-1.486250E+02	  0.065691382	1.792200E+01	  0.065691382	-1.235500E+01
230	  0.065891780	-6.074000E+00	  0.065891780	-1.497060E+02	  0.065891780	1.788600E+01	  0.065891780	-1.190700E+01
231	  0.066092186	-6.089000E+00	  0.066092186	-1.507560E+02	  0.066092186	1.785000E+01	  0.066092186	-1.147500E+01
232	  0.066292584	-6.101000E+00	  0.066292584	-1.518200E+02	  0.066292584	1.780800E+01	  0.066292584	-1.104000E+01
233	  0.066492982	-6.119000E+00	  0.066492982	-1.528570E+02	  0.066492982	1.778600E+01	  0.066492982	-1.061600E+01
234	  0.066693388	-6.136000E+00	  0.066693388	-1.538930E+02	  0.066693388	1.776300E+01	  0.066693388	-1.019500E+01
235	  0.066893786	-6.151000E+00	  0.066893786	-1.549630E+02	  0.066893786	1.773600E+01	  0.066893786	-9.762000E+00
236	  0.067094192	-6.164000E+00	  0.067094192	-1.560120E+02	  0.067094192	1.771000E+01	  0.067094192	-9.340000E+00
237	  0.067294590	-6.181000E+00	  0.067294590	-1.570980E+02	  0.067294590	1.769400E+01	  0.067294590	-8.903000E+00
238	  0.067494988	-6.192000E+00	  0.067494988	-1.581530E+02	  0.067494988	1.766400E+01	  0.067494988	-8.483000E+00
239	  0.067695394	-6.206000E+00	  0.067695394	-1.592010E+02	  0.067695394	1.764700E+01	  0.067695394	-8.065000E+00
240	  0.067895792	-6.217000E+00	  0.067895792	-1.602810E+02	  0.067895792	1.762500E+01	  0.067895792	-7.637000E+00
241	  0.068096191	-6.229000E+00	  0.068096191	-1.613490E+02	  0.068096191	1.760700E+01	  0.068096191	-7.215000E+00
242	  0.068296596	-6.242000E+00	  0.068296596	-1.624240E+02	  0.068296596	1.759500E+01	  0.068296596	-6.791000E+00
243	  0.068496995	-6.249000E+00	  0.068496995	-1.634190E+02	  0.068496995	1.757100E+01	  0.068496995	-6.402000E+00
244	  0.068697393	-6.258000E+00	  0.068697393	-1.644750E+02	  0.068697393	1.755400E+01	  0.068697393	-5.988000E+00
245	  0.068897791	-6.262000E+00	  0.068897791	-1.655240E+02	  0.068897791	1.752600E+01	  0.068897791	-5.580000E+00
246	  0.069098189	-6.262000E+00	  0.069098189	-1.665390E+02	  0.069098189	1.749300E+01	  0.069098189	-5.186000E+00
247	  0.069298595	-6.264000E+00	  0.069298595	-1.676050E+02	  0.069298595	1.746600E+01	  0.069298595	-4.773000E+00
248	  0.069498993	-6.264000E+00	  0.069498993	-1.686100E+02	  0.069498993	1.743800E+01	  0.069498993	-4.384000E+00
249	  0.069699399	-6.263000E+00	  0.069699399	-1.696510E+02	  0.069699399	1.740800E+01	  0.069699399	-3.982000E+00
250	  0.069899797	-6.263000E+00	  0.069899797	-1.706510E+02	  0.069899797	1.738700E+01	  0.069899797	-3.596000E+00
251	  0.070100196	-6.259000E+00	  0.070100196	-1.716640E+02	  0.070100196	1.735400E+01	  0.070100196	-3.206000E+00
252	  0.070300601	-6.256000E+00	  0.070300601	-1.726410E+02	  0.070300601	1.733000E+01	  0.070300601	-2.830000E+00
253	  0.070501000	-6.248000E+00	  0.070501000	-1.736380E+02	  0.070501000	1.729300E+01	  0.070501000	-2.447000E+00
254	  0.070701398	-6.238000E+00	  0.070701398	-1.746170E+02	  0.070701398	1.725400E+01	  0.070701398	-2.071000E+00
255	  0.070901804	-6.235000E+00	  0.070901804	-1.755890E+02	  0.070901804	1.723600E+01	  0.070901804	-1.697000E+00
256	  0.071102202	-6.225000E+00	  0.071102202	-1.765550E+02	  0.071102202	1.720300E+01	  0.071102202	-1.325000E+00
257	  0.071302600	-6.221000E+00	  0.071302600	-1.775260E+02	  0.071302600	1.718600E+01	  0.071302600	-9.520000E-01
258	  0.071503006	-6.214000E+00	  0.071503006	-1.784430E+02	  0.071503006	1.716300E+01	  0.071503006	-5.990000E-01
259	  0.071703404	-6.210000E+00	  0.071703404	-1.793790E+02	  0.071703404	1.715000E+01	  0.071703404	-2.380000E-01
260	  0.071903802	-6.203000E+00	  0.071903802	1.797330E+02	  0.071903802	1.713300E+01	  0.071903802	1.020000E-01
261	  0.072104208	-6.203000E+00	  0.072104208	1.788090E+02	  0.072104208	1.713300E+01	  0.072104208	4.580000E-01
262	  0.072304606	-6.197000E+00	  0.072304606	1.778980E+02	  0.072304606	1.712100E+01	  0.072304606	8.090000E-01
263	  0.072505005	-6.192000E+00	  0.072505005	1.770130E+02	  0.072505005	1.711600E+01	  0.072505005	1.150000E+00
264	  0.072705410	-6.194000E+00	  0.072705410	1.761210E+02	  0.072705410	1.712700E+01	  0.072705410	1.494000E+00
265	  0.072905809	-6.195000E+00	  0.072905809	1.752480E+02	  0.072905809	1.713900E+01	  0.072905809	1.831000E+00
266	  0.073106214	-6.197000E+00	  0.073106214	1.743590E+02	  0.073106214	1.715500E+01	  0.073106214	2.173000E+00
267	  0.073306613	-6.198000E+00	  0.073306613	1.735090E+02	  0.073306613	1.716900E+01	  0.073306613	2.501000E+00
268	  0.073507011	-6.206000E+00	  0.073507011	1.726300E+02	  0.073507011	1.720300E+01	  0.073507011	2.840000E+00
269	  0.073707417	-6.212000E+00	  0.073707417	1.717610E+02	  0.073707417	1.723400E+01	  0.073707417	3.175000E+00
270	  0.073907815	-6.218000E+00	  0.073907815	1.709100E+02	  0.073907815	1.726600E+01	  0.073907815	3.503000E+00
271	  0.074108213	-6.227000E+00	  0.074108213	1.700610E+02	  0.074108213	1.730900E+01	  0.074108213	3.829000E+00
272	  0.074308619	-6.238000E+00	  0.074308619	1.692130E+02	  0.074308619	1.735500E+01	  0.074308619	4.156000E+00
273	  0.074509017	-6.255000E+00	  0.074509017	1.683220E+02	  0.074509017	1.742300E+01	  0.074509017	4.497000E+00
274	  0.074709415	-6.270000E+00	  0.074709415	1.674870E+02	  0.074709415	1.748400E+01	  0.074709415	4.818000E+00
275	  0.074909821	-6.287000E+00	  0.074909821	1.666310E+02	  0.074909821	1.755600E+01	  0.074909821	5.146000E+00
276	  0.075110219	-6.304000E+00	  0.075110219	1.657830E+02	  0.075110219	1.762600E+01	  0.075110219	5.470000E+00
277	  0.075310618	-6.322000E+00	  0.075310618	1.649260E+02	  0.075310618	1.770100E+01	  0.075310618	5.798000E+00
278	  0.075511023	-6.344000E+00	  0.075511023	1.640680E+02	  0.075511023	1.779000E+01	  0.075511023	6.125000E+00
279	  0.075711422	-6.363000E+00	  0.075711422	1.632100E+02	  0.075711422	1.787100E+01	  0.075711422	6.453000E+00
280	  0.075911827	-6.387000E+00	  0.075911827	1.623520E+02	  0.075911827	1.796800E+01	  0.075911827	6.780000E+00
281	  0.076112226	-6.408000E+00	  0.076112226	1.614500E+02	  0.076112226	1.806100E+01	  0.076112226	7.124000E+00
282	  0.076312624	-6.432000E+00	  0.076312624	1.605760E+02	  0.076312624	1.816300E+01	  0.076312624	7.456000E+00
283	  0.076513030	-6.450000E+00	  0.076513030	1.596660E+02	  0.076513030	1.825400E+01	  0.076513030	7.804000E+00
284	  0.076713428	-6.472000E+00	  0.076713428	1.587370E+02	  0.076713428	1.835600E+01	  0.076713428	8.157000E+00
285	  0.076913826	-6.490000E+00	  0.076913826	1.578100E+02	  0.076913826	1.845400E+01	  0.076913826	8.512000E+00
286	  0.077114232	-6.505000E+00	  0.077114232	1.569210E+02	  0.077114232	1.854200E+01	  0.077114232	8.853000E+00
287	  0.077314630	-6.521000E+00	  0.077314630	1.560160E+02	  0.077314630	1.863500E+01	  0.077314630	9.200000E+00
288	  0.077515028	-6.533000E+00	  0.077515028	1.550900E+02	  0.077515028	1.872400E+01	  0.077515028	9.557000E+00
289	  0.077715434	-6.549000E+00	  0.077715434	1.541770E+02	  0.077715434	1.882300E+01	  0.077715434	9.907000E+00
290	  0.077915832	-6.563000E+00	  0.077915832	1.532780E+02	  0.077915832	1.891900E+01	  0.077915832	1.025400E+01
291	  0.078116231	-6.573000E+00	  0.078116231	1.523660E+02	  0.078116231	1.900900E+01	  0.078116231	1.060700E+01
292	  0.078316636	-6.582000E+00	  0.078316636	1.514550E+02	  0.078316636	1.909800E+01	  0.078316636	1.096100E+01
293	  0.078517035	-6.595000E+00	  0.078517035	1.505500E+02	  0.078517035	1.919900E+01	  0.078517035	1.131100E+01
294	  0.078717433	-6.605000E+00	  0.078717433	1.496710E+02	  0.078717433	1.929100E+01	  0.078717433	1.165300E+01
295	  0.078917839	-6.610000E+00	  0.078917839	1.487780E+02	  0.078917839	1.937500E+01	  0.078917839	1.200400E+01
296	  0.079118237	-6.618000E+00	  0.079118237	1.478970E+02	  0.079118237	1.946900E+01	  0.079118237	1.234800E+01
297	  0.079318643	-6.629000E+00	  0.079318643	1.470540E+02	  0.079318643	1.957000E+01	  0.079318643	1.267700E+01
298	  0.079519041	-6.632000E+00	  0.079519041	1.461830E+02	  0.079519041	1.965600E+01	  0.079519041	1.302200E+01
299	  0.079719439	-6.638000E+00	  0.079719439	1.453000E+02	  0.079719439	1.975100E+01	  0.079719439	1.337100E+01
300	  0.079919845	-6.643000E+00	  0.079919845	1.444840E+02	  0.079919845	1.984100E+01	  0.079919845	1.369400E+01
301	  0.080120243	-6.645000E+00	  0.080120243	1.436300E+02	  0.080120243	1.992700E+01	  0.080120243	1.403500E+01
302	  0.080320641	-6.651000E+00	  0.080320641	1.428020E+02	  0.080320641	2.002600E+01	  0.080320641	1.436400E+01
303	  0.080521047	-6.655000E+00	  0.080521047	1.419780E+02	  0.080521047	2.012100E+01	  0.080521047	1.469300E+01
304	  0.080721445	-6.657000E+00	  0.080721445	1.411880E+02	  0.080721445	2.020900E+01	  0.080721445	1.501100E+01
305	  0.080921844	-6.662000E+00	  0.080921844	1.404060E+02	  0.080921844	2.030500E+01	  0.080921844	1.532400E+01
306	  0.081122249	-6.665000E+00	  0.081122249	1.395970E+02	  0.081122249	2.040400E+01	  0.081122249	1.565000E+01
307	  0.081322648	-6.680000E+00	  0.081322648	1.388690E+02	  0.081322648	2.052500E+01	  0.081322648	1.593500E+01
308	  0.081523046	-6.684000E+00	  0.081523046	1.380990E+02	  0.081523046	2.062400E+01	  0.081523046	1.624600E+01
309	  0.081723452	-6.697000E+00	  0.081723452	1.373820E+02	  0.081723452	2.074400E+01	  0.081723452	1.652900E+01
310	  0.081923850	-6.708000E+00	  0.081923850	1.366700E+02	  0.081923850	2.086100E+01	  0.081923850	1.681100E+01
311	  0.082124248	-6.722000E+00	  0.082124248	1.359740E+02	  0.082124248	2.098400E+01	  0.082124248	1.708500E+01
312	  0.082324654	-6.737000E+00	  0.082324654	1.352560E+02	  0.082324654	2.111600E+01	  0.082324654	1.736800E+01
313	  0.082525052	-6.753000E+00	  0.082525052	1.345570E+02	  0.082525052	2.124900E+01	  0.082525052	1.764200E+01
314	  0.082725458	-6.776000E+00	  0.082725458	1.338760E+02	  0.082725458	2.140200E+01	  0.082725458	1.790200E+01
315	  0.082925856	-6.798000E+00	  0.082925856	1.331930E+02	  0.082925856	2.155600E+01	  0.082925856	1.816400E+01
316	  0.083126254	-6.822000E+00	  0.083126254	1.325140E+02	  0.083126254	2.171400E+01	  0.083126254	1.842300E+01
317	  0.083326660	-6.848000E+00	  0.083326660	1.317850E+02	  0.083326660	2.188700E+01	  0.083326660	1.870100E+01
318	  0.083527058	-6.874000E+00	  0.083527058	1.310810E+02	  0.083527058	2.206100E+01	  0.083527058	1.896700E+01
319	  0.083727457	-6.903000E+00	  0.083727457	1.303670E+02	  0.083727457	2.224500E+01	  0.083727457	1.923500E+01
320	  0.083927862	-6.924000E+00	  0.083927862	1.296810E+02	  0.083927862	2.240600E+01	  0.083927862	1.949800E+01
321	  0.084128261	-6.958000E+00	  0.084128261	1.289550E+02	  0.084128261	2.261200E+01	  0.084128261	1.976500E+01
322	  0.084328659	-6.988000E+00	  0.084328659	1.282920E+02	  0.084328659	2.279700E+01	  0.084328659	2.001000E+01
323	  0.084529065	-7.021000E+00	  0.084529065	1.276110E+02	  0.084529065	2.299900E+01	  0.084529065	2.025700E+01
324	  0.084729463	-7.054000E+00	  0.084729463	1.269300E+02	  0.084729463	2.320000E+01	  0.084729463	2.050500E+01
325	  0.084929861	-7.091000E+00	  0.084929861	1.261950E+02	  0.084929861	2.342500E+01	  0.084929861	2.076900E+01
326	  0.085130267	-7.126000E+00	  0.085130267	1.254850E+02	  0.085130267	2.364400E+01	  0.085130267	2.102500E+01
327	  0.085330658	-7.159000E+00	  0.085330658	1.247660E+02	  0.085330658	2.386000E+01	  0.085330658	2.128600E+01
328	  0.085531056	-7.198000E+00	  0.085531056	1.240390E+02	  0.085531056	2.409800E+01	  0.085531056	2.154200E+01
329	  0.085731462	-7.230000E+00	  0.085731462	1.233310E+02	  0.085731462	2.431600E+01	  0.085731462	2.179700E+01
330	  0.085931860	-7.269000E+00	  0.085931860	1.226040E+02	  0.085931860	2.455800E+01	  0.085931860	2.205200E+01
331	  0.086132258	-7.303000E+00	  0.086132258	1.218810E+02	  0.086132258	2.479000E+01	  0.086132258	2.230900E+01
332	  0.086332664	-7.343000E+00	  0.086332664	1.211700E+02	  0.086332664	2.503800E+01	  0.086332664	2.255400E+01
333	  0.086533062	-7.377000E+00	  0.086533062	1.204060E+02	  0.086533062	2.528400E+01	  0.086533062	2.282700E+01
334	  0.086733460	-7.406000E+00	  0.086733460	1.196310E+02	  0.086733460	2.552100E+01	  0.086733460	2.311000E+01
335	  0.086933866	-7.434000E+00	  0.086933866	1.188780E+02	  0.086933866	2.575300E+01	  0.086933866	2.338600E+01
336	  0.087134264	-7.462000E+00	  0.087134264	1.181280E+02	  0.087134264	2.598900E+01	  0.087134264	2.365900E+01
337	  0.087334670	-7.487000E+00	  0.087334670	1.173650E+02	  0.087334670	2.622300E+01	  0.087334670	2.394000E+01
338	  0.087535068	-7.512000E+00	  0.087535068	1.166120E+02	  0.087535068	2.645900E+01	  0.087535068	2.421700E+01
339	  0.087735467	-7.537000E+00	  0.087735467	1.158740E+02	  0.087735467	2.669500E+01	  0.087735467	2.448700E+01
340	  0.087935872	-7.558000E+00	  0.087935872	1.151470E+02	  0.087935872	2.691900E+01	  0.087935872	2.475900E+01
341	  0.088136271	-7.578000E+00	  0.088136271	1.144530E+02	  0.088136271	2.713900E+01	  0.088136271	2.501600E+01
342	  0.088336669	-7.593000E+00	  0.088336669	1.137040E+02	  0.088336669	2.736000E+01	  0.088336669	2.530500E+01
343	  0.088537075	-7.605000E+00	  0.088537075	1.129410E+02	  0.088537075	2.757700E+01	  0.088537075	2.560500E+01
344	  0.088737473	-7.620000E+00	  0.088737473	1.122450E+02	  0.088737473	2.779300E+01	  0.088737473	2.587100E+01
345	  0.088937871	-7.633000E+00	  0.088937871	1.115620E+02	  0.088937871	2.800200E+01	  0.088937871	2.613500E+01
346	  0.089138277	-7.645000E+00	  0.089138277	1.109400E+02	  0.089138277	2.819600E+01	  0.089138277	2.637500E+01
347	  0.089338675	-7.660000E+00	  0.089338675	1.103150E+02	  0.089338675	2.840100E+01	  0.089338675	2.661100E+01
348	  0.089539073	-7.678000E+00	  0.089539073	1.096850E+02	  0.089539073	2.861700E+01	  0.089539073	2.684500E+01
349	  0.089739479	-7.694000E+00	  0.089739479	1.090940E+02	  0.089739479	2.882100E+01	  0.089739479	2.706300E+01
350	  0.089939877	-7.712000E+00	  0.089939877	1.085170E+02	  0.089939877	2.902900E+01	  0.089939877	2.727200E+01
351	  0.090140276	-7.726000E+00	  0.090140276	1.078870E+02	  0.090140276	2.924300E+01	  0.090140276	2.751100E+01
352	  0.090340681	-7.739000E+00	  0.090340681	1.073450E+02	  0.090340681	2.943200E+01	  0.090340681	2.771400E+01
353	  0.090541080	-7.752000E+00	  0.090541080	1.067510E+02	  0.090541080	2.964000E+01	  0.090541080	2.793700E+01
354	  0.090741485	-7.771000E+00	  0.090741485	1.061830E+02	  0.090741485	2.985800E+01	  0.090741485	2.813900E+01
355	  0.090941884	-7.789000E+00	  0.090941884	1.056450E+02	  0.090941884	3.006400E+01	  0.090941884	2.833100E+01
356	  0.091142282	-7.809000E+00	  0.091142282	1.051530E+02	  0.091142282	3.026800E+01	  0.091142282	2.849600E+01
357	  0.091342688	-7.824000E+00	  0.091342688	1.046140E+02	  0.091342688	3.047200E+01	  0.091342688	2.869300E+01
358	  0.091543086	-7.847000E+00	  0.091543086	1.041210E+02	  0.091543086	3.068800E+01	  0.091543086	2.885000E+01
359	  0.091743484	-7.867000E+00	  0.091743484	1.036330E+02	  0.091743484	3.089500E+01	  0.091743484	2.901200E+01
360	  0.091943890	-7.891000E+00	  0.091943890	1.031430E+02	  0.091943890	3.111300E+01	  0.091943890	2.916800E+01
361	  0.092144288	-7.915000E+00	  0.092144288	1.026950E+02	  0.092144288	3.132200E+01	  0.092144288	2.930400E+01
362	  0.092344686	-7.939000E+00	  0.092344686	1.021920E+02	  0.092344686	3.155100E+01	  0.092344686	2.946000E+01
363	  0.092545092	-7.969000E+00	  0.092545092	1.017710E+02	  0.092545092	3.177000E+01	  0.092545092	2.957000E+01
364	  0.092745490	-7.999000E+00	  0.092745490	1.012970E+02	  0.092745490	3.200700E+01	  0.092745490	2.970100E+01
365	  0.092945889	-8.032000E+00	  0.092945889	1.008860E+02	  0.092945889	3.223300E+01	  0.092945889	2.979700E+01
366	  0.093146294	-8.068000E+00	  0.093146294	1.004000E+02	  0.093146294	3.249600E+01	  0.093146294	2.991400E+01
367	  0.093346693	-8.103000E+00	  0.093346693	9.996500E+01	  0.093346693	3.273900E+01	  0.093346693	3.001300E+01
368	  0.093547091	-8.140000E+00	  0.093547091	9.948700E+01	  0.093547091	3.300100E+01	  0.093547091	3.012400E+01
369	  0.093747497	-8.177000E+00	  0.093747497	9.901700E+01	  0.093747497	3.326400E+01	  0.093747497	3.022800E+01
370	  0.093947895	-8.212000E+00	  0.093947895	9.854500E+01	  0.093947895	3.352200E+01	  0.093947895	3.033700E+01
371	  0.094148301	-8.253000E+00	  0.094148301	9.802300E+01	  0.094148301	3.381800E+01	  0.094148301	3.044800E+01
372	  0.094348699	-8.289000E+00	  0.094348699	9.757900E+01	  0.094348699	3.407400E+01	  0.094348699	3.053800E+01
373	  0.094549097	-8.328000E+00	  0.094549097	9.711000E+01	  0.094549097	3.434600E+01	  0.094549097	3.063000E+01
374	  0.094749503	-8.360000E+00	  0.094749503	9.663800E+01	  0.094749503	3.460300E+01	  0.094749503	3.073700E+01
375	  0.094949901	-8.399000E+00	  0.094949901	9.611300E+01	  0.094949901	3.489900E+01	  0.094949901	3.084800E+01
376	  0.095150299	-8.429000E+00	  0.095150299	9.566100E+01	  0.095150299	3.514800E+01	  0.095150299	3.094800E+01
377	  0.095350705	-8.460000E+00	  0.095350705	9.517000E+01	  0.095350705	3.541400E+01	  0.095350705	3.106000E+01
378	  0.095551103	-8.494000E+00	  0.095551103	9.467100E+01	  0.095551103	3.569300E+01	  0.095551103	3.116500E+01
379	  0.095751502	-8.520000E+00	  0.095751502	9.416600E+01	  0.095751502	3.595700E+01	  0.095751502	3.129100E+01
380	  0.095951907	-8.552000E+00	  0.095951907	9.369200E+01	  0.095951907	3.622400E+01	  0.095951907	3.138800E+01
381	  0.096152306	-8.579000E+00	  0.096152306	9.320300E+01	  0.096152306	3.648600E+01	  0.096152306	3.150300E+01
382	  0.096352704	-8.604000E+00	  0.096352704	9.271700E+01	  0.096352704	3.674400E+01	  0.096352704	3.161900E+01
383	  0.096553110	-8.624000E+00	  0.096553110	9.223300E+01	  0.096553110	3.699100E+01	  0.096553110	3.174600E+01
384	  0.096753508	-8.646000E+00	  0.096753508	9.175500E+01	  0.096753508	3.724200E+01	  0.096753508	3.186400E+01
385	  0.096953906	-8.663000E+00	  0.096953906	9.125100E+01	  0.096953906	3.749300E+01	  0.096953906	3.200500E+01
386	  0.097154312	-8.683000E+00	  0.097154312	9.073300E+01	  0.097154312	3.776000E+01	  0.097154312	3.214000E+01
387	  0.097354710	-8.695000E+00	  0.097354710	9.028300E+01	  0.097354710	3.798100E+01	  0.097354710	3.227100E+01
388	  0.097555116	-8.706000E+00	  0.097555116	8.978400E+01	  0.097555116	3.822200E+01	  0.097555116	3.242200E+01
389	  0.097755514	-8.717000E+00	  0.097755514	8.928900E+01	  0.097755514	3.846300E+01	  0.097755514	3.257200E+01
390	  0.097955912	-8.724000E+00	  0.097955912	8.884000E+01	  0.097955912	3.867700E+01	  0.097955912	3.271500E+01
391	  0.098156318	-8.732000E+00	  0.098156318	8.835700E+01	  0.098156318	3.891000E+01	  0.098156318	3.286600E+01
392	  0.098356716	-8.728000E+00	  0.098356716	8.789700E+01	  0.098356716	3.910800E+01	  0.098356716	3.304200E+01
393	  0.098557115	-8.731000E+00	  0.098557115	8.742800E+01	  0.098557115	3.932700E+01	  0.098557115	3.320300E+01
394	  0.098757520	-8.724000E+00	  0.098757520	8.701200E+01	  0.098757520	3.950100E+01	  0.098757520	3.337300E+01
395	  0.098957919	-8.719000E+00	  0.098957919	8.653700E+01	  0.098957919	3.971000E+01	  0.098957919	3.355700E+01
396	  0.099158317	-8.712000E+00	  0.099158317	8.610100E+01	  0.099158317	3.989700E+01	  0.099158317	3.373500E+01
397	  0.099358723	-8.703000E+00	  0.099358723	8.571100E+01	  0.099358723	4.006000E+01	  0.099358723	3.390200E+01
398	  0.099559121	-8.693000E+00	  0.099559121	8.531600E+01	  0.099559121	4.022400E+01	  0.099559121	3.407500E+01
399	  0.099759519	-8.686000E+00	  0.099759519	8.493400E+01	  0.099759519	4.039300E+01	  0.099759519	3.423100E+01
400	  0.099959925	-8.682000E+00	  0.099959925	8.450500E+01	  0.099959925	4.059000E+01	  0.099959925	3.439900E+01
401	  0.100160323	-8.666000E+00	  0.100160323	8.411600E+01	  0.100160323	4.074300E+01	  0.100160323	3.458800E+01
402	  0.100360721	-8.647000E+00	  0.100360721	8.380800E+01	  0.100360721	4.085000E+01	  0.100360721	3.476000E+01
403	  0.100561127	-8.635000E+00	  0.100561127	8.345100E+01	  0.100561127	4.099900E+01	  0.100561127	3.492700E+01
404	  0.100761525	-8.629000E+00	  0.100761525	8.301100E+01	  0.100761525	4.120700E+01	  0.100761525	3.510200E+01
405	  0.100961931	-8.621000E+00	  0.100961931	8.271700E+01	  0.100961931	4.133900E+01	  0.100961931	3.523200E+01
406	  0.101162329	-8.612000E+00	  0.101162329	8.232200E+01	  0.101162329	4.151800E+01	  0.101162329	3.540400E+01
407	  0.101362728	-8.601000E+00	  0.101362728	8.201600E+01	  0.101362728	4.165100E+01	  0.101362728	3.554800E+01
408	  0.101563133	-8.588000E+00	  0.101563133	8.166100E+01	  0.101563133	4.180500E+01	  0.101563133	3.571900E+01
409	  0.101763532	-8.580000E+00	  0.101763532	8.132400E+01	  0.101763532	4.196200E+01	  0.101763532	3.586600E+01
410	  0.101963930	-8.577000E+00	  0.101963930	8.099100E+01	  0.101963930	4.213000E+01	  0.101963930	3.599500E+01
411	  0.102164336	-8.571000E+00	  0.102164336	8.060600E+01	  0.102164336	4.232200E+01	  0.102164336	3.615100E+01
412	  0.102364734	-8.559000E+00	  0.102364734	8.025400E+01	  0.102364734	4.248200E+01	  0.102364734	3.631800E+01
413	  0.102565132	-8.552000E+00	  0.102565132	7.990300E+01	  0.102565132	4.265700E+01	  0.102565132	3.646500E+01
414	  0.102765530	-8.550000E+00	  0.102765530	7.954900E+01	  0.102765530	4.284400E+01	  0.102765530	3.659700E+01
415	  0.102965929	-8.544000E+00	  0.102965929	7.921000E+01	  0.102965929	4.301700E+01	  0.102965929	3.673700E+01
416	  0.103166327	-8.539000E+00	  0.103166327	7.880200E+01	  0.103166327	4.323100E+01	  0.103166327	3.689700E+01
417	  0.103366733	-8.537000E+00	  0.103366733	7.840300E+01	  0.103366733	4.344900E+01	  0.103366733	3.704400E+01
418	  0.103567131	-8.536000E+00	  0.103567131	7.804700E+01	  0.103567131	4.364800E+01	  0.103567131	3.717100E+01
419	  0.103767529	-8.533000E+00	  0.103767529	7.768100E+01	  0.103767529	4.385000E+01	  0.103767529	3.730600E+01
420	  0.103967935	-8.537000E+00	  0.103967935	7.719300E+01	  0.103967935	4.413900E+01	  0.103967935	3.745900E+01
421	  0.104168333	-8.539000E+00	  0.104168333	7.667200E+01	  0.104168333	4.444500E+01	  0.104168333	3.763000E+01
422	  0.104368731	-8.529000E+00	  0.104368731	7.628200E+01	  0.104368731	4.465200E+01	  0.104368731	3.779900E+01
423	  0.104569137	-8.533000E+00	  0.104569137	7.582000E+01	  0.104569137	4.493400E+01	  0.104569137	3.794000E+01
424	  0.104769535	-8.528000E+00	  0.104769535	7.535400E+01	  0.104769535	4.520200E+01	  0.104769535	3.811500E+01
425	  0.104969934	-8.537000E+00	  0.104969934	7.484300E+01	  0.104969934	4.553200E+01	  0.104969934	3.824800E+01
426	  0.105170339	-8.526000E+00	  0.105170339	7.435100E+01	  0.105170339	4.580900E+01	  0.105170339	3.845300E+01
427	  0.105370738	-8.521000E+00	  0.105370738	7.382200E+01	  0.105370738	4.612400E+01	  0.105370738	3.864800E+01
428	  0.105571143	-8.510000E+00	  0.105571143	7.323600E+01	  0.105571143	4.646700E+01	  0.105571143	3.888500E+01
429	  0.105771542	-8.504000E+00	  0.105771542	7.266800E+01	  0.105771542	4.681600E+01	  0.105771542	3.909000E+01
430	  0.105971940	-8.497000E+00	  0.105971940	7.209900E+01	  0.105971940	4.716800E+01	  0.105971940	3.930100E+01
431	  0.106172346	-8.481000E+00	  0.106172346	7.150000E+01	  0.106172346	4.752400E+01	  0.106172346	3.956200E+01
432	  0.106372744	-8.469000E+00	  0.106372744	7.084400E+01	  0.106372744	4.793200E+01	  0.106372744	3.982100E+01
433	  0.106573142	-8.463000E+00	  0.106573142	7.020600E+01	  0.106573142	4.834900E+01	  0.106573142	4.004200E+01
434	  0.106773548	-8.441000E+00	  0.106773548	6.958500E+01	  0.106773548	4.872700E+01	  0.106773548	4.033300E+01
435	  0.106973946	-8.424000E+00	  0.106973946	6.891500E+01	  0.106973946	4.915500E+01	  0.106973946	4.061600E+01
436	  0.107174344	-8.406000E+00	  0.107174344	6.828700E+01	  0.107174344	4.956100E+01	  0.107174344	4.088800E+01
437	  0.107374750	-8.381000E+00	  0.107374750	6.756800E+01	  0.107374750	5.002500E+01	  0.107374750	4.121900E+01
438	  0.107575148	-8.366000E+00	  0.107575148	6.690000E+01	  0.107575148	5.048100E+01	  0.107575148	4.148700E+01
439	  0.107775547	-8.341000E+00	  0.107775547	6.617000E+01	  0.107775547	5.097000E+01	  0.107775547	4.182200E+01
440	  0.107975952	-8.318000E+00	  0.107975952	6.550800E+01	  0.107975952	5.142400E+01	  0.107975952	4.212400E+01
441	  0.108176351	-8.294000E+00	  0.108176351	6.485700E+01	  0.108176351	5.187500E+01	  0.108176351	4.242900E+01
442	  0.108376749	-8.272000E+00	  0.108376749	6.407400E+01	  0.108376749	5.244300E+01	  0.108376749	4.275800E+01
443	  0.108577155	-8.249000E+00	  0.108577155	6.344900E+01	  0.108577155	5.289500E+01	  0.108577155	4.304700E+01
444	  0.108777553	-8.217000E+00	  0.108777553	6.275000E+01	  0.108777553	5.339900E+01	  0.108777553	4.340400E+01
445	  0.108977959	-8.193000E+00	  0.108977959	6.204600E+01	  0.108977959	5.393000E+01	  0.108977959	4.372500E+01
446	  0.109178357	-8.164000E+00	  0.109178357	6.137100E+01	  0.109178357	5.444100E+01	  0.109178357	4.405500E+01
447	  0.109378755	-8.138000E+00	  0.109378755	6.064300E+01	  0.109378755	5.501300E+01	  0.109378755	4.438800E+01
448	  0.109579161	-8.109000E+00	  0.109579161	6.000200E+01	  0.109579161	5.551500E+01	  0.109579161	4.471200E+01
449	  0.109779559	-8.083000E+00	  0.109779559	5.937700E+01	  0.109779559	5.601800E+01	  0.109779559	4.501600E+01
450	  0.109979957	-8.062000E+00	  0.109979957	5.868100E+01	  0.109979957	5.660400E+01	  0.109979957	4.530100E+01
451	  0.110180363	-8.040000E+00	  0.110180363	5.801500E+01	  0.110180363	5.717200E+01	  0.110180363	4.558700E+01
452	  0.110380761	-8.017000E+00	  0.110380761	5.733800E+01	  0.110380761	5.775900E+01	  0.110380761	4.587800E+01
453	  0.110581160	-8.002000E+00	  0.110581160	5.666300E+01	  0.110581160	5.836600E+01	  0.110581160	4.612300E+01
454	  0.110781565	-7.973000E+00	  0.110781565	5.601400E+01	  0.110781565	5.894100E+01	  0.110781565	4.643800E+01
455	  0.110981964	-7.964000E+00	  0.110981964	5.534800E+01	  0.110981964	5.957000E+01	  0.110981964	4.662800E+01
456	  0.111182362	-7.950000E+00	  0.111182362	5.467700E+01	  0.111182362	6.020700E+01	  0.111182362	4.684900E+01
457	  0.111382768	-7.938000E+00	  0.111382768	5.401200E+01	  0.111382768	6.085300E+01	  0.111382768	4.704700E+01
458	  0.111583166	-7.934000E+00	  0.111583166	5.335900E+01	  0.111583166	6.150600E+01	  0.111583166	4.718300E+01
459	  0.111783572	-7.926000E+00	  0.111783572	5.269600E+01	  0.111783572	6.217400E+01	  0.111783572	4.734000E+01
460	  0.111983970	-7.925000E+00	  0.111983970	5.196800E+01	  0.111983970	6.292700E+01	  0.111983970	4.745900E+01
461	  0.112184368	-7.925000E+00	  0.112184368	5.127200E+01	  0.112184368	6.365700E+01	  0.112184368	4.754600E+01
462	  0.112384774	-7.923000E+00	  0.112384774	5.054600E+01	  0.112384774	6.442700E+01	  0.112384774	4.764500E+01
463	  0.112585172	-7.935000E+00	  0.112585172	4.983000E+01	  0.112585172	6.520800E+01	  0.112585172	4.763400E+01
464	  0.112785570	-7.939000E+00	  0.112785570	4.905700E+01	  0.112785570	6.605300E+01	  0.112785570	4.766300E+01
465	  0.112985976	-7.946000E+00	  0.112985976	4.833200E+01	  0.112985976	6.685800E+01	  0.112985976	4.765600E+01
466	  0.113186374	-7.964000E+00	  0.113186374	4.758400E+01	  0.113186374	6.769900E+01	  0.113186374	4.755800E+01
467	  0.113386773	-7.984000E+00	  0.113386773	4.680200E+01	  0.113386773	6.858500E+01	  0.113386773	4.742000E+01
468	  0.113587178	-7.999000E+00	  0.113587178	4.595500E+01	  0.113587178	6.955200E+01	  0.113587178	4.730900E+01
469	  0.113787577	-8.020000E+00	  0.113787577	4.516000E+01	  0.113787577	7.046600E+01	  0.113787577	4.712300E+01
470	  0.113987975	-8.036000E+00	  0.113987975	4.432200E+01	  0.113987975	7.143600E+01	  0.113987975	4.695600E+01
471	  0.114188381	-8.057000E+00	  0.114188381	4.345000E+01	  0.114188381	7.244900E+01	  0.114188381	4.671400E+01
472	  0.114388779	-8.085000E+00	  0.114388779	4.256000E+01	  0.114388779	7.348400E+01	  0.114388779	4.639400E+01
473	  0.114589177	-8.104000E+00	  0.114589177	4.165800E+01	  0.114589177	7.454300E+01	  0.114589177	4.611200E+01
474	  0.114789583	-8.125000E+00	  0.114789583	4.072200E+01	  0.114789583	7.564600E+01	  0.114789583	4.578000E+01
475	  0.114989981	-8.158000E+00	  0.114989981	3.983300E+01	  0.114989981	7.667600E+01	  0.114989981	4.532500E+01
476	  0.115190387	-8.178000E+00	  0.115190387	3.880200E+01	  0.115190387	7.789700E+01	  0.115190387	4.490400E+01
477	  0.115390785	-8.211000E+00	  0.115390785	3.784800E+01	  0.115390785	7.900100E+01	  0.115390785	4.436700E+01
478	  0.115591183	-8.229000E+00	  0.115591183	3.680100E+01	  0.115591183	8.024600E+01	  0.115591183	4.387400E+01
479	  0.115791589	-8.258000E+00	  0.115791589	3.577500E+01	  0.115791589	8.143700E+01	  0.115791589	4.325800E+01
480	  0.115991987	-8.283000E+00	  0.115991987	3.477600E+01	  0.115991987	8.259500E+01	  0.115991987	4.263400E+01
481	  0.116192386	-8.313000E+00	  0.116192386	3.372000E+01	  0.116192386	8.380000E+01	  0.116192386	4.190600E+01
482	  0.116392791	-8.335000E+00	  0.116392791	3.264600E+01	  0.116392791	8.504400E+01	  0.116392791	4.118800E+01
483	  0.116593190	-8.361000E+00	  0.116593190	3.156900E+01	  0.116593190	8.626300E+01	  0.116593190	4.038300E+01
484	  0.116793588	-8.383000E+00	  0.116793588	3.046300E+01	  0.116793588	8.751400E+01	  0.116793588	3.954000E+01
485	  0.116993994	-8.412000E+00	  0.116993994	2.935800E+01	  0.116993994	8.871600E+01	  0.116993994	3.858600E+01
486	  0.117194392	-8.437000E+00	  0.117194392	2.821700E+01	  0.117194392	8.995700E+01	  0.117194392	3.758900E+01
487	  0.117394790	-8.464000E+00	  0.117394790	2.710400E+01	  0.117394790	9.112800E+01	  0.117394790	3.654200E+01
488	  0.117595196	-8.493000E+00	  0.117595196	2.596800E+01	  0.117595196	9.227900E+01	  0.117595196	3.540300E+01
489	  0.117795594	-8.524000E+00	  0.117795594	2.487200E+01	  0.117795594	9.334100E+01	  0.117795594	3.423600E+01
490	  0.117995992	-8.559000E+00	  0.117995992	2.368400E+01	  0.117995992	9.444200E+01	  0.117995992	3.290900E+01
491	  0.118196398	-8.586000E+00	  0.118196398	2.254300E+01	  0.118196398	9.548800E+01	  0.118196398	3.162300E+01
492	  0.118396796	-8.625000E+00	  0.118396796	2.137400E+01	  0.118396796	9.644400E+01	  0.118396796	3.018500E+01
493	  0.118597202	-8.662000E+00	  0.118597202	2.018900E+01	  0.118597202	9.736400E+01	  0.118597202	2.869400E+01
494	  0.118797600	-8.703000E+00	  0.118797600	1.901300E+01	  0.118797600	9.819100E+01	  0.118797600	2.714800E+01
495	  0.118997999	-8.751000E+00	  0.118997999	1.781300E+01	  0.118997999	9.891900E+01	  0.118997999	2.549700E+01
496	  0.119198404	-8.798000E+00	  0.119198404	1.663000E+01	  0.119198404	9.956200E+01	  0.119198404	2.383800E+01
497	  0.119398803	-8.855000E+00	  0.119398803	1.542100E+01	  0.119398803	1.000740E+02	  0.119398803	2.207400E+01
498	  0.119599201	-8.912000E+00	  0.119599201	1.422900E+01	  0.119599201	1.004900E+02	  0.119599201	2.031400E+01
499	  0.119799607	-8.975000E+00	  0.119799607	1.299900E+01	  0.119799607	1.008060E+02	  0.119799607	1.847600E+01
500	  0.120000005	-9.046000E+00	  0.120000005	1.176100E+01	  0.120000005	1.009630E+02	  0.120000005	1.659200E+01
