! Anritsu VNA Master:             	Model: MS2036C/10/77
! SN:             	1601066
! /bd0/18may8/255.ns.m4.txt
! Existing Calibration Information:
! TYPE:             	Current Settings	Active Cal Settings
! TIME:             	05/08/2018 11:07:22 AM	05/08/2018 10:55:57 AM
! INTERNAL TEMP:    	50.8 C	49.3 C
! # POINTS:         	500	500
! START FREQ:       	20.000 MHz	20.000 MHz
! STOP FREQ:        	120.000 MHz	120.000 MHz
! SOURCE POWER:     	High	High
! IFBW:             	50 Hz	50 Hz
! AVG FACTOR:       	  1 	  1 
! REF PLANE 1:      	0 mm	0 mm
! REF PLANE 2:      	0 mm	0 mm
! CAL TYPE:         	Full S11	Full S11
! CAL METHOD:       	SOLT	SOLT
! CAL LINE TYPE:    	Coax	Coax
! DUT PORT 1:       	K-Conn(F)	K-Conn(F)
! DUT PORT 2:       	K-Conn(F)	K-Conn(F)
! CAL STATUS:       	OK: Accuracy High	--
! PROP-V:       	0.700
! CABLE LOSS:       	0.000 dB/m
! REF IMPEDANCE:       	50.0
! Trace Specific Parameters:	TR1	TR2	TR3	TR4
! TRACE.#.Y (GRAPH TYPE)	LOG MAG	PHASE	REAL IMPEDANCE	IMAGINARY IMPEDANCE
! TRACE.#.X 	FREQ.GHZ	FREQ.GHZ	FREQ.GHZ	FREQ.GHZ
! S-PARAMETER	S11	S11	S11	S11
! SMOOTH/APERTURE %	0	0	0	0
! WINDOW	NSL	NSL	NSL	NSL
! GATING	OFF	OFF	OFF	OFF
! FGTD	OFF	OFF	OFF	OFF
Marker Information per Trace:	TR1	TR2	TR3	TR4
!MK1	--	"MK1 TR2:  20.000 MHz,PH:-124.14°"	--	--
!MK2	--	--	"MK2 TR3:  70.100 200 MHz,Z:(17.501 ohm, -3.427 ohm)"	--
!MK3	--	--	--	--
!MK4	--	--	--	--
!MK5	--	--	--	--
!MK6	--	--	--	--
!MK7	--	--	--	--
!MK8	--	--	--	--
PNT	TR1.FREQ.GHZ	TR1.LOG MAG.dB	TR2.FREQ.GHZ	TR2.PHASE.deg	TR3.FREQ.GHZ	TR3.REAL IMPEDANCE.ohm	TR4.FREQ.GHZ	TR4.IMAGINARY IMPEDANCE.ohm
1	  0.020000000	-6.630000E-01	  0.020000000	-1.241410E+02	  0.020000000	2.445000E+00	  0.020000000	-2.645600E+01
2	  0.020200402	-6.660000E-01	  0.020200402	-1.255730E+02	  0.020200402	2.422000E+00	  0.020200402	-2.566300E+01
3	  0.020400802	-6.690000E-01	  0.020400802	-1.270040E+02	  0.020400802	2.405000E+00	  0.020400802	-2.488000E+01
4	  0.020601204	-6.760000E-01	  0.020601204	-1.284590E+02	  0.020601204	2.397000E+00	  0.020601204	-2.409300E+01
5	  0.020801604	-6.830000E-01	  0.020801604	-1.299500E+02	  0.020801604	2.392000E+00	  0.020801604	-2.329700E+01
6	  0.021002004	-6.930000E-01	  0.021002004	-1.314510E+02	  0.021002004	2.399000E+00	  0.021002004	-2.250500E+01
7	  0.021202406	-7.020000E-01	  0.021202406	-1.329850E+02	  0.021202406	2.403000E+00	  0.021202406	-2.170500E+01
8	  0.021402806	-7.110000E-01	  0.021402806	-1.345160E+02	  0.021402806	2.405000E+00	  0.021402806	-2.091600E+01
9	  0.021603208	-7.150000E-01	  0.021603208	-1.360450E+02	  0.021603208	2.393000E+00	  0.021603208	-2.013800E+01
10	  0.021803608	-7.220000E-01	  0.021803608	-1.375780E+02	  0.021803608	2.389000E+00	  0.021803608	-1.936500E+01
11	  0.022004008	-7.250000E-01	  0.022004008	-1.391120E+02	  0.022004008	2.376000E+00	  0.022004008	-1.860100E+01
12	  0.022204408	-7.280000E-01	  0.022204408	-1.406760E+02	  0.022204408	2.362000E+00	  0.022204408	-1.782900E+01
13	  0.022404809	-7.320000E-01	  0.022404809	-1.422460E+02	  0.022404809	2.352000E+00	  0.022404809	-1.706200E+01
14	  0.022605211	-7.370000E-01	  0.022605211	-1.438290E+02	  0.022605211	2.347000E+00	  0.022605211	-1.629500E+01
15	  0.022805611	-7.360000E-01	  0.022805611	-1.454410E+02	  0.022805611	2.321000E+00	  0.022805611	-1.552200E+01
16	  0.023006011	-7.340000E-01	  0.023006011	-1.470330E+02	  0.023006011	2.298000E+00	  0.023006011	-1.476600E+01
17	  0.023206413	-7.300000E-01	  0.023206413	-1.486060E+02	  0.023206413	2.265000E+00	  0.023206413	-1.402400E+01
18	  0.023406813	-7.270000E-01	  0.023406813	-1.501720E+02	  0.023406813	2.240000E+00	  0.023406813	-1.329100E+01
19	  0.023607215	-7.280000E-01	  0.023607215	-1.517450E+02	  0.023607215	2.227000E+00	  0.023607215	-1.256000E+01
20	  0.023807615	-7.290000E-01	  0.023807615	-1.533300E+02	  0.023807615	2.215000E+00	  0.023807615	-1.182900E+01
21	  0.024008015	-7.330000E-01	  0.024008015	-1.549420E+02	  0.024008015	2.213000E+00	  0.024008015	-1.109000E+01
22	  0.024208417	-7.370000E-01	  0.024208417	-1.565550E+02	  0.024208417	2.211000E+00	  0.024208417	-1.035500E+01
23	  0.024408817	-7.380000E-01	  0.024408817	-1.581630E+02	  0.024408817	2.203000E+00	  0.024408817	-9.626000E+00
24	  0.024609219	-7.400000E-01	  0.024609219	-1.597960E+02	  0.024609219	2.198000E+00	  0.024609219	-8.891000E+00
25	  0.024809619	-7.450000E-01	  0.024809619	-1.614100E+02	  0.024809619	2.201000E+00	  0.024809619	-8.167000E+00
26	  0.025010020	-7.510000E-01	  0.025010020	-1.630330E+02	  0.025010020	2.208000E+00	  0.025010020	-7.443000E+00
27	  0.025210422	-7.570000E-01	  0.025210422	-1.646630E+02	  0.025210422	2.219000E+00	  0.025210422	-6.718000E+00
28	  0.025410822	-7.660000E-01	  0.025410822	-1.663140E+02	  0.025410822	2.235000E+00	  0.025410822	-5.988000E+00
29	  0.025611224	-7.750000E-01	  0.025611224	-1.679820E+02	  0.025611224	2.254000E+00	  0.025611224	-5.252000E+00
30	  0.025811624	-7.840000E-01	  0.025811624	-1.696650E+02	  0.025811624	2.276000E+00	  0.025811624	-4.512000E+00
31	  0.026012026	-7.930000E-01	  0.026012026	-1.713660E+02	  0.026012026	2.294000E+00	  0.026012026	-3.766000E+00
32	  0.026212426	-8.000000E-01	  0.026212426	-1.730690E+02	  0.026212426	2.310000E+00	  0.026212426	-3.021000E+00
33	  0.026412826	-8.150000E-01	  0.026412826	-1.747760E+02	  0.026412826	2.349000E+00	  0.026412826	-2.275000E+00
34	  0.026613226	-8.280000E-01	  0.026613226	-1.765020E+02	  0.026613226	2.384000E+00	  0.026613226	-1.523000E+00
35	  0.026813626	-8.450000E-01	  0.026813626	-1.782410E+02	  0.026813626	2.430000E+00	  0.026813626	-7.650000E-01
36	  0.027014028	-8.620000E-01	  0.027014028	-1.799860E+02	  0.027014028	2.479000E+00	  0.027014028	-5.000000E-03
37	  0.027214428	-8.800000E-01	  0.027214428	1.782510E+02	  0.027214428	2.532000E+00	  0.027214428	7.600000E-01
38	  0.027414829	-8.980000E-01	  0.027414829	1.764650E+02	  0.027414829	2.586000E+00	  0.027414829	1.538000E+00
39	  0.027615231	-9.180000E-01	  0.027615231	1.746770E+02	  0.027615231	2.647000E+00	  0.027615231	2.317000E+00
40	  0.027815631	-9.410000E-01	  0.027815631	1.728740E+02	  0.027815631	2.718000E+00	  0.027815631	3.103000E+00
41	  0.028016033	-9.650000E-01	  0.028016033	1.710500E+02	  0.028016033	2.792000E+00	  0.028016033	3.900000E+00
42	  0.028216433	-9.900000E-01	  0.028216433	1.692220E+02	  0.028216433	2.871000E+00	  0.028216433	4.700000E+00
43	  0.028416833	-1.015000E+00	  0.028416833	1.673790E+02	  0.028416833	2.954000E+00	  0.028416833	5.510000E+00
44	  0.028617235	-1.039000E+00	  0.028617235	1.655460E+02	  0.028617235	3.036000E+00	  0.028617235	6.316000E+00
45	  0.028817635	-1.061000E+00	  0.028817635	1.637030E+02	  0.028817635	3.113000E+00	  0.028817635	7.131000E+00
46	  0.029018037	-1.085000E+00	  0.029018037	1.618820E+02	  0.029018037	3.197000E+00	  0.029018037	7.939000E+00
47	  0.029218437	-1.108000E+00	  0.029218437	1.600520E+02	  0.029218437	3.285000E+00	  0.029218437	8.755000E+00
48	  0.029418837	-1.133000E+00	  0.029418837	1.582260E+02	  0.029418837	3.378000E+00	  0.029418837	9.574000E+00
49	  0.029619239	-1.160000E+00	  0.029619239	1.563780E+02	  0.029619239	3.481000E+00	  0.029619239	1.040600E+01
50	  0.029819639	-1.190000E+00	  0.029819639	1.545180E+02	  0.029819639	3.594000E+00	  0.029819639	1.124900E+01
51	  0.030020041	-1.221000E+00	  0.030020041	1.526250E+02	  0.030020041	3.715000E+00	  0.030020041	1.211300E+01
52	  0.030220442	-1.249000E+00	  0.030220442	1.507190E+02	  0.030220442	3.835000E+00	  0.030220442	1.298900E+01
53	  0.030420844	-1.276000E+00	  0.030420844	1.488150E+02	  0.030420844	3.952000E+00	  0.030420844	1.387100E+01
54	  0.030621244	-1.306000E+00	  0.030621244	1.469150E+02	  0.030621244	4.082000E+00	  0.030621244	1.475900E+01
55	  0.030821644	-1.336000E+00	  0.030821644	1.450330E+02	  0.030821644	4.218000E+00	  0.030821644	1.564600E+01
56	  0.031022044	-1.368000E+00	  0.031022044	1.431280E+02	  0.031022044	4.364000E+00	  0.031022044	1.655200E+01
57	  0.031222444	-1.398000E+00	  0.031222444	1.412190E+02	  0.031222444	4.509000E+00	  0.031222444	1.747000E+01
58	  0.031422846	-1.430000E+00	  0.031422846	1.392610E+02	  0.031422846	4.670000E+00	  0.031422846	1.842200E+01
59	  0.031623244	-1.463000E+00	  0.031623244	1.373030E+02	  0.031623244	4.840000E+00	  0.031623244	1.938300E+01
60	  0.031823646	-1.495000E+00	  0.031823646	1.353160E+02	  0.031823646	5.014000E+00	  0.031823646	2.037100E+01
61	  0.032024048	-1.526000E+00	  0.032024048	1.333560E+02	  0.032024048	5.187000E+00	  0.032024048	2.136000E+01
62	  0.032224450	-1.554000E+00	  0.032224450	1.313820E+02	  0.032224450	5.365000E+00	  0.032224450	2.236800E+01
63	  0.032424849	-1.583000E+00	  0.032424849	1.294230E+02	  0.032424849	5.548000E+00	  0.032424849	2.338300E+01
64	  0.032625251	-1.614000E+00	  0.032625251	1.274330E+02	  0.032625251	5.750000E+00	  0.032625251	2.442900E+01
65	  0.032825653	-1.646000E+00	  0.032825653	1.254810E+02	  0.032825653	5.964000E+00	  0.032825653	2.547100E+01
66	  0.033026051	-1.679000E+00	  0.033026051	1.235270E+02	  0.033026051	6.193000E+00	  0.033026051	2.653000E+01
67	  0.033226453	-1.721000E+00	  0.033226453	1.215520E+02	  0.033226453	6.463000E+00	  0.033226453	2.761400E+01
68	  0.033426855	-1.762000E+00	  0.033426855	1.195590E+02	  0.033426855	6.748000E+00	  0.033426855	2.872600E+01
69	  0.033627257	-1.810000E+00	  0.033627257	1.175640E+02	  0.033627257	7.073000E+00	  0.033627257	2.985700E+01
70	  0.033827655	-1.861000E+00	  0.033827655	1.155380E+02	  0.033827655	7.425000E+00	  0.033827655	3.102400E+01
71	  0.034028057	-1.908000E+00	  0.034028057	1.134530E+02	  0.034028057	7.787000E+00	  0.034028057	3.225100E+01
72	  0.034228459	-1.956000E+00	  0.034228459	1.113820E+02	  0.034228459	8.168000E+00	  0.034228459	3.349300E+01
73	  0.034428857	-2.004000E+00	  0.034428857	1.092410E+02	  0.034428857	8.584000E+00	  0.034428857	3.480500E+01
74	  0.034629259	-2.048000E+00	  0.034629259	1.071120E+02	  0.034629259	9.003000E+00	  0.034629259	3.614100E+01
75	  0.034829661	-2.096000E+00	  0.034829661	1.049860E+02	  0.034829661	9.462000E+00	  0.034829661	3.750300E+01
76	  0.035030060	-2.141000E+00	  0.035030060	1.028860E+02	  0.035030060	9.932000E+00	  0.035030060	3.888200E+01
77	  0.035230462	-2.185000E+00	  0.035230462	1.007610E+02	  0.035230462	1.043100E+01	  0.035230462	4.031100E+01
78	  0.035430863	-2.228000E+00	  0.035430863	9.868000E+01	  0.035430863	1.095200E+01	  0.035430863	4.174500E+01
79	  0.035631265	-2.273000E+00	  0.035631265	9.661000E+01	  0.035631265	1.151700E+01	  0.035631265	4.320400E+01
80	  0.035831664	-2.319000E+00	  0.035831664	9.454800E+01	  0.035831664	1.211700E+01	  0.035831664	4.469400E+01
81	  0.036032066	-2.367000E+00	  0.036032066	9.251900E+01	  0.036032066	1.275900E+01	  0.036032066	4.619400E+01
82	  0.036232468	-2.421000E+00	  0.036232468	9.047500E+01	  0.036232468	1.348000E+01	  0.036232468	4.773500E+01
83	  0.036432866	-2.471000E+00	  0.036432866	8.845900E+01	  0.036432866	1.422100E+01	  0.036432866	4.929800E+01
84	  0.036633268	-2.528000E+00	  0.036633268	8.644500E+01	  0.036633268	1.505100E+01	  0.036633268	5.088700E+01
85	  0.036833670	-2.591000E+00	  0.036833670	8.444300E+01	  0.036833670	1.597100E+01	  0.036833670	5.249300E+01
86	  0.037034072	-2.653000E+00	  0.037034072	8.242900E+01	  0.037034072	1.694700E+01	  0.037034072	5.415200E+01
87	  0.037234470	-2.721000E+00	  0.037234470	8.036100E+01	  0.037234470	1.805500E+01	  0.037234470	5.588400E+01
88	  0.037434869	-2.789000E+00	  0.037434869	7.829000E+01	  0.037434869	1.923600E+01	  0.037434869	5.766400E+01
89	  0.037635271	-2.856000E+00	  0.037635271	7.622300E+01	  0.037635271	2.050300E+01	  0.037635271	5.948100E+01
90	  0.037835669	-2.925000E+00	  0.037835669	7.411300E+01	  0.037835669	2.190300E+01	  0.037835669	6.137600E+01
91	  0.038036071	-2.990000E+00	  0.038036071	7.198700E+01	  0.038036071	2.338800E+01	  0.038036071	6.334600E+01
92	  0.038236473	-3.055000E+00	  0.038236473	6.986200E+01	  0.038236473	2.499500E+01	  0.038236473	6.536000E+01
93	  0.038436871	-3.117000E+00	  0.038436871	6.772400E+01	  0.038436871	2.672400E+01	  0.038436871	6.744200E+01
94	  0.038637273	-3.174000E+00	  0.038637273	6.559600E+01	  0.038637273	2.855300E+01	  0.038637273	6.958100E+01
95	  0.038837675	-3.224000E+00	  0.038837675	6.348000E+01	  0.038837675	3.047300E+01	  0.038837675	7.178900E+01
96	  0.039038073	-3.273000E+00	  0.039038073	6.138400E+01	  0.039038073	3.254000E+01	  0.039038073	7.402400E+01
97	  0.039238475	-3.322000E+00	  0.039238475	5.931400E+01	  0.039238475	3.476100E+01	  0.039238475	7.627600E+01
98	  0.039438877	-3.376000E+00	  0.039438877	5.728200E+01	  0.039438877	3.718000E+01	  0.039438877	7.848200E+01
99	  0.039639279	-3.431000E+00	  0.039639279	5.524900E+01	  0.039639279	3.982400E+01	  0.039639279	8.069900E+01
100	  0.039839678	-3.489000E+00	  0.039839678	5.319200E+01	  0.039839678	4.274300E+01	  0.039839678	8.294200E+01
101	  0.040040080	-3.547000E+00	  0.040040080	5.111600E+01	  0.040040080	4.595000E+01	  0.040040080	8.520200E+01
102	  0.040240481	-3.606000E+00	  0.040240481	4.903900E+01	  0.040240481	4.946400E+01	  0.040240481	8.741600E+01
103	  0.040440880	-3.670000E+00	  0.040440880	4.695600E+01	  0.040440880	5.333000E+01	  0.040440880	8.954800E+01
104	  0.040641282	-3.729000E+00	  0.040641282	4.485100E+01	  0.040641282	5.753700E+01	  0.040641282	9.167800E+01
105	  0.040841684	-3.781000E+00	  0.040841684	4.276100E+01	  0.040841684	6.203800E+01	  0.040841684	9.374700E+01
106	  0.041042086	-3.839000E+00	  0.041042086	4.068600E+01	  0.041042086	6.694300E+01	  0.041042086	9.558700E+01
107	  0.041242484	-3.890000E+00	  0.041242484	3.860000E+01	  0.041242484	7.224200E+01	  0.041242484	9.732900E+01
108	  0.041442886	-3.943000E+00	  0.041442886	3.651200E+01	  0.041442886	7.800500E+01	  0.041442886	9.879300E+01
109	  0.041643288	-3.995000E+00	  0.041643288	3.441400E+01	  0.041643288	8.425500E+01	  0.041643288	9.995800E+01
110	  0.041843686	-4.046000E+00	  0.041843686	3.235000E+01	  0.041843686	9.087400E+01	  0.041843686	1.006920E+02
111	  0.042044088	-4.091000E+00	  0.042044088	3.028900E+01	  0.042044088	9.791700E+01	  0.042044088	1.010710E+02
112	  0.042244490	-4.138000E+00	  0.042244490	2.827000E+01	  0.042244490	1.052770E+02	  0.042244490	1.007990E+02
113	  0.042444889	-4.187000E+00	  0.042444889	2.626700E+01	  0.042444889	1.129690E+02	  0.042444889	9.978700E+01
114	  0.042645290	-4.236000E+00	  0.042645290	2.428500E+01	  0.042645290	1.208960E+02	  0.042645290	9.801300E+01
115	  0.042845692	-4.284000E+00	  0.042845692	2.232200E+01	  0.042845692	1.289700E+02	  0.042845692	9.540100E+01
116	  0.043046094	-4.332000E+00	  0.043046094	2.035700E+01	  0.043046094	1.371660E+02	  0.043046094	9.182000E+01
117	  0.043246493	-4.381000E+00	  0.043246493	1.838200E+01	  0.043246493	1.453540E+02	  0.043246493	8.713100E+01
118	  0.043446895	-4.431000E+00	  0.043446895	1.646400E+01	  0.043446895	1.530550E+02	  0.043446895	8.144900E+01
119	  0.043647297	-4.479000E+00	  0.043647297	1.452200E+01	  0.043647297	1.604700E+02	  0.043647297	7.466900E+01
120	  0.043847695	-4.533000E+00	  0.043847695	1.259700E+01	  0.043847695	1.670610E+02	  0.043847695	6.673900E+01
121	  0.044048097	-4.585000E+00	  0.044048097	1.068600E+01	  0.044048097	1.727850E+02	  0.044048097	5.796100E+01
122	  0.044248499	-4.639000E+00	  0.044248499	8.795000E+00	  0.044248499	1.773650E+02	  0.044248499	4.844000E+01
123	  0.044448901	-4.694000E+00	  0.044448901	6.889000E+00	  0.044448901	1.807880E+02	  0.044448901	3.824000E+01
124	  0.044649299	-4.743000E+00	  0.044649299	4.997000E+00	  0.044649299	1.830870E+02	  0.044649299	2.780100E+01
125	  0.044849701	-4.795000E+00	  0.044849701	3.090000E+00	  0.044849701	1.839880E+02	  0.044849701	1.708400E+01
126	  0.045050103	-4.842000E+00	  0.045050103	1.205000E+00	  0.045050103	1.837230E+02	  0.045050103	6.583000E+00
127	  0.045250501	-4.889000E+00	  0.045250501	-6.840000E-01	  0.045250501	1.822190E+02	  0.045250501	-3.669000E+00
128	  0.045450903	-4.933000E+00	  0.045450903	-2.571000E+00	  0.045450903	1.796700E+02	  0.045450903	-1.345500E+01
129	  0.045651305	-4.979000E+00	  0.045651305	-4.431000E+00	  0.045651305	1.760550E+02	  0.045651305	-2.247500E+01
130	  0.045851704	-5.026000E+00	  0.045851704	-6.279000E+00	  0.045851704	1.716160E+02	  0.045851704	-3.069400E+01
131	  0.046052106	-5.074000E+00	  0.046052106	-8.149000E+00	  0.046052106	1.664370E+02	  0.046052106	-3.817500E+01
132	  0.046252504	-5.117000E+00	  0.046252504	-9.984000E+00	  0.046252504	1.609670E+02	  0.046252504	-4.473900E+01
133	  0.046452906	-5.162000E+00	  0.046452906	-1.183500E+01	  0.046452906	1.550420E+02	  0.046452906	-5.047400E+01
134	  0.046653304	-5.202000E+00	  0.046653304	-1.370100E+01	  0.046653304	1.489790E+02	  0.046653304	-5.553400E+01
135	  0.046853706	-5.240000E+00	  0.046853706	-1.555400E+01	  0.046853706	1.428530E+02	  0.046853706	-5.979800E+01
136	  0.047054108	-5.275000E+00	  0.047054108	-1.738600E+01	  0.047054108	1.368050E+02	  0.047054108	-6.333300E+01
137	  0.047254506	-5.311000E+00	  0.047254506	-1.924100E+01	  0.047254506	1.307240E+02	  0.047254506	-6.623600E+01
138	  0.047454908	-5.344000E+00	  0.047454908	-2.108200E+01	  0.047454908	1.248420E+02	  0.047454908	-6.857600E+01
139	  0.047655310	-5.372000E+00	  0.047655310	-2.288600E+01	  0.047655310	1.192540E+02	  0.047655310	-7.040600E+01
140	  0.047855709	-5.398000E+00	  0.047855709	-2.467600E+01	  0.047855709	1.138920E+02	  0.047855709	-7.179000E+01
141	  0.048056111	-5.427000E+00	  0.048056111	-2.646000E+01	  0.048056111	1.087270E+02	  0.048056111	-7.271300E+01
142	  0.048256513	-5.455000E+00	  0.048256513	-2.825400E+01	  0.048256513	1.037580E+02	  0.048256513	-7.328800E+01
143	  0.048456915	-5.478000E+00	  0.048456915	-3.002000E+01	  0.048456915	9.910100E+01	  0.048456915	-7.363100E+01
144	  0.048657313	-5.503000E+00	  0.048657313	-3.179500E+01	  0.048657313	9.463800E+01	  0.048657313	-7.367200E+01
145	  0.048857715	-5.524000E+00	  0.048857715	-3.355300E+01	  0.048857715	9.044300E+01	  0.048857715	-7.353700E+01
146	  0.049058117	-5.545000E+00	  0.049058117	-3.533600E+01	  0.049058117	8.640700E+01	  0.049058117	-7.320300E+01
147	  0.049258515	-5.564000E+00	  0.049258515	-3.707500E+01	  0.049258515	8.267700E+01	  0.049258515	-7.272300E+01
148	  0.049458917	-5.582000E+00	  0.049458917	-3.877500E+01	  0.049458917	7.922200E+01	  0.049458917	-7.213400E+01
149	  0.049659319	-5.601000E+00	  0.049659319	-4.050000E+01	  0.049659319	7.590800E+01	  0.049659319	-7.138900E+01
150	  0.049859721	-5.621000E+00	  0.049859721	-4.219600E+01	  0.049859721	7.282900E+01	  0.049859721	-7.055500E+01
151	  0.050060119	-5.642000E+00	  0.050060119	-4.388700E+01	  0.050060119	6.993200E+01	  0.050060119	-6.962400E+01
152	  0.050260521	-5.655000E+00	  0.050260521	-4.558800E+01	  0.050260521	6.715700E+01	  0.050260521	-6.871200E+01
153	  0.050460923	-5.670000E+00	  0.050460923	-4.725900E+01	  0.050460923	6.458300E+01	  0.050460923	-6.774100E+01
154	  0.050661322	-5.685000E+00	  0.050661322	-4.894000E+01	  0.050661322	6.213400E+01	  0.050661322	-6.671300E+01
155	  0.050861724	-5.701000E+00	  0.050861724	-5.058700E+01	  0.050861724	5.987100E+01	  0.050861724	-6.565600E+01
156	  0.051062126	-5.712000E+00	  0.051062126	-5.221100E+01	  0.051062126	5.774500E+01	  0.051062126	-6.462200E+01
157	  0.051262524	-5.727000E+00	  0.051262524	-5.380200E+01	  0.051262524	5.578100E+01	  0.051262524	-6.355800E+01
158	  0.051462926	-5.739000E+00	  0.051462926	-5.536900E+01	  0.051462926	5.393900E+01	  0.051462926	-6.251300E+01
159	  0.051663328	-5.754000E+00	  0.051663328	-5.690600E+01	  0.051663328	5.223400E+01	  0.051663328	-6.145400E+01
160	  0.051863730	-5.773000E+00	  0.051863730	-5.845800E+01	  0.051863730	5.061600E+01	  0.051863730	-6.035100E+01
161	  0.052064128	-5.792000E+00	  0.052064128	-5.999700E+01	  0.052064128	4.909000E+01	  0.052064128	-5.926000E+01
162	  0.052264530	-5.812000E+00	  0.052264530	-6.152500E+01	  0.052264530	4.765900E+01	  0.052264530	-5.816700E+01
163	  0.052464932	-5.832000E+00	  0.052464932	-6.305300E+01	  0.052464932	4.629900E+01	  0.052464932	-5.707800E+01
164	  0.052665330	-5.857000E+00	  0.052665330	-6.462500E+01	  0.052665330	4.498800E+01	  0.052665330	-5.593900E+01
165	  0.052865732	-5.881000E+00	  0.052865732	-6.614000E+01	  0.052865732	4.378700E+01	  0.052865732	-5.485100E+01
166	  0.053066134	-5.904000E+00	  0.053066134	-6.766900E+01	  0.053066134	4.262800E+01	  0.053066134	-5.377200E+01
167	  0.053266536	-5.927000E+00	  0.053266536	-6.923100E+01	  0.053266536	4.150100E+01	  0.053266536	-5.268300E+01
168	  0.053466935	-5.944000E+00	  0.053466935	-7.075500E+01	  0.053466935	4.043600E+01	  0.053466935	-5.165400E+01
169	  0.053667337	-5.962000E+00	  0.053667337	-7.231400E+01	  0.053667337	3.939900E+01	  0.053667337	-5.061100E+01
170	  0.053867739	-5.975000E+00	  0.053867739	-7.382600E+01	  0.053867739	3.842300E+01	  0.053867739	-4.962700E+01
171	  0.054068137	-5.991000E+00	  0.054068137	-7.531700E+01	  0.054068137	3.751400E+01	  0.054068137	-4.865700E+01
172	  0.054268539	-6.005000E+00	  0.054268539	-7.681100E+01	  0.054268539	3.663800E+01	  0.054268539	-4.770100E+01
173	  0.054468941	-6.021000E+00	  0.054468941	-7.828300E+01	  0.054468941	3.582100E+01	  0.054468941	-4.676000E+01
174	  0.054669339	-6.039000E+00	  0.054669339	-7.975100E+01	  0.054669339	3.505200E+01	  0.054669339	-4.582300E+01
175	  0.054869737	-6.051000E+00	  0.054869737	-8.121400E+01	  0.054869737	3.429400E+01	  0.054869737	-4.492400E+01
176	  0.055070139	-6.067000E+00	  0.055070139	-8.264900E+01	  0.055070139	3.359800E+01	  0.055070139	-4.403600E+01
177	  0.055270538	-6.080000E+00	  0.055270538	-8.408400E+01	  0.055270538	3.292400E+01	  0.055270538	-4.316400E+01
178	  0.055470940	-6.096000E+00	  0.055470940	-8.552300E+01	  0.055470940	3.228300E+01	  0.055470940	-4.229500E+01
179	  0.055671342	-6.105000E+00	  0.055671342	-8.695400E+01	  0.055671342	3.164600E+01	  0.055671342	-4.146100E+01
180	  0.055871744	-6.117000E+00	  0.055871744	-8.840900E+01	  0.055871744	3.104000E+01	  0.055871744	-4.061100E+01
181	  0.056072142	-6.127000E+00	  0.056072142	-8.985000E+01	  0.056072142	3.045200E+01	  0.056072142	-3.978700E+01
182	  0.056272544	-6.138000E+00	  0.056272544	-9.127800E+01	  0.056272544	2.990300E+01	  0.056272544	-3.897200E+01
183	  0.056472946	-6.146000E+00	  0.056472946	-9.270600E+01	  0.056472946	2.935900E+01	  0.056472946	-3.817700E+01
184	  0.056673344	-6.148000E+00	  0.056673344	-9.412600E+01	  0.056673344	2.882100E+01	  0.056673344	-3.740800E+01
185	  0.056873746	-6.151000E+00	  0.056873746	-9.553900E+01	  0.056873746	2.831200E+01	  0.056873746	-3.664600E+01
186	  0.057074148	-6.148000E+00	  0.057074148	-9.693800E+01	  0.057074148	2.780300E+01	  0.057074148	-3.591400E+01
187	  0.057274550	-6.148000E+00	  0.057274550	-9.833900E+01	  0.057274550	2.732300E+01	  0.057274550	-3.518000E+01
188	  0.057474948	-6.141000E+00	  0.057474948	-9.972500E+01	  0.057474948	2.684500E+01	  0.057474948	-3.447400E+01
189	  0.057675350	-6.138000E+00	  0.057675350	-1.010800E+02	  0.057675350	2.640500E+01	  0.057675350	-3.378100E+01
190	  0.057875752	-6.131000E+00	  0.057875752	-1.024120E+02	  0.057875752	2.597400E+01	  0.057875752	-3.311300E+01
191	  0.058076151	-6.128000E+00	  0.058076151	-1.037240E+02	  0.058076151	2.557500E+01	  0.058076151	-3.245400E+01
192	  0.058276553	-6.119000E+00	  0.058276553	-1.049980E+02	  0.058276553	2.518200E+01	  0.058276553	-3.182800E+01
193	  0.058476955	-6.115000E+00	  0.058476955	-1.062570E+02	  0.058476955	2.482500E+01	  0.058476955	-3.120400E+01
194	  0.058677353	-6.115000E+00	  0.058677353	-1.075430E+02	  0.058677353	2.448000E+01	  0.058677353	-3.056700E+01
195	  0.058877755	-6.113000E+00	  0.058877755	-1.088000E+02	  0.058877755	2.415300E+01	  0.058877755	-2.995000E+01
196	  0.059078157	-6.107000E+00	  0.059078157	-1.100320E+02	  0.059078157	2.382600E+01	  0.059078157	-2.935700E+01
197	  0.059278559	-6.109000E+00	  0.059278559	-1.112590E+02	  0.059278559	2.354000E+01	  0.059278559	-2.875700E+01
198	  0.059478957	-6.110000E+00	  0.059478957	-1.125260E+02	  0.059478957	2.324600E+01	  0.059478957	-2.814600E+01
199	  0.059679359	-6.111000E+00	  0.059679359	-1.137760E+02	  0.059679359	2.297200E+01	  0.059679359	-2.754500E+01
200	  0.059879761	-6.115000E+00	  0.059879761	-1.149870E+02	  0.059879761	2.271800E+01	  0.059879761	-2.696500E+01
201	  0.060080159	-6.117000E+00	  0.060080159	-1.161880E+02	  0.060080159	2.247400E+01	  0.060080159	-2.639500E+01
202	  0.060280561	-6.119000E+00	  0.060280561	-1.174120E+02	  0.060280561	2.223100E+01	  0.060280561	-2.581900E+01
203	  0.060480963	-6.126000E+00	  0.060480963	-1.186260E+02	  0.060480963	2.201200E+01	  0.060480963	-2.524600E+01
204	  0.060681365	-6.129000E+00	  0.060681365	-1.198410E+02	  0.060681365	2.178800E+01	  0.060681365	-2.468300E+01
205	  0.060881764	-6.134000E+00	  0.060881764	-1.210400E+02	  0.060881764	2.158400E+01	  0.060881764	-2.412600E+01
206	  0.061082166	-6.138000E+00	  0.061082166	-1.222530E+02	  0.061082166	2.137800E+01	  0.061082166	-2.357000E+01
207	  0.061282568	-6.138000E+00	  0.061282568	-1.234650E+02	  0.061282568	2.116900E+01	  0.061282568	-2.302200E+01
208	  0.061482966	-6.147000E+00	  0.061482966	-1.246370E+02	  0.061482966	2.099900E+01	  0.061482966	-2.248600E+01
209	  0.061683368	-6.154000E+00	  0.061683368	-1.258140E+02	  0.061683368	2.082900E+01	  0.061683368	-2.195300E+01
210	  0.061883770	-6.159000E+00	  0.061883770	-1.269880E+02	  0.061883770	2.065800E+01	  0.061883770	-2.142800E+01
211	  0.062084168	-6.169000E+00	  0.062084168	-1.281600E+02	  0.062084168	2.050800E+01	  0.062084168	-2.090200E+01
212	  0.062284570	-6.177000E+00	  0.062284570	-1.293330E+02	  0.062284570	2.036000E+01	  0.062284570	-2.038000E+01
213	  0.062484972	-6.180000E+00	  0.062484972	-1.304730E+02	  0.062484972	2.020700E+01	  0.062484972	-1.988000E+01
214	  0.062685370	-6.192000E+00	  0.062685370	-1.316650E+02	  0.062685370	2.007700E+01	  0.062685370	-1.935400E+01
215	  0.062885776	-6.201000E+00	  0.062885776	-1.328230E+02	  0.062885776	1.994600E+01	  0.062885776	-1.884800E+01
216	  0.063086174	-6.208000E+00	  0.063086174	-1.340370E+02	  0.063086174	1.981000E+01	  0.063086174	-1.832300E+01
217	  0.063286573	-6.214000E+00	  0.063286573	-1.352400E+02	  0.063286573	1.967700E+01	  0.063286573	-1.780600E+01
218	  0.063486971	-6.224000E+00	  0.063486971	-1.364290E+02	  0.063486971	1.956200E+01	  0.063486971	-1.729600E+01
219	  0.063687377	-6.227000E+00	  0.063687377	-1.375990E+02	  0.063687377	1.943500E+01	  0.063687377	-1.680100E+01
220	  0.063887775	-6.229000E+00	  0.063887775	-1.388060E+02	  0.063887775	1.930400E+01	  0.063887775	-1.629500E+01
221	  0.064088173	-6.226000E+00	  0.064088173	-1.400030E+02	  0.064088173	1.916700E+01	  0.064088173	-1.579800E+01
222	  0.064288579	-6.230000E+00	  0.064288579	-1.411540E+02	  0.064288579	1.906000E+01	  0.064288579	-1.531700E+01
223	  0.064488977	-6.231000E+00	  0.064488977	-1.422840E+02	  0.064488977	1.894900E+01	  0.064488977	-1.485000E+01
224	  0.064689375	-6.234000E+00	  0.064689375	-1.434400E+02	  0.064689375	1.884600E+01	  0.064689375	-1.437300E+01
225	  0.064889781	-6.233000E+00	  0.064889781	-1.445750E+02	  0.064889781	1.873800E+01	  0.064889781	-1.390800E+01
226	  0.065090179	-6.233000E+00	  0.065090179	-1.456680E+02	  0.065090179	1.864000E+01	  0.065090179	-1.346200E+01
227	  0.065290578	-6.232000E+00	  0.065290578	-1.467970E+02	  0.065290578	1.854200E+01	  0.065290578	-1.300400E+01
228	  0.065490983	-6.228000E+00	  0.065490983	-1.478800E+02	  0.065490983	1.844000E+01	  0.065490983	-1.256800E+01
229	  0.065691382	-6.222000E+00	  0.065691382	-1.489370E+02	  0.065691382	1.834200E+01	  0.065691382	-1.214300E+01
230	  0.065891780	-6.225000E+00	  0.065891780	-1.500550E+02	  0.065891780	1.826400E+01	  0.065891780	-1.169200E+01
231	  0.066092186	-6.228000E+00	  0.066092186	-1.511030E+02	  0.066092186	1.819400E+01	  0.066092186	-1.127000E+01
232	  0.066292584	-6.228000E+00	  0.066292584	-1.521600E+02	  0.066292584	1.812100E+01	  0.066292584	-1.084700E+01
233	  0.066492982	-6.223000E+00	  0.066492982	-1.532100E+02	  0.066492982	1.803700E+01	  0.066492982	-1.043000E+01
234	  0.066693388	-6.225000E+00	  0.066693388	-1.542840E+02	  0.066693388	1.797300E+01	  0.066693388	-1.000200E+01
235	  0.066893786	-6.227000E+00	  0.066893786	-1.552660E+02	  0.066893786	1.791700E+01	  0.066893786	-9.611000E+00
236	  0.067094192	-6.227000E+00	  0.067094192	-1.562810E+02	  0.067094192	1.786000E+01	  0.067094192	-9.209000E+00
237	  0.067294590	-6.227000E+00	  0.067294590	-1.573270E+02	  0.067294590	1.780100E+01	  0.067294590	-8.796000E+00
238	  0.067494988	-6.234000E+00	  0.067494988	-1.583340E+02	  0.067494988	1.776500E+01	  0.067494988	-8.397000E+00
239	  0.067695394	-6.227000E+00	  0.067695394	-1.593450E+02	  0.067695394	1.769400E+01	  0.067695394	-8.002000E+00
240	  0.067895792	-6.239000E+00	  0.067895792	-1.603270E+02	  0.067895792	1.767800E+01	  0.067895792	-7.613000E+00
241	  0.068096191	-6.243000E+00	  0.068096191	-1.613370E+02	  0.068096191	1.764200E+01	  0.068096191	-7.216000E+00
242	  0.068296596	-6.247000E+00	  0.068296596	-1.623080E+02	  0.068296596	1.761100E+01	  0.068296596	-6.836000E+00
243	  0.068496995	-6.252000E+00	  0.068496995	-1.633090E+02	  0.068496995	1.758200E+01	  0.068496995	-6.444000E+00
244	  0.068697393	-6.258000E+00	  0.068697393	-1.642600E+02	  0.068697393	1.756200E+01	  0.068697393	-6.072000E+00
245	  0.068897791	-6.265000E+00	  0.068897791	-1.652370E+02	  0.068897791	1.754400E+01	  0.068897791	-5.691000E+00
246	  0.069098189	-6.266000E+00	  0.069098189	-1.662270E+02	  0.069098189	1.751400E+01	  0.069098189	-5.306000E+00
247	  0.069298595	-6.277000E+00	  0.069298595	-1.671690E+02	  0.069298595	1.751200E+01	  0.069298595	-4.939000E+00
248	  0.069498993	-6.281000E+00	  0.069498993	-1.681350E+02	  0.069498993	1.749500E+01	  0.069498993	-4.565000E+00
249	  0.069699399	-6.295000E+00	  0.069699399	-1.691470E+02	  0.069699399	1.750300E+01	  0.069699399	-4.172000E+00
250	  0.069899797	-6.308000E+00	  0.069899797	-1.700980E+02	  0.069899797	1.751200E+01	  0.069899797	-3.803000E+00
251	  0.070100196	-6.312000E+00	  0.070100196	-1.710730E+02	  0.070100196	1.750100E+01	  0.070100196	-3.427000E+00
252	  0.070300601	-6.326000E+00	  0.070300601	-1.720320E+02	  0.070300601	1.751900E+01	  0.070300601	-3.056000E+00
253	  0.070501000	-6.331000E+00	  0.070501000	-1.730220E+02	  0.070501000	1.751500E+01	  0.070501000	-2.675000E+00
254	  0.070701398	-6.335000E+00	  0.070701398	-1.740020E+02	  0.070701398	1.751000E+01	  0.070701398	-2.298000E+00
255	  0.070901804	-6.344000E+00	  0.070901804	-1.749590E+02	  0.070901804	1.752000E+01	  0.070901804	-1.931000E+00
256	  0.071102202	-6.357000E+00	  0.071102202	-1.759250E+02	  0.071102202	1.754200E+01	  0.071102202	-1.559000E+00
257	  0.071302600	-6.362000E+00	  0.071302600	-1.769230E+02	  0.071302600	1.754600E+01	  0.071302600	-1.177000E+00
258	  0.071503006	-6.373000E+00	  0.071503006	-1.778920E+02	  0.071503006	1.756900E+01	  0.071503006	-8.060000E-01
259	  0.071703404	-6.383000E+00	  0.071703404	-1.788440E+02	  0.071703404	1.758900E+01	  0.071703404	-4.410000E-01
260	  0.071903802	-6.389000E+00	  0.071903802	-1.798170E+02	  0.071903802	1.760300E+01	  0.071903802	-6.900000E-02
261	  0.072104208	-6.396000E+00	  0.072104208	1.792270E+02	  0.072104208	1.762300E+01	  0.072104208	2.950000E-01
262	  0.072304606	-6.404000E+00	  0.072304606	1.782660E+02	  0.072304606	1.764600E+01	  0.072304606	6.620000E-01
263	  0.072505005	-6.408000E+00	  0.072505005	1.773280E+02	  0.072505005	1.765900E+01	  0.072505005	1.020000E+00
264	  0.072705410	-6.417000E+00	  0.072705410	1.763260E+02	  0.072705410	1.768900E+01	  0.072705410	1.402000E+00
265	  0.072905809	-6.421000E+00	  0.072905809	1.753930E+02	  0.072905809	1.771000E+01	  0.072905809	1.759000E+00
266	  0.073106214	-6.429000E+00	  0.073106214	1.744370E+02	  0.073106214	1.774000E+01	  0.073106214	2.123000E+00
267	  0.073306613	-6.432000E+00	  0.073306613	1.735170E+02	  0.073306613	1.776100E+01	  0.073306613	2.475000E+00
268	  0.073507011	-6.436000E+00	  0.073507011	1.725720E+02	  0.073507011	1.778700E+01	  0.073507011	2.836000E+00
269	  0.073707417	-6.444000E+00	  0.073707417	1.716180E+02	  0.073707417	1.782400E+01	  0.073707417	3.200000E+00
270	  0.073907815	-6.446000E+00	  0.073907815	1.706960E+02	  0.073907815	1.784800E+01	  0.073907815	3.552000E+00
271	  0.074108213	-6.444000E+00	  0.074108213	1.697930E+02	  0.074108213	1.786500E+01	  0.074108213	3.899000E+00
272	  0.074308619	-6.446000E+00	  0.074308619	1.688800E+02	  0.074308619	1.789200E+01	  0.074308619	4.249000E+00
273	  0.074509017	-6.447000E+00	  0.074509017	1.679580E+02	  0.074509017	1.792200E+01	  0.074509017	4.602000E+00
274	  0.074709415	-6.454000E+00	  0.074709415	1.670460E+02	  0.074709415	1.796600E+01	  0.074709415	4.951000E+00
275	  0.074909821	-6.455000E+00	  0.074909821	1.661590E+02	  0.074909821	1.799900E+01	  0.074909821	5.291000E+00
276	  0.075110219	-6.461000E+00	  0.075110219	1.652770E+02	  0.075110219	1.804200E+01	  0.075110219	5.630000E+00
277	  0.075310618	-6.464000E+00	  0.075310618	1.643910E+02	  0.075310618	1.808400E+01	  0.075310618	5.970000E+00
278	  0.075511023	-6.467000E+00	  0.075511023	1.635070E+02	  0.075511023	1.812600E+01	  0.075511023	6.311000E+00
279	  0.075711422	-6.472000E+00	  0.075711422	1.626500E+02	  0.075711422	1.817300E+01	  0.075711422	6.640000E+00
280	  0.075911827	-6.470000E+00	  0.075911827	1.617810E+02	  0.075911827	1.820600E+01	  0.075911827	6.977000E+00
281	  0.076112226	-6.477000E+00	  0.076112226	1.609140E+02	  0.076112226	1.826200E+01	  0.076112226	7.310000E+00
282	  0.076312624	-6.481000E+00	  0.076312624	1.600400E+02	  0.076312624	1.831400E+01	  0.076312624	7.648000E+00
283	  0.076513030	-6.486000E+00	  0.076513030	1.591770E+02	  0.076513030	1.837100E+01	  0.076513030	7.981000E+00
284	  0.076713428	-6.492000E+00	  0.076713428	1.583000E+02	  0.076713428	1.843200E+01	  0.076713428	8.321000E+00
285	  0.076913826	-6.500000E+00	  0.076913826	1.574710E+02	  0.076913826	1.849800E+01	  0.076913826	8.640000E+00
286	  0.077114232	-6.502000E+00	  0.077114232	1.566190E+02	  0.077114232	1.855100E+01	  0.077114232	8.972000E+00
287	  0.077314630	-6.508000E+00	  0.077314630	1.557930E+02	  0.077314630	1.861700E+01	  0.077314630	9.292000E+00
288	  0.077515028	-6.514000E+00	  0.077515028	1.549800E+02	  0.077515028	1.868100E+01	  0.077515028	9.608000E+00
289	  0.077715434	-6.523000E+00	  0.077715434	1.541610E+02	  0.077715434	1.875800E+01	  0.077715434	9.925000E+00
290	  0.077915832	-6.539000E+00	  0.077915832	1.533210E+02	  0.077915832	1.885500E+01	  0.077915832	1.024700E+01
291	  0.078116231	-6.547000E+00	  0.078116231	1.525420E+02	  0.078116231	1.892900E+01	  0.078116231	1.055000E+01
292	  0.078316636	-6.562000E+00	  0.078316636	1.517010E+02	  0.078316636	1.902700E+01	  0.078316636	1.087400E+01
293	  0.078517035	-6.581000E+00	  0.078517035	1.508900E+02	  0.078517035	1.913600E+01	  0.078517035	1.118400E+01
294	  0.078717433	-6.597000E+00	  0.078717433	1.500780E+02	  0.078717433	1.924000E+01	  0.078717433	1.149600E+01
295	  0.078917839	-6.615000E+00	  0.078917839	1.492850E+02	  0.078917839	1.934800E+01	  0.078917839	1.180000E+01
296	  0.079118237	-6.635000E+00	  0.079118237	1.484770E+02	  0.079118237	1.946600E+01	  0.079118237	1.210900E+01
297	  0.079318643	-6.657000E+00	  0.079318643	1.476750E+02	  0.079318643	1.959100E+01	  0.079318643	1.241500E+01
298	  0.079519041	-6.679000E+00	  0.079519041	1.468680E+02	  0.079519041	1.971800E+01	  0.079519041	1.272200E+01
299	  0.079719439	-6.700000E+00	  0.079719439	1.460580E+02	  0.079719439	1.984500E+01	  0.079719439	1.303200E+01
300	  0.079919845	-6.723000E+00	  0.079919845	1.452380E+02	  0.079919845	1.998000E+01	  0.079919845	1.334300E+01
301	  0.080120243	-6.742000E+00	  0.080120243	1.444070E+02	  0.080120243	2.011000E+01	  0.080120243	1.366200E+01
302	  0.080320641	-6.768000E+00	  0.080320641	1.435740E+02	  0.080320641	2.025900E+01	  0.080320641	1.397800E+01
303	  0.080521047	-6.786000E+00	  0.080521047	1.427480E+02	  0.080521047	2.038900E+01	  0.080521047	1.429500E+01
304	  0.080721445	-6.813000E+00	  0.080721445	1.419270E+02	  0.080721445	2.054500E+01	  0.080721445	1.460500E+01
305	  0.080921844	-6.831000E+00	  0.080921844	1.411230E+02	  0.080921844	2.067800E+01	  0.080921844	1.491400E+01
306	  0.081122249	-6.855000E+00	  0.081122249	1.402790E+02	  0.081122249	2.083400E+01	  0.081122249	1.523500E+01
307	  0.081322648	-6.876000E+00	  0.081322648	1.394600E+02	  0.081322648	2.097900E+01	  0.081322648	1.554900E+01
308	  0.081523046	-6.900000E+00	  0.081523046	1.386320E+02	  0.081523046	2.113800E+01	  0.081523046	1.586400E+01
309	  0.081723452	-6.919000E+00	  0.081723452	1.378270E+02	  0.081723452	2.128500E+01	  0.081723452	1.617300E+01
310	  0.081923850	-6.936000E+00	  0.081923850	1.370440E+02	  0.081923850	2.142700E+01	  0.081923850	1.647400E+01
311	  0.082124248	-6.956000E+00	  0.082124248	1.362520E+02	  0.082124248	2.157700E+01	  0.082124248	1.677800E+01
312	  0.082324654	-6.975000E+00	  0.082324654	1.354360E+02	  0.082324654	2.173400E+01	  0.082324654	1.709200E+01
313	  0.082525052	-6.993000E+00	  0.082525052	1.346550E+02	  0.082525052	2.188300E+01	  0.082525052	1.739300E+01
314	  0.082725458	-7.012000E+00	  0.082725458	1.338680E+02	  0.082725458	2.203900E+01	  0.082725458	1.769600E+01
315	  0.082925856	-7.030000E+00	  0.082925856	1.330880E+02	  0.082925856	2.219600E+01	  0.082925856	1.799600E+01
316	  0.083126254	-7.050000E+00	  0.083126254	1.322860E+02	  0.083126254	2.236400E+01	  0.083126254	1.830400E+01
317	  0.083326660	-7.065000E+00	  0.083326660	1.315120E+02	  0.083326660	2.251600E+01	  0.083326660	1.860500E+01
318	  0.083527058	-7.082000E+00	  0.083527058	1.306960E+02	  0.083527058	2.268200E+01	  0.083527058	1.892200E+01
319	  0.083727457	-7.091000E+00	  0.083727457	1.299520E+02	  0.083727457	2.281900E+01	  0.083727457	1.921800E+01
320	  0.083927862	-7.104000E+00	  0.083927862	1.291930E+02	  0.083927862	2.297200E+01	  0.083927862	1.951600E+01
321	  0.084128261	-7.120000E+00	  0.084128261	1.284390E+02	  0.084128261	2.313600E+01	  0.084128261	1.980900E+01
322	  0.084328659	-7.133000E+00	  0.084328659	1.277370E+02	  0.084328659	2.328300E+01	  0.084328659	2.008500E+01
323	  0.084529065	-7.144000E+00	  0.084529065	1.270150E+02	  0.084529065	2.343200E+01	  0.084529065	2.037100E+01
324	  0.084729463	-7.164000E+00	  0.084729463	1.263330E+02	  0.084729463	2.360100E+01	  0.084729463	2.063100E+01
325	  0.084929861	-7.176000E+00	  0.084929861	1.256040E+02	  0.084929861	2.376100E+01	  0.084929861	2.091800E+01
326	  0.085130267	-7.190000E+00	  0.085130267	1.248810E+02	  0.085130267	2.392300E+01	  0.085130267	2.120200E+01
327	  0.085330658	-7.205000E+00	  0.085330658	1.242110E+02	  0.085330658	2.408600E+01	  0.085330658	2.146200E+01
328	  0.085531056	-7.226000E+00	  0.085531056	1.235530E+02	  0.085531056	2.426300E+01	  0.085531056	2.171100E+01
329	  0.085731462	-7.249000E+00	  0.085731462	1.228730E+02	  0.085731462	2.445100E+01	  0.085731462	2.196500E+01
330	  0.085931860	-7.267000E+00	  0.085931860	1.222480E+02	  0.085931860	2.461800E+01	  0.085931860	2.220400E+01
331	  0.086132258	-7.292000E+00	  0.086132258	1.216050E+02	  0.086132258	2.481200E+01	  0.086132258	2.243900E+01
332	  0.086332664	-7.315000E+00	  0.086332664	1.209470E+02	  0.086332664	2.500300E+01	  0.086332664	2.268400E+01
333	  0.086533062	-7.341000E+00	  0.086533062	1.203000E+02	  0.086533062	2.520600E+01	  0.086533062	2.291900E+01
334	  0.086733460	-7.366000E+00	  0.086733460	1.196370E+02	  0.086733460	2.540800E+01	  0.086733460	2.316300E+01
335	  0.086933866	-7.390000E+00	  0.086933866	1.189970E+02	  0.086933866	2.560900E+01	  0.086933866	2.339600E+01
336	  0.087134264	-7.414000E+00	  0.087134264	1.183240E+02	  0.087134264	2.581600E+01	  0.087134264	2.364400E+01
337	  0.087334670	-7.441000E+00	  0.087334670	1.177020E+02	  0.087334670	2.602600E+01	  0.087334670	2.386500E+01
338	  0.087535068	-7.470000E+00	  0.087535068	1.170480E+02	  0.087535068	2.624800E+01	  0.087535068	2.409600E+01
339	  0.087735467	-7.497000E+00	  0.087735467	1.164050E+02	  0.087735467	2.646600E+01	  0.087735467	2.432500E+01
340	  0.087935872	-7.527000E+00	  0.087935872	1.157720E+02	  0.087935872	2.669000E+01	  0.087935872	2.454500E+01
341	  0.088136271	-7.556000E+00	  0.088136271	1.151860E+02	  0.088136271	2.690400E+01	  0.088136271	2.474600E+01
342	  0.088336669	-7.584000E+00	  0.088336669	1.145330E+02	  0.088336669	2.713500E+01	  0.088336669	2.497400E+01
343	  0.088537075	-7.619000E+00	  0.088537075	1.139010E+02	  0.088537075	2.738400E+01	  0.088537075	2.518100E+01
344	  0.088737473	-7.649000E+00	  0.088737473	1.132660E+02	  0.088737473	2.761900E+01	  0.088737473	2.539800E+01
345	  0.088937871	-7.677000E+00	  0.088937871	1.126670E+02	  0.088937871	2.784400E+01	  0.088937871	2.560100E+01
346	  0.089138277	-7.711000E+00	  0.089138277	1.120680E+02	  0.089138277	2.808700E+01	  0.089138277	2.579400E+01
347	  0.089338675	-7.742000E+00	  0.089338675	1.114810E+02	  0.089338675	2.832300E+01	  0.089338675	2.598400E+01
348	  0.089539073	-7.783000E+00	  0.089539073	1.108750E+02	  0.089539073	2.859000E+01	  0.089539073	2.616500E+01
349	  0.089739479	-7.814000E+00	  0.089739479	1.102410E+02	  0.089739479	2.884200E+01	  0.089739479	2.637300E+01
350	  0.089939877	-7.856000E+00	  0.089939877	1.096500E+02	  0.089939877	2.911500E+01	  0.089939877	2.654200E+01
351	  0.090140276	-7.884000E+00	  0.090140276	1.089880E+02	  0.090140276	2.937100E+01	  0.090140276	2.676400E+01
352	  0.090340681	-7.919000E+00	  0.090340681	1.083690E+02	  0.090340681	2.963600E+01	  0.090340681	2.695500E+01
353	  0.090541080	-7.951000E+00	  0.090541080	1.077560E+02	  0.090541080	2.989400E+01	  0.090541080	2.714700E+01
354	  0.090741485	-7.984000E+00	  0.090741485	1.071370E+02	  0.090741485	3.016100E+01	  0.090741485	2.733700E+01
355	  0.090941884	-8.017000E+00	  0.090941884	1.065210E+02	  0.090941884	3.042900E+01	  0.090941884	2.752500E+01
356	  0.091142282	-8.050000E+00	  0.091142282	1.059290E+02	  0.091142282	3.068900E+01	  0.091142282	2.770200E+01
357	  0.091342688	-8.080000E+00	  0.091342688	1.053060E+02	  0.091342688	3.095700E+01	  0.091342688	2.789500E+01
358	  0.091543086	-8.104000E+00	  0.091543086	1.047020E+02	  0.091543086	3.120400E+01	  0.091543086	2.809100E+01
359	  0.091743484	-8.135000E+00	  0.091743484	1.040860E+02	  0.091743484	3.147600E+01	  0.091743484	2.827700E+01
360	  0.091943890	-8.163000E+00	  0.091943890	1.035170E+02	  0.091943890	3.172900E+01	  0.091943890	2.844800E+01
361	  0.092144288	-8.188000E+00	  0.092144288	1.029230E+02	  0.092144288	3.198400E+01	  0.092144288	2.863400E+01
362	  0.092344686	-8.215000E+00	  0.092344686	1.023330E+02	  0.092344686	3.224700E+01	  0.092344686	2.881200E+01
363	  0.092545092	-8.240000E+00	  0.092545092	1.017580E+02	  0.092545092	3.249900E+01	  0.092545092	2.898900E+01
364	  0.092745490	-8.268000E+00	  0.092745490	1.012140E+02	  0.092745490	3.275400E+01	  0.092745490	2.914300E+01
365	  0.092945889	-8.295000E+00	  0.092945889	1.006390E+02	  0.092945889	3.301600E+01	  0.092945889	2.931200E+01
366	  0.093146294	-8.322000E+00	  0.093146294	1.000660E+02	  0.093146294	3.328100E+01	  0.093146294	2.947800E+01
367	  0.093346693	-8.342000E+00	  0.093346693	9.953700E+01	  0.093346693	3.351600E+01	  0.093346693	2.964100E+01
368	  0.093547091	-8.367000E+00	  0.093547091	9.895700E+01	  0.093547091	3.378400E+01	  0.093547091	2.981100E+01
369	  0.093747497	-8.382000E+00	  0.093747497	9.842100E+01	  0.093747497	3.401100E+01	  0.093747497	2.998700E+01
370	  0.093947895	-8.407000E+00	  0.093947895	9.784300E+01	  0.093947895	3.428400E+01	  0.093947895	3.015200E+01
371	  0.094148301	-8.419000E+00	  0.094148301	9.730500E+01	  0.094148301	3.450900E+01	  0.094148301	3.033400E+01
372	  0.094348699	-8.442000E+00	  0.094348699	9.679600E+01	  0.094348699	3.475500E+01	  0.094348699	3.047600E+01
373	  0.094549097	-8.454000E+00	  0.094549097	9.627500E+01	  0.094549097	3.497900E+01	  0.094549097	3.064900E+01
374	  0.094749503	-8.472000E+00	  0.094749503	9.579300E+01	  0.094749503	3.520600E+01	  0.094749503	3.079000E+01
375	  0.094949901	-8.477000E+00	  0.094949901	9.530200E+01	  0.094949901	3.540800E+01	  0.094949901	3.096500E+01
376	  0.095150299	-8.490000E+00	  0.095150299	9.481000E+01	  0.095150299	3.562800E+01	  0.095150299	3.112300E+01
377	  0.095350705	-8.495000E+00	  0.095350705	9.436700E+01	  0.095350705	3.581400E+01	  0.095350705	3.127900E+01
378	  0.095551103	-8.508000E+00	  0.095551103	9.388400E+01	  0.095551103	3.603800E+01	  0.095551103	3.142900E+01
379	  0.095751502	-8.515000E+00	  0.095751502	9.345900E+01	  0.095751502	3.622300E+01	  0.095751502	3.157500E+01
380	  0.095951907	-8.523000E+00	  0.095951907	9.304900E+01	  0.095951907	3.640900E+01	  0.095951907	3.170800E+01
381	  0.096152306	-8.539000E+00	  0.096152306	9.265100E+01	  0.096152306	3.661000E+01	  0.096152306	3.181700E+01
382	  0.096352704	-8.546000E+00	  0.096352704	9.229000E+01	  0.096352704	3.677400E+01	  0.096352704	3.193600E+01
383	  0.096553110	-8.556000E+00	  0.096553110	9.190400E+01	  0.096553110	3.695700E+01	  0.096553110	3.205600E+01
384	  0.096753508	-8.569000E+00	  0.096753508	9.152600E+01	  0.096753508	3.714700E+01	  0.096753508	3.216100E+01
385	  0.096953906	-8.578000E+00	  0.096953906	9.119300E+01	  0.096953906	3.731000E+01	  0.096953906	3.226000E+01
386	  0.097154312	-8.591000E+00	  0.097154312	9.084500E+01	  0.097154312	3.748800E+01	  0.097154312	3.235500E+01
387	  0.097354710	-8.603000E+00	  0.097354710	9.052000E+01	  0.097354710	3.765600E+01	  0.097354710	3.244100E+01
388	  0.097555116	-8.619000E+00	  0.097555116	9.015800E+01	  0.097555116	3.784900E+01	  0.097555116	3.253300E+01
389	  0.097755514	-8.630000E+00	  0.097755514	8.981000E+01	  0.097755514	3.802500E+01	  0.097755514	3.263100E+01
390	  0.097955912	-8.648000E+00	  0.097955912	8.949300E+01	  0.097955912	3.820700E+01	  0.097955912	3.269600E+01
391	  0.098156318	-8.660000E+00	  0.098156318	8.918600E+01	  0.098156318	3.837200E+01	  0.098156318	3.277200E+01
392	  0.098356716	-8.675000E+00	  0.098356716	8.885500E+01	  0.098356716	3.855500E+01	  0.098356716	3.285000E+01
393	  0.098557115	-8.689000E+00	  0.098557115	8.851500E+01	  0.098557115	3.873900E+01	  0.098557115	3.293300E+01
394	  0.098757520	-8.701000E+00	  0.098757520	8.816400E+01	  0.098757520	3.892400E+01	  0.098757520	3.302500E+01
395	  0.098957919	-8.720000E+00	  0.098957919	8.781600E+01	  0.098957919	3.912500E+01	  0.098957919	3.309600E+01
396	  0.099158317	-8.737000E+00	  0.099158317	8.747600E+01	  0.099158317	3.932100E+01	  0.099158317	3.316600E+01
397	  0.099358723	-8.751000E+00	  0.099358723	8.715700E+01	  0.099358723	3.949800E+01	  0.099358723	3.324000E+01
398	  0.099559121	-8.765000E+00	  0.099559121	8.678200E+01	  0.099559121	3.970300E+01	  0.099559121	3.333100E+01
399	  0.099759519	-8.784000E+00	  0.099759519	8.643800E+01	  0.099759519	3.990800E+01	  0.099759519	3.339400E+01
400	  0.099959925	-8.807000E+00	  0.099959925	8.603900E+01	  0.099959925	4.014900E+01	  0.099959925	3.346100E+01
401	  0.100160323	-8.821000E+00	  0.100160323	8.568900E+01	  0.100160323	4.034500E+01	  0.100160323	3.354100E+01
402	  0.100360721	-8.847000E+00	  0.100360721	8.526100E+01	  0.100360721	4.060800E+01	  0.100360721	3.360900E+01
403	  0.100561127	-8.857000E+00	  0.100561127	8.478500E+01	  0.100561127	4.085800E+01	  0.100561127	3.374100E+01
404	  0.100761525	-8.868000E+00	  0.100761525	8.436300E+01	  0.100761525	4.108700E+01	  0.100761525	3.385100E+01
405	  0.100961931	-8.880000E+00	  0.100961931	8.391200E+01	  0.100961931	4.133400E+01	  0.100961931	3.396700E+01
406	  0.101162329	-8.889000E+00	  0.101162329	8.349100E+01	  0.101162329	4.156100E+01	  0.101162329	3.408000E+01
407	  0.101362728	-8.894000E+00	  0.101362728	8.299300E+01	  0.101362728	4.182100E+01	  0.101362728	3.422900E+01
408	  0.101563133	-8.889000E+00	  0.101563133	8.251700E+01	  0.101563133	4.204800E+01	  0.101563133	3.440600E+01
409	  0.101763532	-8.893000E+00	  0.101763532	8.203400E+01	  0.101763532	4.230200E+01	  0.101763532	3.455300E+01
410	  0.101963930	-8.896000E+00	  0.101963930	8.150300E+01	  0.101963930	4.258100E+01	  0.101963930	3.471900E+01
411	  0.102164336	-8.882000E+00	  0.102164336	8.096300E+01	  0.102164336	4.283100E+01	  0.102164336	3.494600E+01
412	  0.102364734	-8.876000E+00	  0.102364734	8.043000E+01	  0.102364734	4.309700E+01	  0.102364734	3.514300E+01
413	  0.102565132	-8.866000E+00	  0.102565132	7.993800E+01	  0.102565132	4.333800E+01	  0.102565132	3.533900E+01
414	  0.102765530	-8.849000E+00	  0.102765530	7.944000E+01	  0.102765530	4.356900E+01	  0.102765530	3.556100E+01
415	  0.102965929	-8.829000E+00	  0.102965929	7.893300E+01	  0.102965929	4.380300E+01	  0.102965929	3.579600E+01
416	  0.103166327	-8.826000E+00	  0.103166327	7.843500E+01	  0.103166327	4.407000E+01	  0.103166327	3.597000E+01
417	  0.103366733	-8.805000E+00	  0.103366733	7.791400E+01	  0.103366733	4.431600E+01	  0.103366733	3.621400E+01
418	  0.103567131	-8.775000E+00	  0.103567131	7.748100E+01	  0.103567131	4.449600E+01	  0.103567131	3.646500E+01
419	  0.103767529	-8.750000E+00	  0.103767529	7.695200E+01	  0.103767529	4.474400E+01	  0.103767529	3.673000E+01
420	  0.103967935	-8.737000E+00	  0.103967935	7.641100E+01	  0.103967935	4.502900E+01	  0.103967935	3.695300E+01
421	  0.104168333	-8.710000E+00	  0.104168333	7.592300E+01	  0.104168333	4.525600E+01	  0.104168333	3.721600E+01
422	  0.104368731	-8.682000E+00	  0.104368731	7.549400E+01	  0.104368731	4.545100E+01	  0.104368731	3.746100E+01
423	  0.104569137	-8.658000E+00	  0.104569137	7.503400E+01	  0.104569137	4.567500E+01	  0.104569137	3.770300E+01
424	  0.104769535	-8.629000E+00	  0.104769535	7.451100E+01	  0.104769535	4.592900E+01	  0.104769535	3.798900E+01
425	  0.104969934	-8.593000E+00	  0.104969934	7.400200E+01	  0.104969934	4.616600E+01	  0.104969934	3.829600E+01
426	  0.105170339	-8.566000E+00	  0.105170339	7.355200E+01	  0.105170339	4.639000E+01	  0.105170339	3.854800E+01
427	  0.105370738	-8.542000E+00	  0.105370738	7.308300E+01	  0.105370738	4.663200E+01	  0.105370738	3.880100E+01
428	  0.105571143	-8.515000E+00	  0.105571143	7.264500E+01	  0.105571143	4.685400E+01	  0.105571143	3.905100E+01
429	  0.105771542	-8.482000E+00	  0.105771542	7.213000E+01	  0.105771542	4.711600E+01	  0.105771542	3.935600E+01
430	  0.105971940	-8.468000E+00	  0.105971940	7.169100E+01	  0.105971940	4.737200E+01	  0.105971940	3.955500E+01
431	  0.106172346	-8.430000E+00	  0.106172346	7.122200E+01	  0.106172346	4.760000E+01	  0.106172346	3.987200E+01
432	  0.106372744	-8.423000E+00	  0.106372744	7.076600E+01	  0.106372744	4.789100E+01	  0.106372744	4.004500E+01
433	  0.106573142	-8.384000E+00	  0.106573142	7.026100E+01	  0.106573142	4.814800E+01	  0.106573142	4.038100E+01
434	  0.106773548	-8.372000E+00	  0.106773548	6.981100E+01	  0.106773548	4.843000E+01	  0.106773548	4.057500E+01
435	  0.106973946	-8.353000E+00	  0.106973946	6.926100E+01	  0.106973946	4.877100E+01	  0.106973946	4.083400E+01
436	  0.107174344	-8.334000E+00	  0.107174344	6.873400E+01	  0.107174344	4.910200E+01	  0.107174344	4.108400E+01
437	  0.107374750	-8.321000E+00	  0.107374750	6.820200E+01	  0.107374750	4.945200E+01	  0.107374750	4.130900E+01
438	  0.107575148	-8.317000E+00	  0.107575148	6.760900E+01	  0.107575148	4.986900E+01	  0.107575148	4.151100E+01
439	  0.107775547	-8.306000E+00	  0.107775547	6.705500E+01	  0.107775547	5.025000E+01	  0.107775547	4.173100E+01
440	  0.107975952	-8.289000E+00	  0.107975952	6.649600E+01	  0.107975952	5.063000E+01	  0.107975952	4.197800E+01
441	  0.108176351	-8.281000E+00	  0.108176351	6.587100E+01	  0.108176351	5.108000E+01	  0.108176351	4.220300E+01
442	  0.108376749	-8.272000E+00	  0.108376749	6.527500E+01	  0.108376749	5.151600E+01	  0.108376749	4.241800E+01
443	  0.108577155	-8.270000E+00	  0.108577155	6.465300E+01	  0.108577155	5.198800E+01	  0.108577155	4.260700E+01
444	  0.108777553	-8.265000E+00	  0.108777553	6.404800E+01	  0.108777553	5.245100E+01	  0.108777553	4.280000E+01
445	  0.108977959	-8.257000E+00	  0.108977959	6.338300E+01	  0.108977959	5.296200E+01	  0.108977959	4.302300E+01
446	  0.109178357	-8.259000E+00	  0.109178357	6.269900E+01	  0.109178357	5.351100E+01	  0.109178357	4.319800E+01
447	  0.109378755	-8.251000E+00	  0.109378755	6.204100E+01	  0.109378755	5.403300E+01	  0.109378755	4.341200E+01
448	  0.109579161	-8.241000E+00	  0.109579161	6.135700E+01	  0.109579161	5.458200E+01	  0.109579161	4.363400E+01
449	  0.109779559	-8.240000E+00	  0.109779559	6.064300E+01	  0.109779559	5.517800E+01	  0.109779559	4.381700E+01
450	  0.109979957	-8.244000E+00	  0.109979957	5.993900E+01	  0.109979957	5.578200E+01	  0.109979957	4.396100E+01
451	  0.110180363	-8.238000E+00	  0.110180363	5.921200E+01	  0.110180363	5.640100E+01	  0.110180363	4.415800E+01
452	  0.110380761	-8.233000E+00	  0.110380761	5.848800E+01	  0.110380761	5.702800E+01	  0.110380761	4.434200E+01
453	  0.110581160	-8.227000E+00	  0.110581160	5.774500E+01	  0.110581160	5.768000E+01	  0.110581160	4.453600E+01
454	  0.110781565	-8.215000E+00	  0.110781565	5.697000E+01	  0.110781565	5.836700E+01	  0.110781565	4.475500E+01
455	  0.110981964	-8.224000E+00	  0.110981964	5.620600E+01	  0.110981964	5.907800E+01	  0.110981964	4.484300E+01
456	  0.111182362	-8.216000E+00	  0.111182362	5.548800E+01	  0.111182362	5.973900E+01	  0.111182362	4.501400E+01
457	  0.111382768	-8.215000E+00	  0.111382768	5.470700E+01	  0.111382768	6.047600E+01	  0.111382768	4.514600E+01
458	  0.111583166	-8.209000E+00	  0.111583166	5.392400E+01	  0.111583166	6.122300E+01	  0.111583166	4.530300E+01
459	  0.111783572	-8.210000E+00	  0.111783572	5.312800E+01	  0.111783572	6.199900E+01	  0.111783572	4.540300E+01
460	  0.111983970	-8.202000E+00	  0.111983970	5.236700E+01	  0.111983970	6.274800E+01	  0.111983970	4.554000E+01
461	  0.112184368	-8.201000E+00	  0.112184368	5.152900E+01	  0.112184368	6.358800E+01	  0.112184368	4.563500E+01
462	  0.112384774	-8.195000E+00	  0.112384774	5.072900E+01	  0.112384774	6.440200E+01	  0.112384774	4.574200E+01
463	  0.112585172	-8.206000E+00	  0.112585172	4.989400E+01	  0.112585172	6.527100E+01	  0.112585172	4.572900E+01
464	  0.112785570	-8.196000E+00	  0.112785570	4.903200E+01	  0.112785570	6.617400E+01	  0.112785570	4.583800E+01
465	  0.112985976	-8.192000E+00	  0.112985976	4.823500E+01	  0.112985976	6.702200E+01	  0.112985976	4.588800E+01
466	  0.113186374	-8.197000E+00	  0.113186374	4.737800E+01	  0.113186374	6.794800E+01	  0.113186374	4.585900E+01
467	  0.113386773	-8.191000E+00	  0.113386773	4.652500E+01	  0.113386773	6.888300E+01	  0.113386773	4.588900E+01
468	  0.113587178	-8.197000E+00	  0.113587178	4.565300E+01	  0.113587178	6.985100E+01	  0.113587178	4.581600E+01
469	  0.113787577	-8.200000E+00	  0.113787577	4.477600E+01	  0.113787577	7.083500E+01	  0.113787577	4.574000E+01
470	  0.113987975	-8.207000E+00	  0.113987975	4.387100E+01	  0.113987975	7.186000E+01	  0.113987975	4.560800E+01
471	  0.114188381	-8.206000E+00	  0.114188381	4.301400E+01	  0.114188381	7.284700E+01	  0.114188381	4.551700E+01
472	  0.114388779	-8.199000E+00	  0.114388779	4.207700E+01	  0.114388779	7.394600E+01	  0.114388779	4.543500E+01
473	  0.114589177	-8.204000E+00	  0.114589177	4.120300E+01	  0.114589177	7.497000E+01	  0.114589177	4.524500E+01
474	  0.114789583	-8.214000E+00	  0.114789583	4.025700E+01	  0.114789583	7.608300E+01	  0.114789583	4.497900E+01
475	  0.114989981	-8.222000E+00	  0.114989981	3.934000E+01	  0.114989981	7.717000E+01	  0.114989981	4.469800E+01
476	  0.115190387	-8.228000E+00	  0.115190387	3.841900E+01	  0.115190387	7.827100E+01	  0.115190387	4.439600E+01
477	  0.115390785	-8.238000E+00	  0.115390785	3.749700E+01	  0.115390785	7.937300E+01	  0.115390785	4.403400E+01
478	  0.115591183	-8.250000E+00	  0.115591183	3.651800E+01	  0.115591183	8.054200E+01	  0.115591183	4.359800E+01
479	  0.115791589	-8.256000E+00	  0.115791589	3.556600E+01	  0.115791589	8.169900E+01	  0.115791589	4.318800E+01
480	  0.115991987	-8.272000E+00	  0.115991987	3.459200E+01	  0.115991987	8.285400E+01	  0.115991987	4.264500E+01
481	  0.116192386	-8.288000E+00	  0.116192386	3.363100E+01	  0.116192386	8.399000E+01	  0.116192386	4.206700E+01
482	  0.116392791	-8.302000E+00	  0.116392791	3.266400E+01	  0.116392791	8.513700E+01	  0.116392791	4.146500E+01
483	  0.116593190	-8.317000E+00	  0.116593190	3.169200E+01	  0.116593190	8.627700E+01	  0.116593190	4.080400E+01
484	  0.116793588	-8.348000E+00	  0.116793588	3.068300E+01	  0.116793588	8.739200E+01	  0.116793588	3.995600E+01
485	  0.116993994	-8.373000E+00	  0.116993994	2.965000E+01	  0.116993994	8.853600E+01	  0.116993994	3.908800E+01
486	  0.117194392	-8.396000E+00	  0.117194392	2.862200E+01	  0.117194392	8.966800E+01	  0.117194392	3.819700E+01
487	  0.117394790	-8.431000E+00	  0.117394790	2.766400E+01	  0.117394790	9.063700E+01	  0.117394790	3.722300E+01
488	  0.117595196	-8.469000E+00	  0.117595196	2.665100E+01	  0.117595196	9.162600E+01	  0.117595196	3.614700E+01
489	  0.117795594	-8.504000E+00	  0.117795594	2.562000E+01	  0.117795594	9.261500E+01	  0.117795594	3.503000E+01
490	  0.117995992	-8.545000E+00	  0.117995992	2.459200E+01	  0.117995992	9.353000E+01	  0.117995992	3.383300E+01
491	  0.118196398	-8.595000E+00	  0.118196398	2.350300E+01	  0.118196398	9.441400E+01	  0.118196398	3.248100E+01
492	  0.118396796	-8.650000E+00	  0.118396796	2.246800E+01	  0.118396796	9.515700E+01	  0.118396796	3.111300E+01
493	  0.118597202	-8.704000E+00	  0.118597202	2.134900E+01	  0.118597202	9.593100E+01	  0.118597202	2.963200E+01
494	  0.118797600	-8.767000E+00	  0.118797600	2.024200E+01	  0.118797600	9.657600E+01	  0.118797600	2.808500E+01
495	  0.118997999	-8.835000E+00	  0.118997999	1.912200E+01	  0.118997999	9.713200E+01	  0.118997999	2.647300E+01
496	  0.119198404	-8.902000E+00	  0.119198404	1.794000E+01	  0.119198404	9.767300E+01	  0.119198404	2.478200E+01
497	  0.119398803	-8.980000E+00	  0.119398803	1.682100E+01	  0.119398803	9.800400E+01	  0.119398803	2.309100E+01
498	  0.119599201	-9.065000E+00	  0.119599201	1.562500E+01	  0.119599201	9.826300E+01	  0.119599201	2.128000E+01
499	  0.119799607	-9.149000E+00	  0.119799607	1.438100E+01	  0.119799607	9.847400E+01	  0.119799607	1.942100E+01
500	  0.120000005	-9.238000E+00	  0.120000005	1.312600E+01	  0.120000005	9.856800E+01	  0.120000005	1.754400E+01
