! Anritsu VNA Master:             	Model: MS2036C/10/77
! SN:             	1601066
! /bd0/18may8/255.ns.m1.txt
! Existing Calibration Information:
! TYPE:             	Current Settings	Active Cal Settings
! TIME:             	05/08/2018 11:01:16 AM	05/08/2018 10:55:57 AM
! INTERNAL TEMP:    	50.3 C	49.3 C
! # POINTS:         	500	500
! START FREQ:       	20.000 MHz	20.000 MHz
! STOP FREQ:        	120.000 MHz	120.000 MHz
! SOURCE POWER:     	High	High
! IFBW:             	50 Hz	50 Hz
! AVG FACTOR:       	  1 	  1 
! REF PLANE 1:      	0 mm	0 mm
! REF PLANE 2:      	0 mm	0 mm
! CAL TYPE:         	Full S11	Full S11
! CAL METHOD:       	SOLT	SOLT
! CAL LINE TYPE:    	Coax	Coax
! DUT PORT 1:       	K-Conn(F)	K-Conn(F)
! DUT PORT 2:       	K-Conn(F)	K-Conn(F)
! CAL STATUS:       	OK: Accuracy High	--
! PROP-V:       	0.700
! CABLE LOSS:       	0.000 dB/m
! REF IMPEDANCE:       	50.0
! Trace Specific Parameters:	TR1	TR2	TR3	TR4
! TRACE.#.Y (GRAPH TYPE)	LOG MAG	PHASE	REAL IMPEDANCE	IMAGINARY IMPEDANCE
! TRACE.#.X 	FREQ.GHZ	FREQ.GHZ	FREQ.GHZ	FREQ.GHZ
! S-PARAMETER	S11	S11	S11	S11
! SMOOTH/APERTURE %	0	0	0	0
! WINDOW	NSL	NSL	NSL	NSL
! GATING	OFF	OFF	OFF	OFF
! FGTD	OFF	OFF	OFF	OFF
Marker Information per Trace:	TR1	TR2	TR3	TR4
!MK1	--	"MK1 TR2:  20.000 MHz,PH:-124.27°"	--	--
!MK2	--	--	"MK2 TR3:  70.100 200 MHz,Z:(17.471 ohm, -3.207 ohm)"	--
!MK3	--	--	--	--
!MK4	--	--	--	--
!MK5	--	--	--	--
!MK6	--	--	--	--
!MK7	--	--	--	--
!MK8	--	--	--	--
PNT	TR1.FREQ.GHZ	TR1.LOG MAG.dB	TR2.FREQ.GHZ	TR2.PHASE.deg	TR3.FREQ.GHZ	TR3.REAL IMPEDANCE.ohm	TR4.FREQ.GHZ	TR4.IMAGINARY IMPEDANCE.ohm
1	  0.020000000	-6.320000E-01	  0.020000000	-1.242740E+02	  0.020000000	2.326000E+00	  0.020000000	-2.638700E+01
2	  0.020200402	-6.300000E-01	  0.020200402	-1.257130E+02	  0.020200402	2.290000E+00	  0.020200402	-2.559100E+01
3	  0.020400802	-6.330000E-01	  0.020400802	-1.271420E+02	  0.020400802	2.270000E+00	  0.020400802	-2.481000E+01
4	  0.020601204	-6.360000E-01	  0.020601204	-1.285940E+02	  0.020601204	2.253000E+00	  0.020601204	-2.402600E+01
5	  0.020801604	-6.390000E-01	  0.020801604	-1.300820E+02	  0.020801604	2.238000E+00	  0.020801604	-2.323200E+01
6	  0.021002004	-6.470000E-01	  0.021002004	-1.315830E+02	  0.021002004	2.239000E+00	  0.021002004	-2.244200E+01
7	  0.021202406	-6.550000E-01	  0.021202406	-1.331160E+02	  0.021202406	2.240000E+00	  0.021202406	-2.164300E+01
8	  0.021402806	-6.610000E-01	  0.021402806	-1.346330E+02	  0.021402806	2.234000E+00	  0.021402806	-2.086200E+01
9	  0.021603208	-6.650000E-01	  0.021603208	-1.361520E+02	  0.021603208	2.224000E+00	  0.021603208	-2.008900E+01
10	  0.021803608	-6.680000E-01	  0.021803608	-1.376770E+02	  0.021803608	2.210000E+00	  0.021803608	-1.932100E+01
11	  0.022004008	-6.720000E-01	  0.022004008	-1.392080E+02	  0.022004008	2.201000E+00	  0.022004008	-1.855800E+01
12	  0.022204408	-6.760000E-01	  0.022204408	-1.407670E+02	  0.022204408	2.192000E+00	  0.022204408	-1.778900E+01
13	  0.022404809	-6.790000E-01	  0.022404809	-1.423320E+02	  0.022404809	2.181000E+00	  0.022404809	-1.702500E+01
14	  0.022605211	-6.850000E-01	  0.022605211	-1.439100E+02	  0.022605211	2.181000E+00	  0.022605211	-1.626100E+01
15	  0.022805611	-6.880000E-01	  0.022805611	-1.455030E+02	  0.022805611	2.171000E+00	  0.022805611	-1.549700E+01
16	  0.023006011	-6.890000E-01	  0.023006011	-1.470820E+02	  0.023006011	2.157000E+00	  0.023006011	-1.474600E+01
17	  0.023206413	-6.870000E-01	  0.023206413	-1.486520E+02	  0.023206413	2.131000E+00	  0.023206413	-1.400500E+01
18	  0.023406813	-6.870000E-01	  0.023406813	-1.502210E+02	  0.023406813	2.117000E+00	  0.023406813	-1.327100E+01
19	  0.023607215	-6.890000E-01	  0.023607215	-1.517920E+02	  0.023607215	2.108000E+00	  0.023607215	-1.254100E+01
20	  0.023807615	-6.950000E-01	  0.023807615	-1.533750E+02	  0.023807615	2.111000E+00	  0.023807615	-1.181000E+01
21	  0.024008015	-7.020000E-01	  0.024008015	-1.549830E+02	  0.024008015	2.120000E+00	  0.024008015	-1.107300E+01
22	  0.024208417	-7.090000E-01	  0.024208417	-1.565960E+02	  0.024208417	2.127000E+00	  0.024208417	-1.033700E+01
23	  0.024408817	-7.150000E-01	  0.024408817	-1.582130E+02	  0.024408817	2.133000E+00	  0.024408817	-9.605000E+00
24	  0.024609219	-7.190000E-01	  0.024609219	-1.598430E+02	  0.024609219	2.136000E+00	  0.024609219	-8.871000E+00
25	  0.024809619	-7.280000E-01	  0.024809619	-1.614660E+02	  0.024809619	2.150000E+00	  0.024809619	-8.143000E+00
26	  0.025010020	-7.360000E-01	  0.025010020	-1.630920E+02	  0.025010020	2.165000E+00	  0.025010020	-7.417000E+00
27	  0.025210422	-7.470000E-01	  0.025210422	-1.647260E+02	  0.025210422	2.188000E+00	  0.025210422	-6.691000E+00
28	  0.025410822	-7.570000E-01	  0.025410822	-1.663750E+02	  0.025410822	2.210000E+00	  0.025410822	-5.961000E+00
29	  0.025611224	-7.670000E-01	  0.025611224	-1.680630E+02	  0.025611224	2.232000E+00	  0.025611224	-5.216000E+00
30	  0.025811624	-7.780000E-01	  0.025811624	-1.697510E+02	  0.025811624	2.255000E+00	  0.025811624	-4.474000E+00
31	  0.026012026	-7.890000E-01	  0.026012026	-1.714600E+02	  0.026012026	2.282000E+00	  0.026012026	-3.725000E+00
32	  0.026212426	-7.970000E-01	  0.026212426	-1.731620E+02	  0.026212426	2.301000E+00	  0.026212426	-2.980000E+00
33	  0.026412826	-8.100000E-01	  0.026412826	-1.748790E+02	  0.026412826	2.336000E+00	  0.026412826	-2.231000E+00
34	  0.026613226	-8.240000E-01	  0.026613226	-1.766110E+02	  0.026613226	2.372000E+00	  0.026613226	-1.475000E+00
35	  0.026813626	-8.390000E-01	  0.026813626	-1.783500E+02	  0.026813626	2.414000E+00	  0.026813626	-7.180000E-01
36	  0.027014028	-8.550000E-01	  0.027014028	1.798930E+02	  0.027014028	2.460000E+00	  0.027014028	4.600000E-02
37	  0.027214428	-8.700000E-01	  0.027214428	1.781340E+02	  0.027214428	2.505000E+00	  0.027214428	8.120000E-01
38	  0.027414829	-8.870000E-01	  0.027414829	1.763420E+02	  0.027414829	2.554000E+00	  0.027414829	1.592000E+00
39	  0.027615231	-9.040000E-01	  0.027615231	1.745510E+02	  0.027615231	2.606000E+00	  0.027615231	2.372000E+00
40	  0.027815631	-9.250000E-01	  0.027815631	1.727510E+02	  0.027815631	2.673000E+00	  0.027815631	3.157000E+00
41	  0.028016033	-9.460000E-01	  0.028016033	1.709250E+02	  0.028016033	2.738000E+00	  0.028016033	3.956000E+00
42	  0.028216433	-9.670000E-01	  0.028216433	1.690980E+02	  0.028216433	2.808000E+00	  0.028216433	4.756000E+00
43	  0.028416833	-9.900000E-01	  0.028416833	1.672600E+02	  0.028416833	2.882000E+00	  0.028416833	5.563000E+00
44	  0.028617235	-1.011000E+00	  0.028617235	1.654310E+02	  0.028617235	2.954000E+00	  0.028617235	6.369000E+00
45	  0.028817635	-1.029000E+00	  0.028817635	1.635960E+02	  0.028817635	3.020000E+00	  0.028817635	7.180000E+00
46	  0.029018037	-1.050000E+00	  0.029018037	1.617780E+02	  0.029018037	3.096000E+00	  0.029018037	7.988000E+00
47	  0.029218437	-1.071000E+00	  0.029218437	1.599580E+02	  0.029218437	3.176000E+00	  0.029218437	8.800000E+00
48	  0.029418837	-1.094000E+00	  0.029418837	1.581300E+02	  0.029418837	3.262000E+00	  0.029418837	9.620000E+00
49	  0.029619239	-1.119000E+00	  0.029619239	1.562840E+02	  0.029619239	3.358000E+00	  0.029619239	1.045200E+01
50	  0.029819639	-1.148000E+00	  0.029819639	1.544250E+02	  0.029819639	3.468000E+00	  0.029819639	1.129600E+01
51	  0.030020041	-1.177000E+00	  0.030020041	1.525380E+02	  0.030020041	3.586000E+00	  0.030020041	1.215700E+01
52	  0.030220442	-1.206000E+00	  0.030220442	1.506360E+02	  0.030220442	3.704000E+00	  0.030220442	1.303200E+01
53	  0.030420844	-1.233000E+00	  0.030420844	1.487340E+02	  0.030420844	3.819000E+00	  0.030420844	1.391500E+01
54	  0.030621244	-1.263000E+00	  0.030621244	1.468390E+02	  0.030621244	3.949000E+00	  0.030621244	1.480100E+01
55	  0.030821644	-1.293000E+00	  0.030821644	1.449570E+02	  0.030821644	4.083000E+00	  0.030821644	1.568900E+01
56	  0.031022044	-1.327000E+00	  0.031022044	1.430450E+02	  0.031022044	4.235000E+00	  0.031022044	1.659900E+01
57	  0.031222444	-1.356000E+00	  0.031222444	1.411450E+02	  0.031222444	4.378000E+00	  0.031222444	1.751300E+01
58	  0.031422846	-1.391000E+00	  0.031422846	1.391880E+02	  0.031422846	4.546000E+00	  0.031422846	1.846500E+01
59	  0.031623244	-1.426000E+00	  0.031623244	1.372230E+02	  0.031623244	4.718000E+00	  0.031623244	1.943100E+01
60	  0.031823646	-1.460000E+00	  0.031823646	1.352330E+02	  0.031823646	4.899000E+00	  0.031823646	2.042200E+01
61	  0.032024048	-1.492000E+00	  0.032024048	1.332670E+02	  0.032024048	5.078000E+00	  0.032024048	2.141400E+01
62	  0.032224450	-1.524000E+00	  0.032224450	1.313030E+02	  0.032224450	5.264000E+00	  0.032224450	2.241800E+01
63	  0.032424849	-1.556000E+00	  0.032424849	1.293430E+02	  0.032424849	5.459000E+00	  0.032424849	2.343300E+01
64	  0.032625251	-1.588000E+00	  0.032625251	1.273480E+02	  0.032625251	5.663000E+00	  0.032625251	2.448300E+01
65	  0.032825653	-1.623000E+00	  0.032825653	1.254050E+02	  0.032825653	5.886000E+00	  0.032825653	2.552000E+01
66	  0.033026051	-1.660000E+00	  0.033026051	1.234400E+02	  0.033026051	6.128000E+00	  0.033026051	2.658500E+01
67	  0.033226453	-1.705000E+00	  0.033226453	1.214650E+02	  0.033226453	6.409000E+00	  0.033226453	2.766900E+01
68	  0.033426855	-1.749000E+00	  0.033426855	1.194690E+02	  0.033426855	6.703000E+00	  0.033426855	2.878400E+01
69	  0.033627257	-1.798000E+00	  0.033627257	1.174750E+02	  0.033627257	7.029000E+00	  0.033627257	2.991500E+01
70	  0.033827655	-1.852000E+00	  0.033827655	1.154470E+02	  0.033827655	7.396000E+00	  0.033827655	3.108300E+01
71	  0.034028057	-1.901000E+00	  0.034028057	1.133730E+02	  0.034028057	7.765000E+00	  0.034028057	3.230300E+01
72	  0.034228459	-1.948000E+00	  0.034228459	1.112860E+02	  0.034228459	8.146000E+00	  0.034228459	3.355800E+01
73	  0.034428857	-1.998000E+00	  0.034428857	1.091540E+02	  0.034428857	8.565000E+00	  0.034428857	3.486500E+01
74	  0.034629259	-2.043000E+00	  0.034629259	1.070210E+02	  0.034629259	8.990000E+00	  0.034629259	3.620400E+01
75	  0.034829661	-2.088000E+00	  0.034829661	1.048970E+02	  0.034829661	9.437000E+00	  0.034829661	3.756900E+01
76	  0.035030060	-2.134000E+00	  0.035030060	1.027950E+02	  0.035030060	9.914000E+00	  0.035030060	3.895000E+01
77	  0.035230462	-2.177000E+00	  0.035230462	1.006750E+02	  0.035230462	1.040800E+01	  0.035230462	4.037900E+01
78	  0.035430863	-2.214000E+00	  0.035430863	9.852400E+01	  0.035430863	1.091100E+01	  0.035430863	4.187200E+01
79	  0.035631265	-2.255000E+00	  0.035631265	9.645400E+01	  0.035631265	1.145200E+01	  0.035631265	4.334200E+01
80	  0.035831664	-2.297000E+00	  0.035831664	9.438500E+01	  0.035831664	1.203600E+01	  0.035831664	4.484600E+01
81	  0.036032066	-2.339000E+00	  0.036032066	9.233200E+01	  0.036032066	1.265400E+01	  0.036032066	4.637800E+01
82	  0.036232468	-2.387000E+00	  0.036232468	9.028400E+01	  0.036232468	1.334500E+01	  0.036232468	4.793800E+01
83	  0.036432866	-2.432000E+00	  0.036432866	8.825500E+01	  0.036432866	1.405800E+01	  0.036432866	4.953000E+01
84	  0.036633268	-2.483000E+00	  0.036633268	8.623900E+01	  0.036633268	1.485300E+01	  0.036633268	5.114200E+01
85	  0.036833670	-2.538000E+00	  0.036833670	8.422500E+01	  0.036833670	1.572800E+01	  0.036833670	5.278600E+01
86	  0.037034072	-2.595000E+00	  0.037034072	8.220000E+01	  0.037034072	1.667600E+01	  0.037034072	5.448000E+01
87	  0.037234470	-2.657000E+00	  0.037234470	8.012200E+01	  0.037234470	1.774100E+01	  0.037234470	5.625600E+01
88	  0.037434869	-2.719000E+00	  0.037434869	7.806100E+01	  0.037434869	1.888500E+01	  0.037434869	5.805900E+01
89	  0.037635271	-2.780000E+00	  0.037635271	7.598800E+01	  0.037635271	2.011000E+01	  0.037635271	5.992400E+01
90	  0.037835669	-2.845000E+00	  0.037835669	7.387100E+01	  0.037835669	2.147900E+01	  0.037835669	6.186800E+01
91	  0.038036071	-2.906000E+00	  0.038036071	7.176000E+01	  0.038036071	2.292700E+01	  0.038036071	6.386700E+01
92	  0.038236473	-2.965000E+00	  0.038236473	6.964000E+01	  0.038236473	2.448200E+01	  0.038236473	6.593400E+01
93	  0.038436871	-3.026000E+00	  0.038436871	6.751200E+01	  0.038436871	2.618700E+01	  0.038436871	6.805400E+01
94	  0.038637273	-3.081000E+00	  0.038637273	6.540200E+01	  0.038637273	2.797900E+01	  0.038637273	7.022800E+01
95	  0.038837675	-3.133000E+00	  0.038837675	6.330300E+01	  0.038837675	2.989700E+01	  0.038837675	7.245400E+01
96	  0.039038073	-3.180000E+00	  0.039038073	6.123000E+01	  0.039038073	3.192200E+01	  0.039038073	7.472500E+01
97	  0.039238475	-3.232000E+00	  0.039238475	5.918600E+01	  0.039238475	3.413100E+01	  0.039238475	7.698500E+01
98	  0.039438877	-3.286000E+00	  0.039438877	5.717100E+01	  0.039438877	3.653300E+01	  0.039438877	7.922300E+01
99	  0.039639279	-3.345000E+00	  0.039639279	5.515800E+01	  0.039639279	3.918200E+01	  0.039639279	8.145300E+01
100	  0.039839678	-3.408000E+00	  0.039839678	5.311700E+01	  0.039839678	4.212900E+01	  0.039839678	8.369800E+01
101	  0.040040080	-3.471000E+00	  0.040040080	5.108200E+01	  0.040040080	4.532400E+01	  0.040040080	8.592500E+01
102	  0.040240481	-3.537000E+00	  0.040240481	4.901500E+01	  0.040240481	4.887900E+01	  0.040240481	8.813900E+01
103	  0.040440880	-3.605000E+00	  0.040440880	4.694200E+01	  0.040440880	5.277800E+01	  0.040440880	9.027600E+01
104	  0.040641282	-3.673000E+00	  0.040641282	4.486100E+01	  0.040641282	5.702600E+01	  0.040641282	9.233900E+01
105	  0.040841684	-3.734000E+00	  0.040841684	4.277600E+01	  0.040841684	6.159800E+01	  0.040841684	9.436100E+01
106	  0.041042086	-3.796000E+00	  0.041042086	4.070900E+01	  0.041042086	6.653100E+01	  0.041042086	9.619200E+01
107	  0.041242484	-3.856000E+00	  0.041242484	3.863800E+01	  0.041242484	7.187700E+01	  0.041242484	9.784500E+01
108	  0.041442886	-3.917000E+00	  0.041442886	3.655400E+01	  0.041442886	7.770100E+01	  0.041442886	9.922000E+01
109	  0.041643288	-3.974000E+00	  0.041643288	3.446600E+01	  0.041643288	8.397200E+01	  0.041643288	1.003140E+02
110	  0.041843686	-4.030000E+00	  0.041843686	3.237800E+01	  0.041843686	9.069900E+01	  0.041843686	1.010130E+02
111	  0.042044088	-4.080000E+00	  0.042044088	3.032100E+01	  0.042044088	9.777000E+01	  0.042044088	1.012910E+02
112	  0.042244490	-4.131000E+00	  0.042244490	2.828200E+01	  0.042244490	1.052210E+02	  0.042244490	1.009520E+02
113	  0.042444889	-4.183000E+00	  0.042444889	2.627100E+01	  0.042444889	1.129520E+02	  0.042444889	9.989400E+01
114	  0.042645290	-4.235000E+00	  0.042645290	2.426100E+01	  0.042645290	1.209950E+02	  0.042645290	9.803400E+01
115	  0.042845692	-4.284000E+00	  0.042845692	2.226300E+01	  0.042845692	1.292270E+02	  0.042845692	9.534700E+01
116	  0.043046094	-4.331000E+00	  0.043046094	2.026600E+01	  0.043046094	1.375690E+02	  0.043046094	9.169700E+01
117	  0.043246493	-4.380000E+00	  0.043246493	1.827900E+01	  0.043246493	1.458110E+02	  0.043246493	8.694300E+01
118	  0.043446895	-4.427000E+00	  0.043446895	1.630900E+01	  0.043446895	1.537920E+02	  0.043446895	8.116700E+01
119	  0.043647297	-4.470000E+00	  0.043647297	1.434300E+01	  0.043647297	1.613990E+02	  0.043647297	7.435400E+01
120	  0.043847695	-4.521000E+00	  0.043847695	1.237800E+01	  0.043847695	1.682150E+02	  0.043847695	6.624600E+01
121	  0.044048097	-4.569000E+00	  0.044048097	1.043200E+01	  0.044048097	1.741280E+02	  0.044048097	5.726300E+01
122	  0.044248499	-4.615000E+00	  0.044248499	8.509000E+00	  0.044248499	1.789710E+02	  0.044248499	4.757200E+01
123	  0.044448901	-4.659000E+00	  0.044448901	6.583000E+00	  0.044448901	1.826850E+02	  0.044448901	3.723400E+01
124	  0.044649299	-4.702000E+00	  0.044649299	4.656000E+00	  0.044649299	1.851230E+02	  0.044649299	2.644400E+01
125	  0.044849701	-4.745000E+00	  0.044849701	2.747000E+00	  0.044849701	1.861740E+02	  0.044849701	1.554900E+01
126	  0.045050103	-4.786000E+00	  0.045050103	8.550000E-01	  0.045050103	1.859040E+02	  0.045050103	4.789000E+00
127	  0.045250501	-4.828000E+00	  0.045250501	-1.045000E+00	  0.045250501	1.843050E+02	  0.045250501	-5.746000E+00
128	  0.045450903	-4.866000E+00	  0.045450903	-2.908000E+00	  0.045450903	1.816820E+02	  0.045450903	-1.562500E+01
129	  0.045651305	-4.903000E+00	  0.045651305	-4.775000E+00	  0.045651305	1.780330E+02	  0.045651305	-2.491000E+01
130	  0.045851704	-4.942000E+00	  0.045851704	-6.619000E+00	  0.045851704	1.735080E+02	  0.045851704	-3.332100E+01
131	  0.046052106	-4.983000E+00	  0.046052106	-8.441000E+00	  0.046052106	1.682850E+02	  0.046052106	-4.078500E+01
132	  0.046252504	-5.022000E+00	  0.046252504	-1.026900E+01	  0.046252504	1.625830E+02	  0.046252504	-4.743900E+01
133	  0.046452906	-5.062000E+00	  0.046452906	-1.209700E+01	  0.046452906	1.565140E+02	  0.046452906	-5.322000E+01
134	  0.046653304	-5.099000E+00	  0.046653304	-1.394000E+01	  0.046653304	1.502350E+02	  0.046653304	-5.823800E+01
135	  0.046853706	-5.136000E+00	  0.046853706	-1.575000E+01	  0.046853706	1.439660E+02	  0.046853706	-6.237900E+01
136	  0.047054108	-5.173000E+00	  0.047054108	-1.754200E+01	  0.047054108	1.377530E+02	  0.047054108	-6.575000E+01
137	  0.047254506	-5.211000E+00	  0.047254506	-1.934800E+01	  0.047254506	1.315660E+02	  0.047254506	-6.846500E+01
138	  0.047454908	-5.246000E+00	  0.047454908	-2.115200E+01	  0.047454908	1.255650E+02	  0.047454908	-7.063900E+01
139	  0.047655310	-5.277000E+00	  0.047655310	-2.293200E+01	  0.047655310	1.198450E+02	  0.047655310	-7.231900E+01
140	  0.047855709	-5.311000E+00	  0.047855709	-2.468600E+01	  0.047855709	1.143880E+02	  0.047855709	-7.345300E+01
141	  0.048056111	-5.343000E+00	  0.048056111	-2.643800E+01	  0.048056111	1.091720E+02	  0.048056111	-7.424100E+01
142	  0.048256513	-5.379000E+00	  0.048256513	-2.820600E+01	  0.048256513	1.041340E+02	  0.048256513	-7.460500E+01
143	  0.048456915	-5.413000E+00	  0.048456915	-2.994800E+01	  0.048456915	9.942500E+01	  0.048456915	-7.470200E+01
144	  0.048657313	-5.443000E+00	  0.048657313	-3.171100E+01	  0.048657313	9.491300E+01	  0.048657313	-7.462100E+01
145	  0.048857715	-5.474000E+00	  0.048857715	-3.346600E+01	  0.048857715	9.066000E+01	  0.048857715	-7.430400E+01
146	  0.049058117	-5.503000E+00	  0.049058117	-3.523100E+01	  0.049058117	8.661900E+01	  0.049058117	-7.382200E+01
147	  0.049258515	-5.529000E+00	  0.049258515	-3.697500E+01	  0.049258515	8.284800E+01	  0.049258515	-7.322300E+01
148	  0.049458917	-5.558000E+00	  0.049458917	-3.868300E+01	  0.049458917	7.936800E+01	  0.049458917	-7.246100E+01
149	  0.049659319	-5.586000E+00	  0.049659319	-4.043600E+01	  0.049659319	7.599600E+01	  0.049659319	-7.159800E+01
150	  0.049859721	-5.613000E+00	  0.049859721	-4.214700E+01	  0.049859721	7.289500E+01	  0.049859721	-7.067000E+01
151	  0.050060119	-5.639000E+00	  0.050060119	-4.385700E+01	  0.050060119	6.997400E+01	  0.050060119	-6.967900E+01
152	  0.050260521	-5.658000E+00	  0.050260521	-4.558700E+01	  0.050260521	6.716800E+01	  0.050260521	-6.868100E+01
153	  0.050460923	-5.676000E+00	  0.050460923	-4.731000E+01	  0.050460923	6.452600E+01	  0.050460923	-6.764900E+01
154	  0.050661322	-5.695000E+00	  0.050661322	-4.901900E+01	  0.050661322	6.205800E+01	  0.050661322	-6.657300E+01
155	  0.050861724	-5.712000E+00	  0.050861724	-5.070400E+01	  0.050861724	5.975500E+01	  0.050861724	-6.548500E+01
156	  0.051062126	-5.725000E+00	  0.051062126	-5.237000E+01	  0.051062126	5.758500E+01	  0.051062126	-6.442400E+01
157	  0.051262524	-5.737000E+00	  0.051262524	-5.400800E+01	  0.051262524	5.556700E+01	  0.051262524	-6.335400E+01
158	  0.051462926	-5.747000E+00	  0.051462926	-5.561700E+01	  0.051462926	5.367800E+01	  0.051462926	-6.230400E+01
159	  0.051663328	-5.761000E+00	  0.051663328	-5.719600E+01	  0.051663328	5.193700E+01	  0.051663328	-6.122700E+01
160	  0.051863730	-5.775000E+00	  0.051863730	-5.876400E+01	  0.051863730	5.029900E+01	  0.051863730	-6.014700E+01
161	  0.052064128	-5.788000E+00	  0.052064128	-6.033100E+01	  0.052064128	4.873900E+01	  0.052064128	-5.907300E+01
162	  0.052264530	-5.801000E+00	  0.052264530	-6.191100E+01	  0.052264530	4.724300E+01	  0.052264530	-5.799000E+01
163	  0.052464932	-5.815000E+00	  0.052464932	-6.345200E+01	  0.052464932	4.586300E+01	  0.052464932	-5.692600E+01
164	  0.052665330	-5.832000E+00	  0.052665330	-6.502800E+01	  0.052665330	4.453300E+01	  0.052665330	-5.582700E+01
165	  0.052865732	-5.849000E+00	  0.052865732	-6.656500E+01	  0.052865732	4.330200E+01	  0.052865732	-5.475700E+01
166	  0.053066134	-5.863000E+00	  0.053066134	-6.810800E+01	  0.053066134	4.211000E+01	  0.053066134	-5.371100E+01
167	  0.053266536	-5.876000E+00	  0.053266536	-6.965500E+01	  0.053266536	4.097300E+01	  0.053266536	-5.266900E+01
168	  0.053466935	-5.889000E+00	  0.053466935	-7.118200E+01	  0.053466935	3.990100E+01	  0.053466935	-5.165300E+01
169	  0.053667337	-5.898000E+00	  0.053667337	-7.271100E+01	  0.053667337	3.886300E+01	  0.053667337	-5.065800E+01
170	  0.053867739	-5.904000E+00	  0.053867739	-7.421700E+01	  0.053867739	3.787500E+01	  0.053867739	-4.970200E+01
171	  0.054068137	-5.912000E+00	  0.054068137	-7.571000E+01	  0.054068137	3.694900E+01	  0.054068137	-4.874800E+01
172	  0.054268539	-5.920000E+00	  0.054268539	-7.717200E+01	  0.054268539	3.608100E+01	  0.054268539	-4.782200E+01
173	  0.054468941	-5.930000E+00	  0.054468941	-7.862800E+01	  0.054468941	3.526300E+01	  0.054468941	-4.690100E+01
174	  0.054669339	-5.945000E+00	  0.054669339	-8.006100E+01	  0.054669339	3.451000E+01	  0.054669339	-4.598600E+01
175	  0.054869737	-5.955000E+00	  0.054869737	-8.150200E+01	  0.054869737	3.376700E+01	  0.054869737	-4.509400E+01
176	  0.055070139	-5.967000E+00	  0.055070139	-8.289900E+01	  0.055070139	3.308800E+01	  0.055070139	-4.422800E+01
177	  0.055270538	-5.980000E+00	  0.055270538	-8.428600E+01	  0.055270538	3.244300E+01	  0.055270538	-4.337500E+01
178	  0.055470940	-5.995000E+00	  0.055470940	-8.568100E+01	  0.055470940	3.182800E+01	  0.055470940	-4.252100E+01
179	  0.055671342	-6.007000E+00	  0.055671342	-8.709400E+01	  0.055671342	3.121800E+01	  0.055671342	-4.167600E+01
180	  0.055871744	-6.021000E+00	  0.055871744	-8.851800E+01	  0.055871744	3.063500E+01	  0.055871744	-4.083000E+01
181	  0.056072142	-6.035000E+00	  0.056072142	-8.991900E+01	  0.056072142	3.008900E+01	  0.056072142	-4.000300E+01
182	  0.056272544	-6.052000E+00	  0.056272544	-9.133400E+01	  0.056272544	2.956700E+01	  0.056272544	-3.917200E+01
183	  0.056472946	-6.063000E+00	  0.056472946	-9.273000E+01	  0.056472946	2.905200E+01	  0.056472946	-3.837800E+01
184	  0.056673344	-6.073000E+00	  0.056673344	-9.412500E+01	  0.056673344	2.855600E+01	  0.056673344	-3.759400E+01
185	  0.056873746	-6.081000E+00	  0.056873746	-9.552100E+01	  0.056873746	2.807300E+01	  0.056873746	-3.682300E+01
186	  0.057074148	-6.086000E+00	  0.057074148	-9.689700E+01	  0.057074148	2.760300E+01	  0.057074148	-3.607700E+01
187	  0.057274550	-6.093000E+00	  0.057274550	-9.830400E+01	  0.057274550	2.714500E+01	  0.057274550	-3.532000E+01
188	  0.057474948	-6.095000E+00	  0.057474948	-9.968200E+01	  0.057474948	2.669900E+01	  0.057474948	-3.459500E+01
189	  0.057675350	-6.099000E+00	  0.057675350	-1.010290E+02	  0.057675350	2.628600E+01	  0.057675350	-3.388900E+01
190	  0.057875752	-6.100000E+00	  0.057875752	-1.023610E+02	  0.057875752	2.588400E+01	  0.057875752	-3.320100E+01
191	  0.058076151	-6.105000E+00	  0.058076151	-1.036870E+02	  0.058076151	2.551100E+01	  0.058076151	-3.251500E+01
192	  0.058276553	-6.100000E+00	  0.058276553	-1.049910E+02	  0.058276553	2.512200E+01	  0.058276553	-3.186700E+01
193	  0.058476955	-6.105000E+00	  0.058476955	-1.062570E+02	  0.058476955	2.479200E+01	  0.058476955	-3.122200E+01
194	  0.058677353	-6.108000E+00	  0.058677353	-1.075560E+02	  0.058677353	2.445600E+01	  0.058677353	-3.057100E+01
195	  0.058877755	-6.114000E+00	  0.058877755	-1.088400E+02	  0.058877755	2.414500E+01	  0.058877755	-2.992900E+01
196	  0.059078157	-6.113000E+00	  0.059078157	-1.101040E+02	  0.059078157	2.383000E+01	  0.059078157	-2.931100E+01
197	  0.059278559	-6.118000E+00	  0.059278559	-1.113750E+02	  0.059278559	2.354000E+01	  0.059278559	-2.868700E+01
198	  0.059478957	-6.120000E+00	  0.059478957	-1.126580E+02	  0.059478957	2.325000E+01	  0.059478957	-2.806600E+01
199	  0.059679359	-6.124000E+00	  0.059679359	-1.139370E+02	  0.059679359	2.297400E+01	  0.059679359	-2.745000E+01
200	  0.059879761	-6.128000E+00	  0.059879761	-1.151960E+02	  0.059879761	2.271700E+01	  0.059879761	-2.684700E+01
201	  0.060080159	-6.127000E+00	  0.060080159	-1.164310E+02	  0.060080159	2.245300E+01	  0.060080159	-2.626800E+01
202	  0.060280561	-6.128000E+00	  0.060280561	-1.177000E+02	  0.060280561	2.219900E+01	  0.060280561	-2.567400E+01
203	  0.060480963	-6.131000E+00	  0.060480963	-1.189610E+02	  0.060480963	2.196300E+01	  0.060480963	-2.508500E+01
204	  0.060681365	-6.130000E+00	  0.060681365	-1.201910E+02	  0.060681365	2.172500E+01	  0.060681365	-2.452100E+01
205	  0.060881764	-6.132000E+00	  0.060881764	-1.214290E+02	  0.060881764	2.150700E+01	  0.060881764	-2.395100E+01
206	  0.061082166	-6.132000E+00	  0.061082166	-1.226560E+02	  0.061082166	2.128800E+01	  0.061082166	-2.339500E+01
207	  0.061282568	-6.127000E+00	  0.061282568	-1.239150E+02	  0.061282568	2.106000E+01	  0.061282568	-2.283200E+01
208	  0.061482966	-6.126000E+00	  0.061482966	-1.251000E+02	  0.061482966	2.086100E+01	  0.061482966	-2.230100E+01
209	  0.061683368	-6.127000E+00	  0.061683368	-1.262950E+02	  0.061683368	2.067300E+01	  0.061683368	-2.176800E+01
210	  0.061883770	-6.126000E+00	  0.061883770	-1.274830E+02	  0.061883770	2.048700E+01	  0.061883770	-2.124200E+01
211	  0.062084168	-6.126000E+00	  0.062084168	-1.286660E+02	  0.062084168	2.030900E+01	  0.062084168	-2.072100E+01
212	  0.062284570	-6.127000E+00	  0.062284570	-1.298290E+02	  0.062284570	2.014400E+01	  0.062284570	-2.021100E+01
213	  0.062484972	-6.123000E+00	  0.062484972	-1.309630E+02	  0.062484972	1.997500E+01	  0.062484972	-1.972000E+01
214	  0.062685370	-6.124000E+00	  0.062685370	-1.321530E+02	  0.062685370	1.981600E+01	  0.062685370	-1.920400E+01
215	  0.062885776	-6.130000E+00	  0.062885776	-1.333110E+02	  0.062885776	1.968300E+01	  0.062885776	-1.869900E+01
216	  0.063086174	-6.128000E+00	  0.063086174	-1.344940E+02	  0.063086174	1.952800E+01	  0.063086174	-1.819400E+01
217	  0.063286573	-6.129000E+00	  0.063286573	-1.356770E+02	  0.063286573	1.938700E+01	  0.063286573	-1.768900E+01
218	  0.063486971	-6.137000E+00	  0.063486971	-1.368260E+02	  0.063486971	1.927200E+01	  0.063486971	-1.719500E+01
219	  0.063687377	-6.134000E+00	  0.063687377	-1.379900E+02	  0.063687377	1.913300E+01	  0.063687377	-1.670600E+01
220	  0.063887775	-6.133000E+00	  0.063887775	-1.391440E+02	  0.063887775	1.900200E+01	  0.063887775	-1.622200E+01
221	  0.064088173	-6.129000E+00	  0.064088173	-1.403020E+02	  0.064088173	1.887100E+01	  0.064088173	-1.574000E+01
222	  0.064288579	-6.133000E+00	  0.064288579	-1.414440E+02	  0.064288579	1.876400E+01	  0.064288579	-1.526200E+01
223	  0.064488977	-6.134000E+00	  0.064488977	-1.425330E+02	  0.064488977	1.866000E+01	  0.064488977	-1.481000E+01
224	  0.064689375	-6.139000E+00	  0.064689375	-1.436620E+02	  0.064689375	1.856600E+01	  0.064689375	-1.434000E+01
225	  0.064889781	-6.139000E+00	  0.064889781	-1.447450E+02	  0.064889781	1.846800E+01	  0.064889781	-1.389500E+01
226	  0.065090179	-6.143000E+00	  0.065090179	-1.458030E+02	  0.065090179	1.838500E+01	  0.065090179	-1.345900E+01
227	  0.065290578	-6.142000E+00	  0.065290578	-1.468790E+02	  0.065290578	1.829100E+01	  0.065290578	-1.302100E+01
228	  0.065490983	-6.151000E+00	  0.065490983	-1.479470E+02	  0.065490983	1.822900E+01	  0.065490983	-1.258100E+01
229	  0.065691382	-6.150000E+00	  0.065691382	-1.489930E+02	  0.065691382	1.814400E+01	  0.065691382	-1.215800E+01
230	  0.065891780	-6.158000E+00	  0.065891780	-1.500930E+02	  0.065891780	1.808200E+01	  0.065891780	-1.170900E+01
231	  0.066092186	-6.167000E+00	  0.066092186	-1.511300E+02	  0.066092186	1.803100E+01	  0.066092186	-1.128700E+01
232	  0.066292584	-6.175000E+00	  0.066292584	-1.521950E+02	  0.066292584	1.797900E+01	  0.066292584	-1.085700E+01
233	  0.066492982	-6.182000E+00	  0.066492982	-1.532030E+02	  0.066492982	1.792900E+01	  0.066492982	-1.045100E+01
234	  0.066693388	-6.190000E+00	  0.066693388	-1.542690E+02	  0.066693388	1.788200E+01	  0.066693388	-1.002200E+01
235	  0.066893786	-6.198000E+00	  0.066893786	-1.552840E+02	  0.066893786	1.784000E+01	  0.066893786	-9.616000E+00
236	  0.067094192	-6.206000E+00	  0.067094192	-1.563170E+02	  0.067094192	1.780200E+01	  0.067094192	-9.203000E+00
237	  0.067294590	-6.218000E+00	  0.067294590	-1.573710E+02	  0.067294590	1.777300E+01	  0.067294590	-8.782000E+00
238	  0.067494988	-6.229000E+00	  0.067494988	-1.584070E+02	  0.067494988	1.774700E+01	  0.067494988	-8.370000E+00
239	  0.067695394	-6.233000E+00	  0.067695394	-1.594320E+02	  0.067695394	1.770500E+01	  0.067695394	-7.966000E+00
240	  0.067895792	-6.248000E+00	  0.067895792	-1.604540E+02	  0.067895792	1.769500E+01	  0.067895792	-7.560000E+00
241	  0.068096191	-6.253000E+00	  0.068096191	-1.615240E+02	  0.068096191	1.766000E+01	  0.068096191	-7.140000E+00
242	  0.068296596	-6.261000E+00	  0.068296596	-1.625320E+02	  0.068296596	1.763700E+01	  0.068296596	-6.744000E+00
243	  0.068496995	-6.269000E+00	  0.068496995	-1.635460E+02	  0.068496995	1.761700E+01	  0.068496995	-6.347000E+00
244	  0.068697393	-6.274000E+00	  0.068697393	-1.645770E+02	  0.068697393	1.759100E+01	  0.068697393	-5.945000E+00
245	  0.068897791	-6.280000E+00	  0.068897791	-1.656090E+02	  0.068897791	1.756900E+01	  0.068897791	-5.543000E+00
246	  0.069098189	-6.284000E+00	  0.069098189	-1.666060E+02	  0.069098189	1.754700E+01	  0.069098189	-5.156000E+00
247	  0.069298595	-6.291000E+00	  0.069298595	-1.676170E+02	  0.069298595	1.753600E+01	  0.069298595	-4.763000E+00
248	  0.069498993	-6.293000E+00	  0.069498993	-1.686190E+02	  0.069498993	1.751200E+01	  0.069498993	-4.376000E+00
249	  0.069699399	-6.298000E+00	  0.069699399	-1.696680E+02	  0.069699399	1.749700E+01	  0.069699399	-3.970000E+00
250	  0.069899797	-6.306000E+00	  0.069899797	-1.706590E+02	  0.069899797	1.749500E+01	  0.069899797	-3.587000E+00
251	  0.070100196	-6.304000E+00	  0.070100196	-1.716480E+02	  0.070100196	1.747100E+01	  0.070100196	-3.206000E+00
252	  0.070300601	-6.312000E+00	  0.070300601	-1.726250E+02	  0.070300601	1.747200E+01	  0.070300601	-2.829000E+00
253	  0.070501000	-6.304000E+00	  0.070501000	-1.736490E+02	  0.070501000	1.743600E+01	  0.070501000	-2.437000E+00
254	  0.070701398	-6.300000E+00	  0.070701398	-1.746380E+02	  0.070701398	1.741100E+01	  0.070701398	-2.057000E+00
255	  0.070901804	-6.302000E+00	  0.070901804	-1.755720E+02	  0.070901804	1.740700E+01	  0.070901804	-1.698000E+00
256	  0.071102202	-6.303000E+00	  0.071102202	-1.765590E+02	  0.071102202	1.740100E+01	  0.071102202	-1.320000E+00
257	  0.071302600	-6.303000E+00	  0.071302600	-1.775420E+02	  0.071302600	1.739300E+01	  0.071302600	-9.420000E-01
258	  0.071503006	-6.308000E+00	  0.071503006	-1.784820E+02	  0.071503006	1.740200E+01	  0.071503006	-5.820000E-01
259	  0.071703404	-6.306000E+00	  0.071703404	-1.794200E+02	  0.071703404	1.739300E+01	  0.071703404	-2.220000E-01
260	  0.071903802	-6.305000E+00	  0.071903802	1.796500E+02	  0.071903802	1.739200E+01	  0.071903802	1.330000E-01
261	  0.072104208	-6.306000E+00	  0.072104208	1.787230E+02	  0.072104208	1.739500E+01	  0.072104208	4.890000E-01
262	  0.072304606	-6.305000E+00	  0.072304606	1.778120E+02	  0.072304606	1.739600E+01	  0.072304606	8.390000E-01
263	  0.072505005	-6.311000E+00	  0.072505005	1.768840E+02	  0.072505005	1.741700E+01	  0.072505005	1.195000E+00
264	  0.072705410	-6.312000E+00	  0.072705410	1.759910E+02	  0.072705410	1.742800E+01	  0.072705410	1.537000E+00
265	  0.072905809	-6.313000E+00	  0.072905809	1.750670E+02	  0.072905809	1.743900E+01	  0.072905809	1.892000E+00
266	  0.073106214	-6.319000E+00	  0.073106214	1.741660E+02	  0.073106214	1.746600E+01	  0.073106214	2.237000E+00
267	  0.073306613	-6.323000E+00	  0.073306613	1.732990E+02	  0.073306613	1.748900E+01	  0.073306613	2.569000E+00
268	  0.073507011	-6.329000E+00	  0.073507011	1.724050E+02	  0.073507011	1.751800E+01	  0.073507011	2.912000E+00
269	  0.073707417	-6.336000E+00	  0.073707417	1.714910E+02	  0.073707417	1.755400E+01	  0.073707417	3.263000E+00
270	  0.073907815	-6.343000E+00	  0.073907815	1.706060E+02	  0.073907815	1.759100E+01	  0.073907815	3.602000E+00
271	  0.074108213	-6.348000E+00	  0.074108213	1.697240E+02	  0.074108213	1.762300E+01	  0.074108213	3.940000E+00
272	  0.074308619	-6.353000E+00	  0.074308619	1.688480E+02	  0.074308619	1.766000E+01	  0.074308619	4.277000E+00
273	  0.074509017	-6.362000E+00	  0.074509017	1.679580E+02	  0.074509017	1.770500E+01	  0.074509017	4.618000E+00
274	  0.074709415	-6.375000E+00	  0.074709415	1.670610E+02	  0.074709415	1.776500E+01	  0.074709415	4.961000E+00
275	  0.074909821	-6.384000E+00	  0.074909821	1.661850E+02	  0.074909821	1.781800E+01	  0.074909821	5.297000E+00
276	  0.075110219	-6.398000E+00	  0.075110219	1.652800E+02	  0.075110219	1.788400E+01	  0.075110219	5.643000E+00
277	  0.075310618	-6.411000E+00	  0.075310618	1.644160E+02	  0.075310618	1.794800E+01	  0.075310618	5.974000E+00
278	  0.075511023	-6.420000E+00	  0.075511023	1.635400E+02	  0.075511023	1.800300E+01	  0.075511023	6.310000E+00
279	  0.075711422	-6.432000E+00	  0.075711422	1.626450E+02	  0.075711422	1.807100E+01	  0.075711422	6.653000E+00
280	  0.075911827	-6.441000E+00	  0.075911827	1.617620E+02	  0.075911827	1.813100E+01	  0.075911827	6.993000E+00
281	  0.076112226	-6.454000E+00	  0.076112226	1.608930E+02	  0.076112226	1.820600E+01	  0.076112226	7.326000E+00
282	  0.076312624	-6.464000E+00	  0.076312624	1.599850E+02	  0.076312624	1.827300E+01	  0.076312624	7.675000E+00
283	  0.076513030	-6.479000E+00	  0.076513030	1.591010E+02	  0.076513030	1.835700E+01	  0.076513030	8.013000E+00
284	  0.076713428	-6.488000E+00	  0.076713428	1.581920E+02	  0.076713428	1.842700E+01	  0.076713428	8.364000E+00
285	  0.076913826	-6.501000E+00	  0.076913826	1.573240E+02	  0.076913826	1.850800E+01	  0.076913826	8.697000E+00
286	  0.077114232	-6.511000E+00	  0.077114232	1.564320E+02	  0.077114232	1.858700E+01	  0.077114232	9.041000E+00
287	  0.077314630	-6.519000E+00	  0.077314630	1.555860E+02	  0.077314630	1.865800E+01	  0.077314630	9.369000E+00
288	  0.077515028	-6.527000E+00	  0.077515028	1.547280E+02	  0.077515028	1.873200E+01	  0.077515028	9.701000E+00
289	  0.077715434	-6.537000E+00	  0.077715434	1.538720E+02	  0.077715434	1.881300E+01	  0.077715434	1.003200E+01
290	  0.077915832	-6.550000E+00	  0.077915832	1.529910E+02	  0.077915832	1.890400E+01	  0.077915832	1.037200E+01
291	  0.078116231	-6.561000E+00	  0.078116231	1.521580E+02	  0.078116231	1.899100E+01	  0.078116231	1.069500E+01
292	  0.078316636	-6.568000E+00	  0.078316636	1.513200E+02	  0.078316636	1.907000E+01	  0.078316636	1.102100E+01
293	  0.078517035	-6.586000E+00	  0.078517035	1.504420E+02	  0.078517035	1.918200E+01	  0.078517035	1.135800E+01
294	  0.078717433	-6.597000E+00	  0.078717433	1.496100E+02	  0.078717433	1.927600E+01	  0.078717433	1.168200E+01
295	  0.078917839	-6.610000E+00	  0.078917839	1.487860E+02	  0.078917839	1.937500E+01	  0.078917839	1.200000E+01
296	  0.079118237	-6.627000E+00	  0.079118237	1.479710E+02	  0.079118237	1.948800E+01	  0.079118237	1.231400E+01
297	  0.079318643	-6.641000E+00	  0.079318643	1.471350E+02	  0.079318643	1.959500E+01	  0.079318643	1.263800E+01
298	  0.079519041	-6.655000E+00	  0.079519041	1.463190E+02	  0.079519041	1.970200E+01	  0.079519041	1.295500E+01
299	  0.079719439	-6.670000E+00	  0.079719439	1.455000E+02	  0.079719439	1.981500E+01	  0.079719439	1.327200E+01
300	  0.079919845	-6.682000E+00	  0.079919845	1.446590E+02	  0.079919845	1.992600E+01	  0.079919845	1.360000E+01
301	  0.080120243	-6.696000E+00	  0.080120243	1.438550E+02	  0.080120243	2.004200E+01	  0.080120243	1.391200E+01
302	  0.080320641	-6.715000E+00	  0.080320641	1.430360E+02	  0.080320641	2.017100E+01	  0.080320641	1.422800E+01
303	  0.080521047	-6.725000E+00	  0.080521047	1.422430E+02	  0.080521047	2.027800E+01	  0.080521047	1.453900E+01
304	  0.080721445	-6.741000E+00	  0.080721445	1.414090E+02	  0.080721445	2.040900E+01	  0.080721445	1.486300E+01
305	  0.080921844	-6.760000E+00	  0.080921844	1.406220E+02	  0.080921844	2.054300E+01	  0.080921844	1.516700E+01
306	  0.081122249	-6.773000E+00	  0.081122249	1.398060E+02	  0.081122249	2.066800E+01	  0.081122249	1.548600E+01
307	  0.081322648	-6.790000E+00	  0.081322648	1.390010E+02	  0.081322648	2.080300E+01	  0.081322648	1.579900E+01
308	  0.081523046	-6.807000E+00	  0.081523046	1.381980E+02	  0.081523046	2.094300E+01	  0.081523046	1.611000E+01
309	  0.081723452	-6.820000E+00	  0.081723452	1.374120E+02	  0.081723452	2.107100E+01	  0.081723452	1.641900E+01
310	  0.081923850	-6.837000E+00	  0.081923850	1.366450E+02	  0.081923850	2.121200E+01	  0.081923850	1.671700E+01
311	  0.082124248	-6.851000E+00	  0.082124248	1.358770E+02	  0.082124248	2.134400E+01	  0.082124248	1.701800E+01
312	  0.082324654	-6.868000E+00	  0.082324654	1.351040E+02	  0.082324654	2.149000E+01	  0.082324654	1.731800E+01
313	  0.082525052	-6.886000E+00	  0.082525052	1.343470E+02	  0.082525052	2.163800E+01	  0.082525052	1.761200E+01
314	  0.082725458	-6.907000E+00	  0.082725458	1.336050E+02	  0.082725458	2.179500E+01	  0.082725458	1.789700E+01
315	  0.082925856	-6.924000E+00	  0.082925856	1.328340E+02	  0.082925856	2.194700E+01	  0.082925856	1.819700E+01
316	  0.083126254	-6.948000E+00	  0.083126254	1.320830E+02	  0.083126254	2.211700E+01	  0.083126254	1.848300E+01
317	  0.083326660	-6.966000E+00	  0.083326660	1.312910E+02	  0.083326660	2.227900E+01	  0.083326660	1.879200E+01
318	  0.083527058	-6.984000E+00	  0.083527058	1.305270E+02	  0.083527058	2.244200E+01	  0.083527058	1.908800E+01
319	  0.083727457	-7.001000E+00	  0.083727457	1.298120E+02	  0.083727457	2.259600E+01	  0.083727457	1.936600E+01
320	  0.083927862	-7.019000E+00	  0.083927862	1.290470E+02	  0.083927862	2.276200E+01	  0.083927862	1.966400E+01
321	  0.084128261	-7.040000E+00	  0.084128261	1.283470E+02	  0.084128261	2.293100E+01	  0.084128261	1.993200E+01
322	  0.084328659	-7.057000E+00	  0.084328659	1.276340E+02	  0.084328659	2.309300E+01	  0.084328659	2.020900E+01
323	  0.084529065	-7.075000E+00	  0.084529065	1.269360E+02	  0.084529065	2.325700E+01	  0.084529065	2.047900E+01
324	  0.084729463	-7.102000E+00	  0.084729463	1.262320E+02	  0.084729463	2.344800E+01	  0.084729463	2.074200E+01
325	  0.084929861	-7.120000E+00	  0.084929861	1.255340E+02	  0.084929861	2.361700E+01	  0.084929861	2.101200E+01
326	  0.085130267	-7.140000E+00	  0.085130267	1.248450E+02	  0.085130267	2.379300E+01	  0.085130267	2.127500E+01
327	  0.085330658	-7.165000E+00	  0.085330658	1.241540E+02	  0.085330658	2.398500E+01	  0.085330658	2.153400E+01
328	  0.085531056	-7.193000E+00	  0.085531056	1.234940E+02	  0.085531056	2.418400E+01	  0.085531056	2.177500E+01
329	  0.085731462	-7.221000E+00	  0.085731462	1.228160E+02	  0.085731462	2.438700E+01	  0.085731462	2.202300E+01
330	  0.085931860	-7.245000E+00	  0.085931860	1.221580E+02	  0.085931860	2.457800E+01	  0.085931860	2.226800E+01
331	  0.086132258	-7.276000E+00	  0.086132258	1.214930E+02	  0.086132258	2.479100E+01	  0.086132258	2.250600E+01
332	  0.086332664	-7.306000E+00	  0.086332664	1.208540E+02	  0.086332664	2.499900E+01	  0.086332664	2.273400E+01
333	  0.086533062	-7.337000E+00	  0.086533062	1.201750E+02	  0.086533062	2.522100E+01	  0.086533062	2.297600E+01
334	  0.086733460	-7.365000E+00	  0.086733460	1.194800E+02	  0.086733460	2.543800E+01	  0.086733460	2.323000E+01
335	  0.086933866	-7.394000E+00	  0.086933866	1.187980E+02	  0.086933866	2.566200E+01	  0.086933866	2.347300E+01
336	  0.087134264	-7.420000E+00	  0.087134264	1.181040E+02	  0.087134264	2.587800E+01	  0.087134264	2.372800E+01
337	  0.087334670	-7.450000E+00	  0.087334670	1.174190E+02	  0.087334670	2.611000E+01	  0.087334670	2.397100E+01
338	  0.087535068	-7.479000E+00	  0.087535068	1.167280E+02	  0.087535068	2.634300E+01	  0.087535068	2.421700E+01
339	  0.087735467	-7.507000E+00	  0.087735467	1.160600E+02	  0.087735467	2.657000E+01	  0.087735467	2.445500E+01
340	  0.087935872	-7.538000E+00	  0.087935872	1.153930E+02	  0.087935872	2.680800E+01	  0.087935872	2.468600E+01
341	  0.088136271	-7.565000E+00	  0.088136271	1.147150E+02	  0.088136271	2.704000E+01	  0.088136271	2.492800E+01
342	  0.088336669	-7.594000E+00	  0.088336669	1.140220E+02	  0.088336669	2.728400E+01	  0.088336669	2.517100E+01
343	  0.088537075	-7.620000E+00	  0.088537075	1.133650E+02	  0.088537075	2.751600E+01	  0.088537075	2.540300E+01
344	  0.088737473	-7.646000E+00	  0.088737473	1.126970E+02	  0.088737473	2.775000E+01	  0.088737473	2.564000E+01
345	  0.088937871	-7.670000E+00	  0.088937871	1.120330E+02	  0.088937871	2.798200E+01	  0.088937871	2.587800E+01
346	  0.089138277	-7.697000E+00	  0.089138277	1.114070E+02	  0.089138277	2.821700E+01	  0.089138277	2.609200E+01
347	  0.089338675	-7.718000E+00	  0.089338675	1.107850E+02	  0.089338675	2.843700E+01	  0.089338675	2.631400E+01
348	  0.089539073	-7.751000E+00	  0.089539073	1.101450E+02	  0.089539073	2.869600E+01	  0.089539073	2.652300E+01
349	  0.089739479	-7.772000E+00	  0.089739479	1.095090E+02	  0.089739479	2.892300E+01	  0.089739479	2.675100E+01
350	  0.089939877	-7.806000E+00	  0.089939877	1.088890E+02	  0.089939877	2.918400E+01	  0.089939877	2.694700E+01
351	  0.090140276	-7.825000E+00	  0.090140276	1.082130E+02	  0.090140276	2.942400E+01	  0.090140276	2.719200E+01
352	  0.090340681	-7.850000E+00	  0.090340681	1.076100E+02	  0.090340681	2.966200E+01	  0.090340681	2.739500E+01
353	  0.090541080	-7.867000E+00	  0.090541080	1.069950E+02	  0.090541080	2.988300E+01	  0.090541080	2.761900E+01
354	  0.090741485	-7.898000E+00	  0.090741485	1.064140E+02	  0.090741485	3.013800E+01	  0.090741485	2.779700E+01
355	  0.090941884	-7.917000E+00	  0.090941884	1.058040E+02	  0.090941884	3.036800E+01	  0.090941884	2.801300E+01
356	  0.091142282	-7.942000E+00	  0.091142282	1.052160E+02	  0.091142282	3.061200E+01	  0.091142282	2.820600E+01
357	  0.091342688	-7.964000E+00	  0.091342688	1.046440E+02	  0.091342688	3.084700E+01	  0.091342688	2.839600E+01
358	  0.091543086	-7.983000E+00	  0.091543086	1.040850E+02	  0.091543086	3.107000E+01	  0.091543086	2.858800E+01
359	  0.091743484	-8.010000E+00	  0.091743484	1.035380E+02	  0.091743484	3.131200E+01	  0.091743484	2.875800E+01
360	  0.091943890	-8.028000E+00	  0.091943890	1.029960E+02	  0.091943890	3.153300E+01	  0.091943890	2.894200E+01
361	  0.092144288	-8.051000E+00	  0.092144288	1.024740E+02	  0.092144288	3.176400E+01	  0.092144288	2.910500E+01
362	  0.092344686	-8.071000E+00	  0.092344686	1.019600E+02	  0.092344686	3.198400E+01	  0.092344686	2.927300E+01
363	  0.092545092	-8.101000E+00	  0.092545092	1.014690E+02	  0.092545092	3.222600E+01	  0.092545092	2.940600E+01
364	  0.092745490	-8.125000E+00	  0.092745490	1.009800E+02	  0.092745490	3.245200E+01	  0.092745490	2.955300E+01
365	  0.092945889	-8.157000E+00	  0.092945889	1.004630E+02	  0.092945889	3.271300E+01	  0.092945889	2.968900E+01
366	  0.093146294	-8.186000E+00	  0.093146294	9.996600E+01	  0.093146294	3.295700E+01	  0.093146294	2.982700E+01
367	  0.093346693	-8.212000E+00	  0.093346693	9.949200E+01	  0.093346693	3.319100E+01	  0.093346693	2.995700E+01
368	  0.093547091	-8.241000E+00	  0.093547091	9.899600E+01	  0.093547091	3.344000E+01	  0.093547091	3.008900E+01
369	  0.093747497	-8.266000E+00	  0.093747497	9.851400E+01	  0.093747497	3.367600E+01	  0.093747497	3.022300E+01
370	  0.093947895	-8.297000E+00	  0.093947895	9.797900E+01	  0.093947895	3.395000E+01	  0.093947895	3.036000E+01
371	  0.094148301	-8.325000E+00	  0.094148301	9.746700E+01	  0.094148301	3.420700E+01	  0.094148301	3.049700E+01
372	  0.094348699	-8.359000E+00	  0.094348699	9.700000E+01	  0.094348699	3.446600E+01	  0.094348699	3.059900E+01
373	  0.094549097	-8.384000E+00	  0.094549097	9.651300E+01	  0.094549097	3.471200E+01	  0.094549097	3.072800E+01
374	  0.094749503	-8.412000E+00	  0.094749503	9.604900E+01	  0.094749503	3.495600E+01	  0.094749503	3.084100E+01
375	  0.094949901	-8.430000E+00	  0.094949901	9.551800E+01	  0.094949901	3.520500E+01	  0.094949901	3.100000E+01
376	  0.095150299	-8.459000E+00	  0.095150299	9.506400E+01	  0.095150299	3.545200E+01	  0.095150299	3.110300E+01
377	  0.095350705	-8.475000E+00	  0.095350705	9.460000E+01	  0.095350705	3.567300E+01	  0.095350705	3.124100E+01
378	  0.095551103	-8.502000E+00	  0.095551103	9.408500E+01	  0.095551103	3.594300E+01	  0.095551103	3.136800E+01
379	  0.095751502	-8.523000E+00	  0.095751502	9.359900E+01	  0.095751502	3.618900E+01	  0.095751502	3.149800E+01
380	  0.095951907	-8.543000E+00	  0.095951907	9.315800E+01	  0.095951907	3.641400E+01	  0.095951907	3.161500E+01
381	  0.096152306	-8.566000E+00	  0.096152306	9.271300E+01	  0.096152306	3.665000E+01	  0.096152306	3.172200E+01
382	  0.096352704	-8.582000E+00	  0.096352704	9.225900E+01	  0.096352704	3.687700E+01	  0.096352704	3.184900E+01
383	  0.096553110	-8.600000E+00	  0.096553110	9.182700E+01	  0.096553110	3.710000E+01	  0.096553110	3.196200E+01
384	  0.096753508	-8.615000E+00	  0.096753508	9.137400E+01	  0.096753508	3.732500E+01	  0.096753508	3.209000E+01
385	  0.096953906	-8.630000E+00	  0.096953906	9.093800E+01	  0.096953906	3.754400E+01	  0.096953906	3.221100E+01
386	  0.097154312	-8.645000E+00	  0.097154312	9.051300E+01	  0.097154312	3.776100E+01	  0.097154312	3.232800E+01
387	  0.097354710	-8.657000E+00	  0.097354710	9.007600E+01	  0.097354710	3.797700E+01	  0.097354710	3.245500E+01
388	  0.097555116	-8.665000E+00	  0.097555116	8.966800E+01	  0.097555116	3.817400E+01	  0.097555116	3.258100E+01
389	  0.097755514	-8.678000E+00	  0.097755514	8.926400E+01	  0.097755514	3.838100E+01	  0.097755514	3.269200E+01
390	  0.097955912	-8.688000E+00	  0.097955912	8.885000E+01	  0.097955912	3.858700E+01	  0.097955912	3.281500E+01
391	  0.098156318	-8.692000E+00	  0.098156318	8.845700E+01	  0.098156318	3.877200E+01	  0.098156318	3.294500E+01
392	  0.098356716	-8.702000E+00	  0.098356716	8.807700E+01	  0.098356716	3.896400E+01	  0.098356716	3.305600E+01
393	  0.098557115	-8.703000E+00	  0.098557115	8.770700E+01	  0.098557115	3.913600E+01	  0.098557115	3.318400E+01
394	  0.098757520	-8.708000E+00	  0.098757520	8.731300E+01	  0.098757520	3.932600E+01	  0.098757520	3.331300E+01
395	  0.098957919	-8.712000E+00	  0.098957919	8.692300E+01	  0.098957919	3.951500E+01	  0.098957919	3.344100E+01
396	  0.099158317	-8.717000E+00	  0.099158317	8.655600E+01	  0.099158317	3.969600E+01	  0.099158317	3.355700E+01
397	  0.099358723	-8.722000E+00	  0.099358723	8.621900E+01	  0.099358723	3.986500E+01	  0.099358723	3.366200E+01
398	  0.099559121	-8.723000E+00	  0.099559121	8.585900E+01	  0.099559121	4.003800E+01	  0.099559121	3.378600E+01
399	  0.099759519	-8.727000E+00	  0.099759519	8.550300E+01	  0.099759519	4.021500E+01	  0.099759519	3.390100E+01
400	  0.099959925	-8.741000E+00	  0.099959925	8.513500E+01	  0.099959925	4.042400E+01	  0.099959925	3.398700E+01
401	  0.100160323	-8.738000E+00	  0.100160323	8.477000E+01	  0.100160323	4.059300E+01	  0.100160323	3.412400E+01
402	  0.100360721	-8.744000E+00	  0.100360721	8.441400E+01	  0.100360721	4.078000E+01	  0.100360721	3.422900E+01
403	  0.100561127	-8.746000E+00	  0.100561127	8.396400E+01	  0.100561127	4.100400E+01	  0.100561127	3.438300E+01
404	  0.100761525	-8.754000E+00	  0.100761525	8.361900E+01	  0.100761525	4.119200E+01	  0.100761525	3.447700E+01
405	  0.100961931	-8.753000E+00	  0.100961931	8.321000E+01	  0.100961931	4.139400E+01	  0.100961931	3.462200E+01
406	  0.101162329	-8.761000E+00	  0.101162329	8.285600E+01	  0.101162329	4.159000E+01	  0.101162329	3.471700E+01
407	  0.101362728	-8.760000E+00	  0.101362728	8.239300E+01	  0.101362728	4.182400E+01	  0.101362728	3.487800E+01
408	  0.101563133	-8.750000E+00	  0.101563133	8.199400E+01	  0.101563133	4.200400E+01	  0.101563133	3.505100E+01
409	  0.101763532	-8.756000E+00	  0.101763532	8.159600E+01	  0.101763532	4.222300E+01	  0.101763532	3.516600E+01
410	  0.101963930	-8.750000E+00	  0.101963930	8.111300E+01	  0.101963930	4.246100E+01	  0.101963930	3.535200E+01
411	  0.102164336	-8.737000E+00	  0.102164336	8.066800E+01	  0.102164336	4.266700E+01	  0.102164336	3.554700E+01
412	  0.102364734	-8.742000E+00	  0.102364734	8.016700E+01	  0.102364734	4.294500E+01	  0.102364734	3.569900E+01
413	  0.102565132	-8.737000E+00	  0.102565132	7.971900E+01	  0.102565132	4.317400E+01	  0.102565132	3.586800E+01
414	  0.102765530	-8.722000E+00	  0.102765530	7.928900E+01	  0.102765530	4.337600E+01	  0.102765530	3.606400E+01
415	  0.102965929	-8.704000E+00	  0.102965929	7.884800E+01	  0.102965929	4.357800E+01	  0.102965929	3.627700E+01
416	  0.103166327	-8.706000E+00	  0.103166327	7.834100E+01	  0.103166327	4.386400E+01	  0.103166327	3.643900E+01
417	  0.103366733	-8.696000E+00	  0.103366733	7.790200E+01	  0.103366733	4.408700E+01	  0.103366733	3.662300E+01
418	  0.103567131	-8.682000E+00	  0.103567131	7.741800E+01	  0.103567131	4.433100E+01	  0.103567131	3.683400E+01
419	  0.103767529	-8.659000E+00	  0.103767529	7.695700E+01	  0.103767529	4.454500E+01	  0.103767529	3.707500E+01
420	  0.103967935	-8.661000E+00	  0.103967935	7.645000E+01	  0.103967935	4.484400E+01	  0.103967935	3.723200E+01
421	  0.104168333	-8.636000E+00	  0.104168333	7.599200E+01	  0.104168333	4.505900E+01	  0.104168333	3.747800E+01
422	  0.104368731	-8.619000E+00	  0.104368731	7.554700E+01	  0.104368731	4.528400E+01	  0.104368731	3.769300E+01
423	  0.104569137	-8.602000E+00	  0.104569137	7.503200E+01	  0.104569137	4.555600E+01	  0.104569137	3.792800E+01
424	  0.104769535	-8.585000E+00	  0.104769535	7.454900E+01	  0.104769535	4.581400E+01	  0.104769535	3.815000E+01
425	  0.104969934	-8.551000E+00	  0.104969934	7.404800E+01	  0.104969934	4.604800E+01	  0.104969934	3.845100E+01
426	  0.105170339	-8.540000E+00	  0.105170339	7.352700E+01	  0.105170339	4.635000E+01	  0.105170339	3.866500E+01
427	  0.105370738	-8.513000E+00	  0.105370738	7.306600E+01	  0.105370738	4.658100E+01	  0.105370738	3.892800E+01
428	  0.105571143	-8.506000E+00	  0.105571143	7.259500E+01	  0.105571143	4.686800E+01	  0.105571143	3.910500E+01
429	  0.105771542	-8.473000E+00	  0.105771542	7.204600E+01	  0.105771542	4.715100E+01	  0.105771542	3.942100E+01
430	  0.105971940	-8.463000E+00	  0.105971940	7.155200E+01	  0.105971940	4.745300E+01	  0.105971940	3.962100E+01
431	  0.106172346	-8.433000E+00	  0.106172346	7.109000E+01	  0.106172346	4.769400E+01	  0.106172346	3.990000E+01
432	  0.106372744	-8.429000E+00	  0.106372744	7.057700E+01	  0.106372744	4.802900E+01	  0.106372744	4.008000E+01
433	  0.106573142	-8.394000E+00	  0.106573142	7.003900E+01	  0.106573142	4.832000E+01	  0.106573142	4.040400E+01
434	  0.106773548	-8.381000E+00	  0.106773548	6.956100E+01	  0.106773548	4.862000E+01	  0.106773548	4.061400E+01
435	  0.106973946	-8.368000E+00	  0.106973946	6.897700E+01	  0.106973946	4.900000E+01	  0.106973946	4.085400E+01
436	  0.107174344	-8.349000E+00	  0.107174344	6.842500E+01	  0.107174344	4.935000E+01	  0.107174344	4.111000E+01
437	  0.107374750	-8.335000E+00	  0.107374750	6.781600E+01	  0.107374750	4.975600E+01	  0.107374750	4.136300E+01
438	  0.107575148	-8.319000E+00	  0.107575148	6.725100E+01	  0.107575148	5.013300E+01	  0.107575148	4.160800E+01
439	  0.107775547	-8.309000E+00	  0.107775547	6.662100E+01	  0.107775547	5.057500E+01	  0.107775547	4.184400E+01
440	  0.107975952	-8.290000E+00	  0.107975952	6.603700E+01	  0.107975952	5.097200E+01	  0.107975952	4.211100E+01
441	  0.108176351	-8.281000E+00	  0.108176351	6.543400E+01	  0.108176351	5.141000E+01	  0.108176351	4.233100E+01
442	  0.108376749	-8.269000E+00	  0.108376749	6.476300E+01	  0.108376749	5.190100E+01	  0.108376749	4.258200E+01
443	  0.108577155	-8.255000E+00	  0.108577155	6.404500E+01	  0.108577155	5.243500E+01	  0.108577155	4.285400E+01
444	  0.108777553	-8.249000E+00	  0.108777553	6.340000E+01	  0.108777553	5.293400E+01	  0.108777553	4.306200E+01
445	  0.108977959	-8.233000E+00	  0.108977959	6.275200E+01	  0.108977959	5.342400E+01	  0.108977959	4.332200E+01
446	  0.109178357	-8.228000E+00	  0.109178357	6.205600E+01	  0.109178357	5.398300E+01	  0.109178357	4.352900E+01
447	  0.109378755	-8.219000E+00	  0.109378755	6.135100E+01	  0.109378755	5.454900E+01	  0.109378755	4.376000E+01
448	  0.109579161	-8.199000E+00	  0.109579161	6.065800E+01	  0.109579161	5.510000E+01	  0.109579161	4.403900E+01
449	  0.109779559	-8.196000E+00	  0.109779559	5.999500E+01	  0.109779559	5.566100E+01	  0.109779559	4.421800E+01
450	  0.109979957	-8.194000E+00	  0.109979957	5.930700E+01	  0.109979957	5.625200E+01	  0.109979957	4.439200E+01
451	  0.110180363	-8.169000E+00	  0.110180363	5.854700E+01	  0.110180363	5.688500E+01	  0.110180363	4.470200E+01
452	  0.110380761	-8.166000E+00	  0.110380761	5.786000E+01	  0.110380761	5.749500E+01	  0.110380761	4.486800E+01
453	  0.110581160	-8.150000E+00	  0.110581160	5.715700E+01	  0.110581160	5.811100E+01	  0.110581160	4.511200E+01
454	  0.110781565	-8.137000E+00	  0.110781565	5.634600E+01	  0.110781565	5.884300E+01	  0.110781565	4.534900E+01
455	  0.110981964	-8.128000E+00	  0.110981964	5.561600E+01	  0.110981964	5.951700E+01	  0.110981964	4.554100E+01
456	  0.111182362	-8.118000E+00	  0.111182362	5.491100E+01	  0.111182362	6.017700E+01	  0.111182362	4.572800E+01
457	  0.111382768	-8.110000E+00	  0.111382768	5.418000E+01	  0.111382768	6.087600E+01	  0.111382768	4.589800E+01
458	  0.111583166	-8.099000E+00	  0.111583166	5.341500E+01	  0.111583166	6.161800E+01	  0.111583166	4.608400E+01
459	  0.111783572	-8.092000E+00	  0.111783572	5.266700E+01	  0.111783572	6.235800E+01	  0.111783572	4.623600E+01
460	  0.111983970	-8.081000E+00	  0.111983970	5.191900E+01	  0.111983970	6.310700E+01	  0.111983970	4.640200E+01
461	  0.112184368	-8.079000E+00	  0.112184368	5.115300E+01	  0.112184368	6.389600E+01	  0.112184368	4.649600E+01
462	  0.112384774	-8.071000E+00	  0.112384774	5.041400E+01	  0.112384774	6.466300E+01	  0.112384774	4.662300E+01
463	  0.112585172	-8.076000E+00	  0.112585172	4.960300E+01	  0.112585172	6.552400E+01	  0.112585172	4.665000E+01
464	  0.112785570	-8.067000E+00	  0.112785570	4.880200E+01	  0.112785570	6.638200E+01	  0.112785570	4.675600E+01
465	  0.112985976	-8.071000E+00	  0.112985976	4.806500E+01	  0.112985976	6.718700E+01	  0.112985976	4.675900E+01
466	  0.113186374	-8.079000E+00	  0.113186374	4.723400E+01	  0.113186374	6.810500E+01	  0.113186374	4.671700E+01
467	  0.113386773	-8.076000E+00	  0.113386773	4.642400E+01	  0.113386773	6.901000E+01	  0.113386773	4.673500E+01
468	  0.113587178	-8.089000E+00	  0.113587178	4.558600E+01	  0.113587178	6.995800E+01	  0.113587178	4.661900E+01
469	  0.113787577	-8.097000E+00	  0.113787577	4.475500E+01	  0.113787577	7.090600E+01	  0.113787577	4.651100E+01
470	  0.113987975	-8.115000E+00	  0.113987975	4.391800E+01	  0.113987975	7.186500E+01	  0.113987975	4.631300E+01
471	  0.114188381	-8.122000E+00	  0.114188381	4.308000E+01	  0.114188381	7.283900E+01	  0.114188381	4.617100E+01
472	  0.114388779	-8.131000E+00	  0.114388779	4.216700E+01	  0.114388779	7.390900E+01	  0.114388779	4.598200E+01
473	  0.114589177	-8.153000E+00	  0.114589177	4.130400E+01	  0.114589177	7.491200E+01	  0.114589177	4.566800E+01
474	  0.114789583	-8.171000E+00	  0.114789583	4.034700E+01	  0.114789583	7.603600E+01	  0.114789583	4.533500E+01
475	  0.114989981	-8.191000E+00	  0.114989981	3.942100E+01	  0.114989981	7.712400E+01	  0.114989981	4.496300E+01
476	  0.115190387	-8.209000E+00	  0.115190387	3.855300E+01	  0.115190387	7.814400E+01	  0.115190387	4.458900E+01
477	  0.115390785	-8.233000E+00	  0.115390785	3.760600E+01	  0.115390785	7.925100E+01	  0.115390785	4.411200E+01
478	  0.115591183	-8.249000E+00	  0.115591183	3.660000E+01	  0.115591183	8.044500E+01	  0.115591183	4.363800E+01
479	  0.115791589	-8.272000E+00	  0.115791589	3.561600E+01	  0.115791589	8.159400E+01	  0.115791589	4.307900E+01
480	  0.115991987	-8.296000E+00	  0.115991987	3.463700E+01	  0.115991987	8.272700E+01	  0.115991987	4.246700E+01
481	  0.116192386	-8.319000E+00	  0.116192386	3.360600E+01	  0.116192386	8.392200E+01	  0.116192386	4.180700E+01
482	  0.116392791	-8.338000E+00	  0.116392791	3.257900E+01	  0.116392791	8.511400E+01	  0.116392791	4.112600E+01
483	  0.116593190	-8.364000E+00	  0.116593190	3.153500E+01	  0.116593190	8.629100E+01	  0.116593190	4.033600E+01
484	  0.116793588	-8.391000E+00	  0.116793588	3.046400E+01	  0.116793588	8.748100E+01	  0.116793588	3.947900E+01
485	  0.116993994	-8.418000E+00	  0.116993994	2.938300E+01	  0.116993994	8.866200E+01	  0.116993994	3.855900E+01
486	  0.117194392	-8.445000E+00	  0.117194392	2.832100E+01	  0.117194392	8.979400E+01	  0.117194392	3.759900E+01
487	  0.117394790	-8.475000E+00	  0.117394790	2.722100E+01	  0.117394790	9.093500E+01	  0.117394790	3.654900E+01
488	  0.117595196	-8.508000E+00	  0.117595196	2.612800E+01	  0.117595196	9.201600E+01	  0.117595196	3.542300E+01
489	  0.117795594	-8.535000E+00	  0.117795594	2.499500E+01	  0.117795594	9.314100E+01	  0.117795594	3.426200E+01
490	  0.117995992	-8.574000E+00	  0.117995992	2.392200E+01	  0.117995992	9.409100E+01	  0.117995992	3.301900E+01
491	  0.118196398	-8.609000E+00	  0.118196398	2.277600E+01	  0.118196398	9.509500E+01	  0.118196398	3.169000E+01
492	  0.118396796	-8.651000E+00	  0.118396796	2.166500E+01	  0.118396796	9.597000E+01	  0.118396796	3.030500E+01
493	  0.118597202	-8.694000E+00	  0.118597202	2.048300E+01	  0.118597202	9.685400E+01	  0.118597202	2.880300E+01
494	  0.118797600	-8.747000E+00	  0.118797600	1.934500E+01	  0.118797600	9.756300E+01	  0.118797600	2.724700E+01
495	  0.118997999	-8.800000E+00	  0.118997999	1.817400E+01	  0.118997999	9.823200E+01	  0.118997999	2.562700E+01
496	  0.119198404	-8.851000E+00	  0.119198404	1.700800E+01	  0.119198404	9.883300E+01	  0.119198404	2.399300E+01
497	  0.119398803	-8.916000E+00	  0.119398803	1.586300E+01	  0.119398803	9.924400E+01	  0.119398803	2.229700E+01
498	  0.119599201	-8.991000E+00	  0.119599201	1.466700E+01	  0.119599201	9.953300E+01	  0.119599201	2.048500E+01
499	  0.119799607	-9.060000E+00	  0.119799607	1.349300E+01	  0.119799607	9.978000E+01	  0.119799607	1.873400E+01
500	  0.120000005	-9.137000E+00	  0.120000005	1.229900E+01	  0.120000005	9.988600E+01	  0.120000005	1.692600E+01
