! Anritsu VNA Master:             	Model: MS2036C/10/77
! SN:             	1601066
! /bd0/18may26.balun/4b.me3.txt
! Existing Calibration Information:
! TYPE:             	Current Settings	Active Cal Settings
! TIME:             	05/26/2018 05:12:43 PM	05/26/2018 05:08:07 PM
! INTERNAL TEMP:    	52.8 C	52.5 C
! # POINTS:         	500	500
! START FREQ:       	20.000 MHz	20.000 MHz
! STOP FREQ:        	120.000 MHz	120.000 MHz
! SOURCE POWER:     	High	High
! IFBW:             	50 Hz	50 Hz
! AVG FACTOR:       	  1 	  1 
! REF PLANE 1:      	0 mm	0 mm
! REF PLANE 2:      	0 mm	0 mm
! CAL TYPE:         	Full S11	Full S11
! CAL METHOD:       	SOLT	SOLT
! CAL LINE TYPE:    	Coax	Coax
! DUT PORT 1:       	K-Conn(M)	K-Conn(M)
! DUT PORT 2:       	K-Conn(M)	K-Conn(M)
! CAL STATUS:       	OK: Accuracy High	--
! PROP-V:       	0.700
! CABLE LOSS:       	0.000 dB/m
! REF IMPEDANCE:       	50.0
! Trace Specific Parameters:	TR1	TR2	TR3	TR4
! TRACE.#.Y (GRAPH TYPE)	LOG MAG	PHASE	REAL IMPEDANCE	IMAGINARY IMPEDANCE
! TRACE.#.X 	FREQ.GHZ	FREQ.GHZ	FREQ.GHZ	FREQ.GHZ
! S-PARAMETER	S11	S11	S11	S11
! SMOOTH/APERTURE %	0	0	0	0
! WINDOW	NSL	NSL	NSL	NSL
! GATING	OFF	OFF	OFF	OFF
! FGTD	OFF	OFF	OFF	OFF
Marker Information per Trace:	TR1	TR2	TR3	TR4
!MK1	--	--	--	--
!MK2	--	--	--	--
!MK3	--	--	--	--
!MK4	--	--	--	--
!MK5	--	--	--	--
!MK6	--	--	--	--
!MK7	--	--	--	--
!MK8	--	--	--	--
PNT	TR1.FREQ.GHZ	TR1.LOG MAG.dB	TR2.FREQ.GHZ	TR2.PHASE.deg	TR3.FREQ.GHZ	TR3.REAL IMPEDANCE.ohm	TR4.FREQ.GHZ	TR4.IMAGINARY IMPEDANCE.ohm
1	  0.020000000	-6.150000E-01	  0.020000000	-1.266480E+02	  0.020000000	2.218000E+00	  0.020000000	-2.508100E+01
2	  0.020200402	-6.120000E-01	  0.020200402	-1.281480E+02	  0.020200402	2.179000E+00	  0.020200402	-2.426900E+01
3	  0.020400802	-6.110000E-01	  0.020400802	-1.296430E+02	  0.020400802	2.148000E+00	  0.020400802	-2.346900E+01
4	  0.020601204	-6.100000E-01	  0.020601204	-1.311030E+02	  0.020601204	2.119000E+00	  0.020601204	-2.269700E+01
5	  0.020801604	-6.150000E-01	  0.020801604	-1.325980E+02	  0.020801604	2.110000E+00	  0.020801604	-2.191600E+01
6	  0.021002004	-6.200000E-01	  0.021002004	-1.341270E+02	  0.021002004	2.103000E+00	  0.021002004	-2.112600E+01
7	  0.021202406	-6.280000E-01	  0.021202406	-1.356680E+02	  0.021202406	2.108000E+00	  0.021202406	-2.033800E+01
8	  0.021402806	-6.330000E-01	  0.021402806	-1.371930E+02	  0.021402806	2.103000E+00	  0.021402806	-1.956700E+01
9	  0.021603208	-6.370000E-01	  0.021603208	-1.387450E+02	  0.021603208	2.093000E+00	  0.021603208	-1.879100E+01
10	  0.021803608	-6.440000E-01	  0.021803608	-1.402890E+02	  0.021803608	2.094000E+00	  0.021803608	-1.802700E+01
11	  0.022004008	-6.510000E-01	  0.022004008	-1.418520E+02	  0.022004008	2.097000E+00	  0.022004008	-1.726100E+01
12	  0.022204408	-6.540000E-01	  0.022204408	-1.434280E+02	  0.022204408	2.087000E+00	  0.022204408	-1.649600E+01
13	  0.022404809	-6.540000E-01	  0.022404809	-1.450240E+02	  0.022404809	2.071000E+00	  0.022404809	-1.572800E+01
14	  0.022605211	-6.560000E-01	  0.022605211	-1.465940E+02	  0.022605211	2.059000E+00	  0.022605211	-1.498000E+01
15	  0.022805611	-6.590000E-01	  0.022805611	-1.481760E+02	  0.022805611	2.051000E+00	  0.022805611	-1.423100E+01
16	  0.023006011	-6.620000E-01	  0.023006011	-1.497570E+02	  0.023006011	2.043000E+00	  0.023006011	-1.348900E+01
17	  0.023206413	-6.690000E-01	  0.023206413	-1.513540E+02	  0.023206413	2.052000E+00	  0.023206413	-1.274500E+01
18	  0.023406813	-6.800000E-01	  0.023406813	-1.529600E+02	  0.023406813	2.070000E+00	  0.023406813	-1.200200E+01
19	  0.023607215	-6.860000E-01	  0.023607215	-1.545950E+02	  0.023607215	2.076000E+00	  0.023607215	-1.125100E+01
20	  0.023807615	-6.950000E-01	  0.023807615	-1.562350E+02	  0.023807615	2.090000E+00	  0.023807615	-1.050200E+01
21	  0.024008015	-7.040000E-01	  0.024008015	-1.578540E+02	  0.024008015	2.103000E+00	  0.024008015	-9.768000E+00
22	  0.024208417	-7.130000E-01	  0.024208417	-1.594930E+02	  0.024208417	2.119000E+00	  0.024208417	-9.028000E+00
23	  0.024408817	-7.270000E-01	  0.024408817	-1.611320E+02	  0.024408817	2.151000E+00	  0.024408817	-8.292000E+00
24	  0.024609219	-7.390000E-01	  0.024609219	-1.628170E+02	  0.024609219	2.174000E+00	  0.024609219	-7.540000E+00
25	  0.024809619	-7.460000E-01	  0.024809619	-1.645100E+02	  0.024809619	2.186000E+00	  0.024809619	-6.787000E+00
26	  0.025010020	-7.520000E-01	  0.025010020	-1.662080E+02	  0.025010020	2.195000E+00	  0.025010020	-6.035000E+00
27	  0.025210422	-7.620000E-01	  0.025210422	-1.678940E+02	  0.025210422	2.216000E+00	  0.025210422	-5.291000E+00
28	  0.025410822	-7.720000E-01	  0.025410822	-1.695940E+02	  0.025410822	2.240000E+00	  0.025410822	-4.543000E+00
29	  0.025611224	-7.820000E-01	  0.025611224	-1.712890E+02	  0.025611224	2.263000E+00	  0.025611224	-3.800000E+00
30	  0.025811624	-7.930000E-01	  0.025811624	-1.730150E+02	  0.025811624	2.291000E+00	  0.025811624	-3.044000E+00
31	  0.026012026	-8.040000E-01	  0.026012026	-1.747470E+02	  0.026012026	2.320000E+00	  0.026012026	-2.288000E+00
32	  0.026212426	-8.200000E-01	  0.026212426	-1.764890E+02	  0.026212426	2.362000E+00	  0.026212426	-1.528000E+00
33	  0.026412826	-8.370000E-01	  0.026412826	-1.782410E+02	  0.026412826	2.408000E+00	  0.026412826	-7.650000E-01
34	  0.026613226	-8.530000E-01	  0.026613226	1.799980E+02	  0.026613226	2.455000E+00	  0.026613226	0.000000E+00
35	  0.026813626	-8.700000E-01	  0.026813626	1.782200E+02	  0.026813626	2.504000E+00	  0.026813626	7.740000E-01
36	  0.027014028	-8.840000E-01	  0.027014028	1.764540E+02	  0.027014028	2.546000E+00	  0.027014028	1.543000E+00
37	  0.027214428	-8.980000E-01	  0.027214428	1.746900E+02	  0.027214428	2.589000E+00	  0.027214428	2.312000E+00
38	  0.027414829	-9.140000E-01	  0.027414829	1.729170E+02	  0.027414829	2.640000E+00	  0.027414829	3.085000E+00
39	  0.027615231	-9.330000E-01	  0.027615231	1.711270E+02	  0.027615231	2.699000E+00	  0.027615231	3.867000E+00
40	  0.027815631	-9.530000E-01	  0.027815631	1.693170E+02	  0.027815631	2.766000E+00	  0.027815631	4.660000E+00
41	  0.028016033	-9.740000E-01	  0.028016033	1.674710E+02	  0.028016033	2.836000E+00	  0.028016033	5.470000E+00
42	  0.028216433	-9.930000E-01	  0.028216433	1.656220E+02	  0.028216433	2.902000E+00	  0.028216433	6.285000E+00
43	  0.028416833	-1.015000E+00	  0.028416833	1.637740E+02	  0.028416833	2.978000E+00	  0.028416833	7.102000E+00
44	  0.028617235	-1.035000E+00	  0.028617235	1.619230E+02	  0.028617235	3.052000E+00	  0.028617235	7.924000E+00
45	  0.028817635	-1.061000E+00	  0.028817635	1.600500E+02	  0.028817635	3.145000E+00	  0.028817635	8.759000E+00
46	  0.029018037	-1.086000E+00	  0.029018037	1.581510E+02	  0.029018037	3.238000E+00	  0.029018037	9.611000E+00
47	  0.029218437	-1.110000E+00	  0.029218437	1.562320E+02	  0.029218437	3.331000E+00	  0.029218437	1.047600E+01
48	  0.029418837	-1.130000E+00	  0.029418837	1.543220E+02	  0.029418837	3.416000E+00	  0.029418837	1.134400E+01
49	  0.029619239	-1.151000E+00	  0.029619239	1.524350E+02	  0.029619239	3.508000E+00	  0.029619239	1.220700E+01
50	  0.029819639	-1.174000E+00	  0.029819639	1.505420E+02	  0.029819639	3.608000E+00	  0.029819639	1.307900E+01
51	  0.030020041	-1.199000E+00	  0.030020041	1.486570E+02	  0.030020041	3.716000E+00	  0.030020041	1.395500E+01
52	  0.030220442	-1.226000E+00	  0.030220442	1.467550E+02	  0.030220442	3.837000E+00	  0.030220442	1.484600E+01
53	  0.030420844	-1.262000E+00	  0.030420844	1.448630E+02	  0.030420844	3.987000E+00	  0.030420844	1.573800E+01
54	  0.030621244	-1.302000E+00	  0.030621244	1.428960E+02	  0.030621244	4.161000E+00	  0.030621244	1.667500E+01
55	  0.030821644	-1.338000E+00	  0.030821644	1.409060E+02	  0.030821644	4.327000E+00	  0.030821644	1.763300E+01
56	  0.031022044	-1.370000E+00	  0.031022044	1.388840E+02	  0.031022044	4.485000E+00	  0.031022044	1.861900E+01
57	  0.031222444	-1.396000E+00	  0.031222444	1.368740E+02	  0.031222444	4.633000E+00	  0.031222444	1.961200E+01
58	  0.031422846	-1.425000E+00	  0.031422846	1.348390E+02	  0.031422846	4.794000E+00	  0.031422846	2.062900E+01
59	  0.031623244	-1.451000E+00	  0.031623244	1.328380E+02	  0.031623244	4.955000E+00	  0.031623244	2.164400E+01
60	  0.031823646	-1.471000E+00	  0.031823646	1.308410E+02	  0.031823646	5.101000E+00	  0.031823646	2.267200E+01
61	  0.032024048	-1.494000E+00	  0.032024048	1.288680E+02	  0.032024048	5.265000E+00	  0.032024048	2.370300E+01
62	  0.032224450	-1.524000E+00	  0.032224450	1.269230E+02	  0.032224450	5.457000E+00	  0.032224450	2.473200E+01
63	  0.032424849	-1.553000E+00	  0.032424849	1.249550E+02	  0.032424849	5.657000E+00	  0.032424849	2.579000E+01
64	  0.032625251	-1.589000E+00	  0.032625251	1.229900E+02	  0.032625251	5.894000E+00	  0.032625251	2.686100E+01
65	  0.032825653	-1.628000E+00	  0.032825653	1.210310E+02	  0.032825653	6.152000E+00	  0.032825653	2.794500E+01
66	  0.033026051	-1.673000E+00	  0.033026051	1.190620E+02	  0.033026051	6.442000E+00	  0.033026051	2.905100E+01
67	  0.033226453	-1.720000E+00	  0.033226453	1.170550E+02	  0.033226453	6.759000E+00	  0.033226453	3.019800E+01
68	  0.033426855	-1.766000E+00	  0.033426855	1.150280E+02	  0.033426855	7.090000E+00	  0.033426855	3.137800E+01
69	  0.033627257	-1.811000E+00	  0.033627257	1.129730E+02	  0.033627257	7.439000E+00	  0.033627257	3.259900E+01
70	  0.033827655	-1.857000E+00	  0.033827655	1.108780E+02	  0.033827655	7.809000E+00	  0.033827655	3.386900E+01
71	  0.034028057	-1.901000E+00	  0.034028057	1.087790E+02	  0.034028057	8.196000E+00	  0.034028057	3.516900E+01
72	  0.034228459	-1.946000E+00	  0.034228459	1.066820E+02	  0.034228459	8.612000E+00	  0.034228459	3.649700E+01
73	  0.034428857	-1.990000E+00	  0.034428857	1.045800E+02	  0.034428857	9.041000E+00	  0.034428857	3.786000E+01
74	  0.034629259	-2.029000E+00	  0.034629259	1.024850E+02	  0.034629259	9.479000E+00	  0.034629259	3.925400E+01
75	  0.034829661	-2.065000E+00	  0.034829661	1.004140E+02	  0.034829661	9.926000E+00	  0.034829661	4.066900E+01
76	  0.035030060	-2.101000E+00	  0.035030060	9.836600E+01	  0.035030060	1.039900E+01	  0.035030060	4.210200E+01
77	  0.035230462	-2.147000E+00	  0.035230462	9.638700E+01	  0.035230462	1.093700E+01	  0.035230462	4.351100E+01
78	  0.035430863	-2.199000E+00	  0.035430863	9.436200E+01	  0.035430863	1.154400E+01	  0.035430863	4.498300E+01
79	  0.035631265	-2.258000E+00	  0.035631265	9.232100E+01	  0.035631265	1.223300E+01	  0.035631265	4.649500E+01
80	  0.035831664	-2.317000E+00	  0.035831664	9.023800E+01	  0.035831664	1.298000E+01	  0.035831664	4.807800E+01
81	  0.036032066	-2.373000E+00	  0.036032066	8.812800E+01	  0.036032066	1.376400E+01	  0.036032066	4.972900E+01
82	  0.036232468	-2.435000E+00	  0.036232468	8.596900E+01	  0.036232468	1.465100E+01	  0.036232468	5.145700E+01
83	  0.036432866	-2.490000E+00	  0.036432866	8.380200E+01	  0.036432866	1.557000E+01	  0.036432866	5.325200E+01
84	  0.036633268	-2.539000E+00	  0.036633268	8.162800E+01	  0.036633268	1.652200E+01	  0.036633268	5.511900E+01
85	  0.036833670	-2.587000E+00	  0.036833670	7.943900E+01	  0.036833670	1.754500E+01	  0.036833670	5.706000E+01
86	  0.037034072	-2.632000E+00	  0.037034072	7.731300E+01	  0.037034072	1.861300E+01	  0.037034072	5.900700E+01
87	  0.037234470	-2.675000E+00	  0.037234470	7.517400E+01	  0.037234470	1.975600E+01	  0.037234470	6.103400E+01
88	  0.037434869	-2.714000E+00	  0.037434869	7.307700E+01	  0.037434869	2.095000E+01	  0.037434869	6.309200E+01
89	  0.037635271	-2.759000E+00	  0.037635271	7.100400E+01	  0.037635271	2.227000E+01	  0.037635271	6.517300E+01
90	  0.037835669	-2.809000E+00	  0.037835669	6.891800E+01	  0.037835669	2.374300E+01	  0.037835669	6.731400E+01
91	  0.038036071	-2.862000E+00	  0.038036071	6.685600E+01	  0.038036071	2.535300E+01	  0.038036071	6.947400E+01
92	  0.038236473	-2.917000E+00	  0.038236473	6.479900E+01	  0.038236473	2.711200E+01	  0.038236473	7.168000E+01
93	  0.038436871	-2.977000E+00	  0.038436871	6.272400E+01	  0.038436871	2.907300E+01	  0.038436871	7.393900E+01
94	  0.038637273	-3.038000E+00	  0.038637273	6.064300E+01	  0.038637273	3.123100E+01	  0.038637273	7.624400E+01
95	  0.038837675	-3.098000E+00	  0.038837675	5.851000E+01	  0.038837675	3.361200E+01	  0.038837675	7.867100E+01
96	  0.039038073	-3.158000E+00	  0.039038073	5.634800E+01	  0.039038073	3.624600E+01	  0.039038073	8.118100E+01
97	  0.039238475	-3.212000E+00	  0.039238475	5.418300E+01	  0.039238475	3.908800E+01	  0.039238475	8.376900E+01
98	  0.039438877	-3.258000E+00	  0.039438877	5.203600E+01	  0.039438877	4.210700E+01	  0.039438877	8.643700E+01
99	  0.039639279	-3.300000E+00	  0.039639279	4.993000E+01	  0.039639279	4.532700E+01	  0.039639279	8.911600E+01
100	  0.039839678	-3.340000E+00	  0.039839678	4.787400E+01	  0.039839678	4.877000E+01	  0.039839678	9.176200E+01
101	  0.040040080	-3.383000E+00	  0.040040080	4.586200E+01	  0.040040080	5.250200E+01	  0.040040080	9.431200E+01
102	  0.040240481	-3.433000E+00	  0.040240481	4.386200E+01	  0.040240481	5.663700E+01	  0.040240481	9.673500E+01
103	  0.040440880	-3.487000E+00	  0.040440880	4.185300E+01	  0.040440880	6.121600E+01	  0.040440880	9.903700E+01
104	  0.040641282	-3.544000E+00	  0.040641282	3.981700E+01	  0.040641282	6.630600E+01	  0.040641282	1.012120E+02
105	  0.040841684	-3.604000E+00	  0.040841684	3.777500E+01	  0.040841684	7.189900E+01	  0.040841684	1.031520E+02
106	  0.041042086	-3.660000E+00	  0.041042086	3.573000E+01	  0.041042086	7.795800E+01	  0.041042086	1.049050E+02
107	  0.041242484	-3.715000E+00	  0.041242484	3.370500E+01	  0.041242484	8.447100E+01	  0.041242484	1.063090E+02
108	  0.041442886	-3.768000E+00	  0.041442886	3.165100E+01	  0.041442886	9.158900E+01	  0.041442886	1.073880E+02
109	  0.041643288	-3.820000E+00	  0.041643288	2.958900E+01	  0.041643288	9.928300E+01	  0.041643288	1.079490E+02
110	  0.041843686	-3.871000E+00	  0.041843686	2.754600E+01	  0.041843686	1.074460E+02	  0.041843686	1.078810E+02
111	  0.042044088	-3.916000E+00	  0.042044088	2.550400E+01	  0.042044088	1.160990E+02	  0.042044088	1.071810E+02
112	  0.042244490	-3.965000E+00	  0.042244490	2.349500E+01	  0.042244490	1.250510E+02	  0.042244490	1.055010E+02
113	  0.042444889	-4.011000E+00	  0.042444889	2.149800E+01	  0.042444889	1.342930E+02	  0.042444889	1.028780E+02
114	  0.042645290	-4.059000E+00	  0.042645290	1.950400E+01	  0.042645290	1.437030E+02	  0.042645290	9.902200E+01
115	  0.042845692	-4.104000E+00	  0.042845692	1.751500E+01	  0.042845692	1.531290E+02	  0.042845692	9.399300E+01
116	  0.043046094	-4.148000E+00	  0.043046094	1.550700E+01	  0.043046094	1.624530E+02	  0.043046094	8.756400E+01
117	  0.043246493	-4.195000E+00	  0.043246493	1.352600E+01	  0.043246493	1.711390E+02	  0.043246493	7.974300E+01
118	  0.043446895	-4.238000E+00	  0.043446895	1.152400E+01	  0.043446895	1.792270E+02	  0.043446895	7.054500E+01
119	  0.043647297	-4.285000E+00	  0.043647297	9.567000E+00	  0.043647297	1.859480E+02	  0.043647297	6.016700E+01
120	  0.043847695	-4.331000E+00	  0.043847695	7.600000E+00	  0.043847695	1.914180E+02	  0.043847695	4.872200E+01
121	  0.044048097	-4.374000E+00	  0.044048097	5.623000E+00	  0.044048097	1.954660E+02	  0.044048097	3.646500E+01
122	  0.044248499	-4.416000E+00	  0.044248499	3.664000E+00	  0.044248499	1.978050E+02	  0.044248499	2.382100E+01
123	  0.044448901	-4.451000E+00	  0.044448901	1.710000E+00	  0.044448901	1.987070E+02	  0.044448901	1.107900E+01
124	  0.044649299	-4.491000E+00	  0.044649299	-2.290000E-01	  0.044649299	1.976710E+02	  0.044649299	-1.464000E+00
125	  0.044849701	-4.529000E+00	  0.044849701	-2.149000E+00	  0.044849701	1.951030E+02	  0.044849701	-1.341500E+01
126	  0.045050103	-4.566000E+00	  0.045050103	-4.031000E+00	  0.045050103	1.912220E+02	  0.045050103	-2.442800E+01
127	  0.045250501	-4.604000E+00	  0.045250501	-5.953000E+00	  0.045250501	1.860540E+02	  0.045250501	-3.474900E+01
128	  0.045450903	-4.641000E+00	  0.045450903	-7.843000E+00	  0.045450903	1.800550E+02	  0.045450903	-4.387000E+01
129	  0.045651305	-4.678000E+00	  0.045651305	-9.743000E+00	  0.045651305	1.732920E+02	  0.045651305	-5.190100E+01
130	  0.045851704	-4.709000E+00	  0.045851704	-1.163300E+01	  0.045851704	1.662450E+02	  0.045851704	-5.889600E+01
131	  0.046052106	-4.742000E+00	  0.046052106	-1.349100E+01	  0.046052106	1.589580E+02	  0.046052106	-6.465700E+01
132	  0.046252504	-4.775000E+00	  0.046252504	-1.536100E+01	  0.046252504	1.515130E+02	  0.046252504	-6.944400E+01
133	  0.046452906	-4.805000E+00	  0.046452906	-1.718700E+01	  0.046452906	1.442970E+02	  0.046452906	-7.328200E+01
134	  0.046653304	-4.836000E+00	  0.046653304	-1.899700E+01	  0.046653304	1.372200E+02	  0.046653304	-7.621700E+01
135	  0.046853706	-4.867000E+00	  0.046853706	-2.082400E+01	  0.046853706	1.302840E+02	  0.046853706	-7.847900E+01
136	  0.047054108	-4.898000E+00	  0.047054108	-2.262800E+01	  0.047054108	1.236830E+02	  0.047054108	-8.006900E+01
137	  0.047254506	-4.926000E+00	  0.047254506	-2.442600E+01	  0.047254506	1.174030E+02	  0.047254506	-8.117100E+01
138	  0.047454908	-4.956000E+00	  0.047454908	-2.622500E+01	  0.047454908	1.114140E+02	  0.047454908	-8.177400E+01
139	  0.047655310	-4.982000E+00	  0.047655310	-2.802900E+01	  0.047655310	1.057350E+02	  0.047655310	-8.204700E+01
140	  0.047855709	-5.010000E+00	  0.047855709	-2.979700E+01	  0.047855709	1.004710E+02	  0.047855709	-8.192400E+01
141	  0.048056111	-5.040000E+00	  0.048056111	-3.156500E+01	  0.048056111	9.551600E+01	  0.048056111	-8.150900E+01
142	  0.048256513	-5.066000E+00	  0.048256513	-3.332900E+01	  0.048256513	9.086700E+01	  0.048256513	-8.093300E+01
143	  0.048456915	-5.089000E+00	  0.048456915	-3.511500E+01	  0.048456915	8.644400E+01	  0.048456915	-8.018900E+01
144	  0.048657313	-5.110000E+00	  0.048657313	-3.688300E+01	  0.048657313	8.233200E+01	  0.048657313	-7.933300E+01
145	  0.048857715	-5.130000E+00	  0.048857715	-3.862000E+01	  0.048857715	7.854100E+01	  0.048857715	-7.835600E+01
146	  0.049058117	-5.146000E+00	  0.049058117	-4.032800E+01	  0.049058117	7.502500E+01	  0.049058117	-7.734500E+01
147	  0.049258515	-5.169000E+00	  0.049258515	-4.199400E+01	  0.049258515	7.182800E+01	  0.049258515	-7.617000E+01
148	  0.049458917	-5.190000E+00	  0.049458917	-4.365200E+01	  0.049458917	6.883200E+01	  0.049458917	-7.496600E+01
149	  0.049659319	-5.211000E+00	  0.049659319	-4.531900E+01	  0.049659319	6.599900E+01	  0.049659319	-7.371100E+01
150	  0.049859721	-5.238000E+00	  0.049859721	-4.700800E+01	  0.049859721	6.332700E+01	  0.049859721	-7.234400E+01
151	  0.050060119	-5.262000E+00	  0.050060119	-4.865800E+01	  0.050060119	6.086900E+01	  0.050060119	-7.101000E+01
152	  0.050260521	-5.286000E+00	  0.050260521	-5.038000E+01	  0.050260521	5.845500E+01	  0.050260521	-6.961000E+01
153	  0.050460923	-5.312000E+00	  0.050460923	-5.204700E+01	  0.050460923	5.627600E+01	  0.050460923	-6.821500E+01
154	  0.050661322	-5.329000E+00	  0.050661322	-5.371600E+01	  0.050661322	5.418100E+01	  0.050661322	-6.690100E+01
155	  0.050861724	-5.347000E+00	  0.050861724	-5.538500E+01	  0.050861724	5.221200E+01	  0.050861724	-6.557400E+01
156	  0.051062126	-5.361000E+00	  0.051062126	-5.706600E+01	  0.051062126	5.032500E+01	  0.051062126	-6.426800E+01
157	  0.051262524	-5.373000E+00	  0.051262524	-5.869100E+01	  0.051262524	4.859600E+01	  0.051262524	-6.301800E+01
158	  0.051462926	-5.383000E+00	  0.051462926	-6.029800E+01	  0.051462926	4.697100E+01	  0.051462926	-6.179500E+01
159	  0.051663328	-5.398000E+00	  0.051663328	-6.188500E+01	  0.051663328	4.547400E+01	  0.051663328	-6.056200E+01
160	  0.051863730	-5.412000E+00	  0.051863730	-6.342400E+01	  0.051863730	4.410100E+01	  0.051863730	-5.937200E+01
161	  0.052064128	-5.428000E+00	  0.052064128	-6.501000E+01	  0.052064128	4.276000E+01	  0.052064128	-5.815400E+01
162	  0.052264530	-5.441000E+00	  0.052264530	-6.655700E+01	  0.052264530	4.151000E+01	  0.052264530	-5.699200E+01
163	  0.052464932	-5.456000E+00	  0.052464932	-6.811100E+01	  0.052464932	4.033000E+01	  0.052464932	-5.582300E+01
164	  0.052665330	-5.468000E+00	  0.052665330	-6.969100E+01	  0.052665330	3.917200E+01	  0.052665330	-5.466800E+01
165	  0.052865732	-5.485000E+00	  0.052865732	-7.121200E+01	  0.052865732	3.814100E+01	  0.052865732	-5.354000E+01
166	  0.053066134	-5.495000E+00	  0.053066134	-7.276400E+01	  0.053066134	3.710600E+01	  0.053066134	-5.244000E+01
167	  0.053266536	-5.505000E+00	  0.053266536	-7.428200E+01	  0.053266536	3.614000E+01	  0.053266536	-5.137800E+01
168	  0.053466935	-5.515000E+00	  0.053466935	-7.581000E+01	  0.053466935	3.521600E+01	  0.053466935	-5.032000E+01
169	  0.053667337	-5.518000E+00	  0.053667337	-7.736500E+01	  0.053667337	3.429200E+01	  0.053667337	-4.928200E+01
170	  0.053867739	-5.523000E+00	  0.053867739	-7.884200E+01	  0.053867739	3.346000E+01	  0.053867739	-4.830200E+01
171	  0.054068137	-5.529000E+00	  0.054068137	-8.030800E+01	  0.054068137	3.267600E+01	  0.054068137	-4.733500E+01
172	  0.054268539	-5.537000E+00	  0.054268539	-8.175800E+01	  0.054268539	3.194400E+01	  0.054268539	-4.638200E+01
173	  0.054468941	-5.543000E+00	  0.054468941	-8.315700E+01	  0.054468941	3.125900E+01	  0.054468941	-4.548100E+01
174	  0.054669339	-5.551000E+00	  0.054669339	-8.458800E+01	  0.054669339	3.059800E+01	  0.054669339	-4.456300E+01
175	  0.054869737	-5.563000E+00	  0.054869737	-8.602200E+01	  0.054869737	2.997700E+01	  0.054869737	-4.364400E+01
176	  0.055070139	-5.576000E+00	  0.055070139	-8.743900E+01	  0.055070139	2.939500E+01	  0.055070139	-4.274400E+01
177	  0.055270538	-5.590000E+00	  0.055270538	-8.885900E+01	  0.055270538	2.883900E+01	  0.055270538	-4.185200E+01
178	  0.055470940	-5.601000E+00	  0.055470940	-9.030800E+01	  0.055470940	2.828600E+01	  0.055470940	-4.096100E+01
179	  0.055671342	-5.614000E+00	  0.055671342	-9.172900E+01	  0.055671342	2.777300E+01	  0.055671342	-4.009400E+01
180	  0.055871744	-5.620000E+00	  0.055871744	-9.316800E+01	  0.055871744	2.724600E+01	  0.055871744	-3.924700E+01
181	  0.056072142	-5.628000E+00	  0.056072142	-9.460600E+01	  0.056072142	2.675200E+01	  0.056072142	-3.840400E+01
182	  0.056272544	-5.630000E+00	  0.056272544	-9.601900E+01	  0.056272544	2.626300E+01	  0.056272544	-3.760000E+01
183	  0.056472946	-5.632000E+00	  0.056472946	-9.739700E+01	  0.056472946	2.580200E+01	  0.056472946	-3.682400E+01
184	  0.056673344	-5.640000E+00	  0.056673344	-9.876300E+01	  0.056673344	2.538800E+01	  0.056673344	-3.605100E+01
185	  0.056873746	-5.643000E+00	  0.056873746	-1.001450E+02	  0.056873746	2.496700E+01	  0.056873746	-3.528700E+01
186	  0.057074148	-5.647000E+00	  0.057074148	-1.014380E+02	  0.057074148	2.458900E+01	  0.057074148	-3.457900E+01
187	  0.057274550	-5.651000E+00	  0.057274550	-1.027550E+02	  0.057274550	2.421900E+01	  0.057274550	-3.386400E+01
188	  0.057474948	-5.659000E+00	  0.057474948	-1.040910E+02	  0.057474948	2.387000E+01	  0.057474948	-3.314000E+01
189	  0.057675350	-5.665000E+00	  0.057675350	-1.054260E+02	  0.057675350	2.353100E+01	  0.057675350	-3.242600E+01
190	  0.057875752	-5.673000E+00	  0.057875752	-1.067590E+02	  0.057875752	2.321000E+01	  0.057875752	-3.171800E+01
191	  0.058076151	-5.681000E+00	  0.058076151	-1.081110E+02	  0.058076151	2.289600E+01	  0.058076151	-3.100800E+01
192	  0.058276553	-5.686000E+00	  0.058276553	-1.094380E+02	  0.058276553	2.258800E+01	  0.058276553	-3.032400E+01
193	  0.058476955	-5.689000E+00	  0.058476955	-1.107580E+02	  0.058476955	2.228800E+01	  0.058476955	-2.965200E+01
194	  0.058677353	-5.690000E+00	  0.058677353	-1.120830E+02	  0.058677353	2.199100E+01	  0.058677353	-2.898700E+01
195	  0.058877755	-5.687000E+00	  0.058877755	-1.133740E+02	  0.058877755	2.170000E+01	  0.058877755	-2.835000E+01
196	  0.059078157	-5.691000E+00	  0.059078157	-1.146610E+02	  0.059078157	2.144300E+01	  0.059078157	-2.771000E+01
197	  0.059278559	-5.693000E+00	  0.059278559	-1.159330E+02	  0.059278559	2.118900E+01	  0.059278559	-2.708700E+01
198	  0.059478957	-5.694000E+00	  0.059478957	-1.171610E+02	  0.059478957	2.095000E+01	  0.059478957	-2.649200E+01
199	  0.059679359	-5.699000E+00	  0.059679359	-1.183880E+02	  0.059679359	2.073300E+01	  0.059679359	-2.589600E+01
200	  0.059879761	-5.707000E+00	  0.059879761	-1.196150E+02	  0.059879761	2.053000E+01	  0.059879761	-2.530200E+01
201	  0.060080159	-5.709000E+00	  0.060080159	-1.208470E+02	  0.060080159	2.031700E+01	  0.060080159	-2.471700E+01
202	  0.060280561	-5.716000E+00	  0.060280561	-1.221110E+02	  0.060280561	2.012000E+01	  0.060280561	-2.411700E+01
203	  0.060480963	-5.723000E+00	  0.060480963	-1.233300E+02	  0.060480963	1.994000E+01	  0.060480963	-2.354100E+01
204	  0.060681365	-5.732000E+00	  0.060681365	-1.245830E+02	  0.060681365	1.976400E+01	  0.060681365	-2.295300E+01
205	  0.060881764	-5.734000E+00	  0.060881764	-1.258280E+02	  0.060881764	1.957800E+01	  0.060881764	-2.238000E+01
206	  0.061082166	-5.741000E+00	  0.061082166	-1.270390E+02	  0.061082166	1.941700E+01	  0.061082166	-2.182100E+01
207	  0.061282568	-5.748000E+00	  0.061282568	-1.282810E+02	  0.061282568	1.925600E+01	  0.061282568	-2.125400E+01
208	  0.061482966	-5.749000E+00	  0.061482966	-1.294950E+02	  0.061482966	1.908900E+01	  0.061482966	-2.070700E+01
209	  0.061683368	-5.749000E+00	  0.061683368	-1.306890E+02	  0.061683368	1.892800E+01	  0.061683368	-2.017500E+01
210	  0.061883770	-5.751000E+00	  0.061883770	-1.318950E+02	  0.061883770	1.877500E+01	  0.061883770	-1.963800E+01
211	  0.062084168	-5.755000E+00	  0.062084168	-1.330730E+02	  0.062084168	1.863700E+01	  0.062084168	-1.911600E+01
212	  0.062284570	-5.756000E+00	  0.062284570	-1.342230E+02	  0.062284570	1.849900E+01	  0.062284570	-1.861100E+01
213	  0.062484972	-5.750000E+00	  0.062484972	-1.353340E+02	  0.062484972	1.835100E+01	  0.062484972	-1.813100E+01
214	  0.062685370	-5.757000E+00	  0.062685370	-1.364910E+02	  0.062685370	1.823800E+01	  0.062685370	-1.762400E+01
215	  0.062885776	-5.760000E+00	  0.062885776	-1.376530E+02	  0.062885776	1.811800E+01	  0.062885776	-1.712100E+01
216	  0.063086174	-5.768000E+00	  0.063086174	-1.388010E+02	  0.063086174	1.801900E+01	  0.063086174	-1.662300E+01
217	  0.063286573	-5.772000E+00	  0.063286573	-1.399880E+02	  0.063286573	1.790800E+01	  0.063286573	-1.611400E+01
218	  0.063486971	-5.774000E+00	  0.063486971	-1.411430E+02	  0.063486971	1.780000E+01	  0.063486971	-1.562200E+01
219	  0.063687377	-5.775000E+00	  0.063687377	-1.422860E+02	  0.063687377	1.769500E+01	  0.063687377	-1.513800E+01
220	  0.063887775	-5.775000E+00	  0.063887775	-1.434450E+02	  0.063887775	1.758700E+01	  0.063887775	-1.465000E+01
221	  0.064088173	-5.778000E+00	  0.064088173	-1.445500E+02	  0.064088173	1.749800E+01	  0.064088173	-1.418600E+01
222	  0.064288579	-5.774000E+00	  0.064288579	-1.456720E+02	  0.064288579	1.739100E+01	  0.064288579	-1.372000E+01
223	  0.064488977	-5.781000E+00	  0.064488977	-1.467790E+02	  0.064488977	1.732200E+01	  0.064488977	-1.325600E+01
224	  0.064689375	-5.783000E+00	  0.064689375	-1.478960E+02	  0.064689375	1.723800E+01	  0.064689375	-1.279300E+01
225	  0.064889781	-5.784000E+00	  0.064889781	-1.489760E+02	  0.064889781	1.716000E+01	  0.064889781	-1.234700E+01
226	  0.065090179	-5.786000E+00	  0.065090179	-1.500900E+02	  0.065090179	1.708600E+01	  0.065090179	-1.188800E+01
227	  0.065290578	-5.790000E+00	  0.065290578	-1.512070E+02	  0.065290578	1.701900E+01	  0.065290578	-1.142900E+01
228	  0.065490983	-5.794000E+00	  0.065490983	-1.523120E+02	  0.065490983	1.695600E+01	  0.065490983	-1.097700E+01
229	  0.065691382	-5.796000E+00	  0.065691382	-1.534050E+02	  0.065691382	1.689200E+01	  0.065691382	-1.053200E+01
230	  0.065891780	-5.802000E+00	  0.065891780	-1.544570E+02	  0.065891780	1.684400E+01	  0.065891780	-1.010300E+01
231	  0.066092186	-5.802000E+00	  0.066092186	-1.555680E+02	  0.066092186	1.677800E+01	  0.066092186	-9.654000E+00
232	  0.066292584	-5.805000E+00	  0.066292584	-1.566490E+02	  0.066292584	1.672800E+01	  0.066292584	-9.217000E+00
233	  0.066492982	-5.806000E+00	  0.066492982	-1.577270E+02	  0.066492982	1.667300E+01	  0.066492982	-8.784000E+00
234	  0.066693388	-5.807000E+00	  0.066693388	-1.587840E+02	  0.066693388	1.662400E+01	  0.066693388	-8.360000E+00
235	  0.066893786	-5.810000E+00	  0.066893786	-1.598430E+02	  0.066893786	1.658200E+01	  0.066893786	-7.936000E+00
236	  0.067094192	-5.812000E+00	  0.067094192	-1.609230E+02	  0.067094192	1.654000E+01	  0.067094192	-7.504000E+00
237	  0.067294590	-5.815000E+00	  0.067294590	-1.619560E+02	  0.067294590	1.650200E+01	  0.067294590	-7.092000E+00
238	  0.067494988	-5.820000E+00	  0.067494988	-1.630280E+02	  0.067494988	1.647300E+01	  0.067494988	-6.665000E+00
239	  0.067695394	-5.820000E+00	  0.067695394	-1.640230E+02	  0.067695394	1.643600E+01	  0.067695394	-6.271000E+00
240	  0.067895792	-5.820000E+00	  0.067895792	-1.650480E+02	  0.067895792	1.640200E+01	  0.067895792	-5.865000E+00
241	  0.068096191	-5.825000E+00	  0.068096191	-1.660760E+02	  0.068096191	1.638100E+01	  0.068096191	-5.458000E+00
242	  0.068296596	-5.830000E+00	  0.068296596	-1.670820E+02	  0.068296596	1.636300E+01	  0.068296596	-5.061000E+00
243	  0.068496995	-5.837000E+00	  0.068496995	-1.680750E+02	  0.068496995	1.635400E+01	  0.068496995	-4.668000E+00
244	  0.068697393	-5.841000E+00	  0.068697393	-1.690890E+02	  0.068697393	1.633800E+01	  0.068697393	-4.269000E+00
245	  0.068897791	-5.839000E+00	  0.068897791	-1.701160E+02	  0.068897791	1.630900E+01	  0.068897791	-3.866000E+00
246	  0.069098189	-5.840000E+00	  0.069098189	-1.711230E+02	  0.069098189	1.629100E+01	  0.069098189	-3.470000E+00
247	  0.069298595	-5.846000E+00	  0.069298595	-1.721540E+02	  0.069298595	1.628600E+01	  0.069298595	-3.066000E+00
248	  0.069498993	-5.851000E+00	  0.069498993	-1.731370E+02	  0.069498993	1.628500E+01	  0.069498993	-2.680000E+00
249	  0.069699399	-5.858000E+00	  0.069699399	-1.741390E+02	  0.069699399	1.628700E+01	  0.069699399	-2.288000E+00
250	  0.069899797	-5.863000E+00	  0.069899797	-1.751190E+02	  0.069899797	1.628900E+01	  0.069899797	-1.905000E+00
251	  0.070100196	-5.868000E+00	  0.070100196	-1.761290E+02	  0.070100196	1.629300E+01	  0.070100196	-1.510000E+00
252	  0.070300601	-5.873000E+00	  0.070300601	-1.771030E+02	  0.070300601	1.629900E+01	  0.070300601	-1.130000E+00
253	  0.070501000	-5.882000E+00	  0.070501000	-1.781250E+02	  0.070501000	1.631500E+01	  0.070501000	-7.300000E-01
254	  0.070701398	-5.886000E+00	  0.070701398	-1.791150E+02	  0.070701398	1.632300E+01	  0.070701398	-3.440000E-01
255	  0.070901804	-5.889000E+00	  0.070901804	1.798940E+02	  0.070901804	1.633100E+01	  0.070901804	4.100000E-02
256	  0.071102202	-5.898000E+00	  0.071102202	1.788910E+02	  0.071102202	1.635500E+01	  0.071102202	4.310000E-01
257	  0.071302600	-5.900000E+00	  0.071302600	1.779210E+02	  0.071302600	1.636200E+01	  0.071302600	8.090000E-01
258	  0.071503006	-5.903000E+00	  0.071503006	1.769500E+02	  0.071503006	1.637600E+01	  0.071503006	1.188000E+00
259	  0.071703404	-5.909000E+00	  0.071703404	1.759520E+02	  0.071703404	1.640000E+01	  0.071703404	1.577000E+00
260	  0.071903802	-5.909000E+00	  0.071903802	1.749560E+02	  0.071903802	1.640900E+01	  0.071903802	1.965000E+00
261	  0.072104208	-5.916000E+00	  0.072104208	1.740260E+02	  0.072104208	1.643900E+01	  0.072104208	2.327000E+00
262	  0.072304606	-5.924000E+00	  0.072304606	1.730520E+02	  0.072304606	1.647300E+01	  0.072304606	2.706000E+00
263	  0.072505005	-5.928000E+00	  0.072505005	1.721260E+02	  0.072505005	1.650000E+01	  0.072505005	3.067000E+00
264	  0.072705410	-5.933000E+00	  0.072705410	1.711980E+02	  0.072705410	1.653000E+01	  0.072705410	3.429000E+00
265	  0.072905809	-5.935000E+00	  0.072905809	1.702460E+02	  0.072905809	1.655500E+01	  0.072905809	3.801000E+00
266	  0.073106214	-5.945000E+00	  0.073106214	1.693000E+02	  0.073106214	1.660300E+01	  0.073106214	4.170000E+00
267	  0.073306613	-5.950000E+00	  0.073306613	1.683860E+02	  0.073306613	1.663900E+01	  0.073306613	4.526000E+00
268	  0.073507011	-5.958000E+00	  0.073507011	1.674640E+02	  0.073507011	1.668300E+01	  0.073507011	4.886000E+00
269	  0.073707417	-5.967000E+00	  0.073707417	1.665410E+02	  0.073707417	1.673500E+01	  0.073707417	5.246000E+00
270	  0.073907815	-5.973000E+00	  0.073907815	1.656320E+02	  0.073907815	1.678000E+01	  0.073907815	5.601000E+00
271	  0.074108213	-5.980000E+00	  0.074108213	1.647370E+02	  0.074108213	1.682600E+01	  0.074108213	5.952000E+00
272	  0.074308619	-5.988000E+00	  0.074308619	1.637900E+02	  0.074308619	1.688300E+01	  0.074308619	6.322000E+00
273	  0.074509017	-5.996000E+00	  0.074509017	1.628910E+02	  0.074509017	1.693700E+01	  0.074509017	6.674000E+00
274	  0.074709415	-6.013000E+00	  0.074709415	1.619530E+02	  0.074709415	1.702100E+01	  0.074709415	7.040000E+00
275	  0.074909821	-6.025000E+00	  0.074909821	1.610670E+02	  0.074909821	1.709000E+01	  0.074909821	7.386000E+00
276	  0.075110219	-6.032000E+00	  0.075110219	1.601480E+02	  0.075110219	1.714900E+01	  0.075110219	7.747000E+00
277	  0.075310618	-6.046000E+00	  0.075310618	1.592210E+02	  0.075310618	1.723100E+01	  0.075310618	8.109000E+00
278	  0.075511023	-6.057000E+00	  0.075511023	1.582820E+02	  0.075511023	1.730600E+01	  0.075511023	8.478000E+00
279	  0.075711422	-6.068000E+00	  0.075711422	1.573850E+02	  0.075711422	1.738100E+01	  0.075711422	8.830000E+00
280	  0.075911827	-6.084000E+00	  0.075911827	1.564620E+02	  0.075911827	1.747300E+01	  0.075911827	9.191000E+00
281	  0.076112226	-6.092000E+00	  0.076112226	1.555090E+02	  0.076112226	1.755000E+01	  0.076112226	9.567000E+00
282	  0.076312624	-6.101000E+00	  0.076312624	1.545920E+02	  0.076312624	1.762800E+01	  0.076312624	9.930000E+00
283	  0.076513030	-6.110000E+00	  0.076513030	1.536870E+02	  0.076513030	1.770800E+01	  0.076513030	1.028800E+01
284	  0.076713428	-6.117000E+00	  0.076713428	1.527660E+02	  0.076713428	1.778700E+01	  0.076713428	1.065400E+01
285	  0.076913826	-6.126000E+00	  0.076913826	1.518690E+02	  0.076913826	1.787200E+01	  0.076913826	1.101000E+01
286	  0.077114232	-6.134000E+00	  0.077114232	1.510020E+02	  0.077114232	1.795300E+01	  0.077114232	1.135500E+01
287	  0.077314630	-6.142000E+00	  0.077314630	1.500750E+02	  0.077314630	1.804100E+01	  0.077314630	1.172400E+01
288	  0.077515028	-6.152000E+00	  0.077515028	1.492300E+02	  0.077515028	1.813100E+01	  0.077515028	1.206100E+01
289	  0.077715434	-6.160000E+00	  0.077715434	1.483690E+02	  0.077715434	1.822100E+01	  0.077715434	1.240500E+01
290	  0.077915832	-6.169000E+00	  0.077915832	1.475090E+02	  0.077915832	1.831300E+01	  0.077915832	1.274900E+01
291	  0.078116231	-6.186000E+00	  0.078116231	1.466270E+02	  0.078116231	1.843100E+01	  0.078116231	1.309900E+01
292	  0.078316636	-6.196000E+00	  0.078316636	1.457710E+02	  0.078316636	1.853100E+01	  0.078316636	1.344200E+01
293	  0.078517035	-6.205000E+00	  0.078517035	1.448990E+02	  0.078517035	1.863200E+01	  0.078517035	1.379300E+01
294	  0.078717433	-6.215000E+00	  0.078717433	1.440710E+02	  0.078717433	1.873500E+01	  0.078717433	1.412600E+01
295	  0.078917839	-6.225000E+00	  0.078917839	1.432530E+02	  0.078917839	1.883900E+01	  0.078917839	1.445500E+01
296	  0.079118237	-6.237000E+00	  0.079118237	1.424360E+02	  0.079118237	1.894900E+01	  0.079118237	1.478400E+01
297	  0.079318643	-6.249000E+00	  0.079318643	1.416100E+02	  0.079318643	1.906600E+01	  0.079318643	1.511600E+01
298	  0.079519041	-6.265000E+00	  0.079519041	1.407810E+02	  0.079519041	1.919300E+01	  0.079519041	1.544800E+01
299	  0.079719439	-6.284000E+00	  0.079719439	1.399520E+02	  0.079719439	1.933300E+01	  0.079719439	1.577800E+01
300	  0.079919845	-6.299000E+00	  0.079919845	1.391330E+02	  0.079919845	1.946000E+01	  0.079919845	1.610800E+01
301	  0.080120243	-6.319000E+00	  0.080120243	1.383000E+02	  0.080120243	1.960900E+01	  0.080120243	1.643900E+01
302	  0.080320641	-6.341000E+00	  0.080320641	1.374780E+02	  0.080320641	1.976200E+01	  0.080320641	1.676600E+01
303	  0.080521047	-6.363000E+00	  0.080521047	1.366390E+02	  0.080521047	1.992200E+01	  0.080521047	1.709900E+01
304	  0.080721445	-6.384000E+00	  0.080721445	1.357960E+02	  0.080721445	2.008100E+01	  0.080721445	1.743500E+01
305	  0.080921844	-6.402000E+00	  0.080921844	1.349160E+02	  0.080921844	2.024100E+01	  0.080921844	1.779000E+01
306	  0.081122249	-6.422000E+00	  0.081122249	1.340820E+02	  0.081122249	2.040100E+01	  0.081122249	1.812400E+01
307	  0.081322648	-6.437000E+00	  0.081322648	1.332050E+02	  0.081322648	2.055800E+01	  0.081322648	1.848000E+01
308	  0.081523046	-6.450000E+00	  0.081523046	1.323670E+02	  0.081523046	2.070700E+01	  0.081523046	1.882300E+01
309	  0.081723452	-6.475000E+00	  0.081723452	1.315100E+02	  0.081723452	2.089500E+01	  0.081723452	1.916400E+01
310	  0.081923850	-6.488000E+00	  0.081923850	1.306450E+02	  0.081923850	2.105400E+01	  0.081923850	1.951900E+01
311	  0.082124248	-6.504000E+00	  0.082124248	1.298300E+02	  0.082124248	2.121800E+01	  0.082124248	1.985100E+01
312	  0.082324654	-6.516000E+00	  0.082324654	1.290280E+02	  0.082324654	2.137000E+01	  0.082324654	2.018200E+01
313	  0.082525052	-6.538000E+00	  0.082525052	1.281800E+02	  0.082525052	2.156300E+01	  0.082525052	2.052200E+01
314	  0.082725458	-6.549000E+00	  0.082725458	1.273890E+02	  0.082725458	2.171600E+01	  0.082725458	2.085100E+01
315	  0.082925856	-6.568000E+00	  0.082925856	1.265980E+02	  0.082925856	2.189900E+01	  0.082925856	2.117000E+01
316	  0.083126254	-6.590000E+00	  0.083126254	1.258350E+02	  0.083126254	2.208500E+01	  0.083126254	2.147700E+01
317	  0.083326660	-6.610000E+00	  0.083326660	1.250490E+02	  0.083326660	2.227400E+01	  0.083326660	2.179300E+01
318	  0.083527058	-6.630000E+00	  0.083527058	1.242330E+02	  0.083527058	2.247100E+01	  0.083527058	2.212500E+01
319	  0.083727457	-6.649000E+00	  0.083727457	1.234690E+02	  0.083727457	2.266000E+01	  0.083727457	2.243400E+01
320	  0.083927862	-6.671000E+00	  0.083927862	1.226990E+02	  0.083927862	2.286100E+01	  0.083927862	2.274300E+01
321	  0.084128261	-6.687000E+00	  0.084128261	1.219170E+02	  0.084128261	2.304900E+01	  0.084128261	2.306500E+01
322	  0.084328659	-6.706000E+00	  0.084328659	1.211810E+02	  0.084328659	2.324200E+01	  0.084328659	2.336300E+01
323	  0.084529065	-6.726000E+00	  0.084529065	1.204650E+02	  0.084529065	2.343700E+01	  0.084529065	2.365100E+01
324	  0.084729463	-6.755000E+00	  0.084729463	1.197160E+02	  0.084729463	2.366700E+01	  0.084729463	2.394300E+01
325	  0.084929861	-6.774000E+00	  0.084929861	1.189880E+02	  0.084929861	2.387000E+01	  0.084929861	2.423600E+01
326	  0.085130267	-6.801000E+00	  0.085130267	1.182620E+02	  0.085130267	2.409600E+01	  0.085130267	2.451900E+01
327	  0.085330658	-6.829000E+00	  0.085330658	1.175380E+02	  0.085330658	2.432700E+01	  0.085330658	2.479900E+01
328	  0.085531056	-6.856000E+00	  0.085531056	1.168070E+02	  0.085531056	2.456300E+01	  0.085531056	2.508300E+01
329	  0.085731462	-6.889000E+00	  0.085731462	1.160950E+02	  0.085731462	2.481300E+01	  0.085731462	2.535000E+01
330	  0.085931860	-6.916000E+00	  0.085931860	1.153940E+02	  0.085931860	2.504700E+01	  0.085931860	2.562000E+01
331	  0.086132258	-6.946000E+00	  0.086132258	1.146540E+02	  0.086132258	2.530100E+01	  0.086132258	2.590200E+01
332	  0.086332664	-6.965000E+00	  0.086332664	1.139430E+02	  0.086332664	2.552200E+01	  0.086332664	2.618700E+01
333	  0.086533062	-6.995000E+00	  0.086533062	1.131890E+02	  0.086533062	2.578700E+01	  0.086533062	2.647400E+01
334	  0.086733460	-7.017000E+00	  0.086733460	1.124530E+02	  0.086733460	2.602900E+01	  0.086733460	2.676400E+01
335	  0.086933866	-7.044000E+00	  0.086933866	1.117400E+02	  0.086933866	2.628100E+01	  0.086933866	2.703800E+01
336	  0.087134264	-7.064000E+00	  0.087134264	1.110390E+02	  0.087134264	2.651500E+01	  0.087134264	2.731600E+01
337	  0.087334670	-7.082000E+00	  0.087334670	1.103550E+02	  0.087334670	2.674200E+01	  0.087334670	2.759000E+01
338	  0.087535068	-7.099000E+00	  0.087535068	1.096460E+02	  0.087535068	2.697700E+01	  0.087535068	2.787500E+01
339	  0.087735467	-7.118000E+00	  0.087735467	1.089600E+02	  0.087735467	2.721300E+01	  0.087735467	2.814800E+01
340	  0.087935872	-7.134000E+00	  0.087935872	1.082910E+02	  0.087935872	2.744100E+01	  0.087935872	2.841700E+01
341	  0.088136271	-7.159000E+00	  0.088136271	1.076540E+02	  0.088136271	2.769200E+01	  0.088136271	2.865500E+01
342	  0.088336669	-7.179000E+00	  0.088336669	1.069890E+02	  0.088336669	2.793500E+01	  0.088336669	2.891600E+01
343	  0.088537075	-7.201000E+00	  0.088537075	1.063380E+02	  0.088537075	2.818700E+01	  0.088537075	2.916300E+01
344	  0.088737473	-7.221000E+00	  0.088737473	1.056360E+02	  0.088737473	2.844800E+01	  0.088737473	2.943900E+01
345	  0.088937871	-7.235000E+00	  0.088937871	1.049730E+02	  0.088937871	2.868400E+01	  0.088937871	2.970900E+01
346	  0.089138277	-7.257000E+00	  0.089138277	1.043080E+02	  0.089138277	2.894800E+01	  0.089138277	2.996200E+01
347	  0.089338675	-7.271000E+00	  0.089338675	1.036460E+02	  0.089338675	2.919300E+01	  0.089338675	3.022900E+01
348	  0.089539073	-7.296000E+00	  0.089539073	1.029830E+02	  0.089539073	2.947100E+01	  0.089539073	3.047600E+01
349	  0.089739479	-7.306000E+00	  0.089739479	1.022910E+02	  0.089739479	2.972200E+01	  0.089739479	3.076200E+01
350	  0.089939877	-7.323000E+00	  0.089939877	1.016400E+02	  0.089939877	2.997900E+01	  0.089939877	3.101900E+01
351	  0.090140276	-7.344000E+00	  0.090140276	1.009770E+02	  0.090140276	3.025900E+01	  0.090140276	3.127000E+01
352	  0.090340681	-7.366000E+00	  0.090340681	1.002820E+02	  0.090340681	3.055700E+01	  0.090340681	3.153100E+01
353	  0.090541080	-7.387000E+00	  0.090541080	9.964100E+01	  0.090541080	3.083500E+01	  0.090541080	3.177100E+01
354	  0.090741485	-7.413000E+00	  0.090741485	9.900300E+01	  0.090741485	3.113200E+01	  0.090741485	3.199600E+01
355	  0.090941884	-7.441000E+00	  0.090941884	9.833200E+01	  0.090941884	3.144800E+01	  0.090941884	3.223100E+01
356	  0.091142282	-7.467000E+00	  0.091142282	9.766600E+01	  0.091142282	3.176300E+01	  0.091142282	3.246600E+01
357	  0.091342688	-7.495000E+00	  0.091342688	9.697100E+01	  0.091342688	3.209900E+01	  0.091342688	3.270600E+01
358	  0.091543086	-7.519000E+00	  0.091543086	9.627200E+01	  0.091543086	3.242700E+01	  0.091543086	3.295700E+01
359	  0.091743484	-7.546000E+00	  0.091743484	9.555300E+01	  0.091743484	3.277500E+01	  0.091743484	3.320900E+01
360	  0.091943890	-7.573000E+00	  0.091943890	9.486700E+01	  0.091943890	3.311800E+01	  0.091943890	3.344100E+01
361	  0.092144288	-7.597000E+00	  0.092144288	9.417900E+01	  0.092144288	3.345500E+01	  0.092144288	3.368300E+01
362	  0.092344686	-7.619000E+00	  0.092344686	9.347500E+01	  0.092344686	3.379900E+01	  0.092344686	3.393300E+01
363	  0.092545092	-7.643000E+00	  0.092545092	9.282400E+01	  0.092545092	3.413100E+01	  0.092545092	3.415400E+01
364	  0.092745490	-7.668000E+00	  0.092745490	9.215900E+01	  0.092745490	3.447500E+01	  0.092745490	3.437700E+01
365	  0.092945889	-7.700000E+00	  0.092945889	9.151900E+01	  0.092945889	3.483300E+01	  0.092945889	3.456700E+01
366	  0.093146294	-7.724000E+00	  0.093146294	9.093900E+01	  0.093146294	3.514700E+01	  0.093146294	3.475000E+01
367	  0.093346693	-7.747000E+00	  0.093346693	9.033000E+01	  0.093346693	3.547400E+01	  0.093346693	3.494800E+01
368	  0.093547091	-7.782000E+00	  0.093547091	8.971600E+01	  0.093547091	3.583900E+01	  0.093547091	3.511200E+01
369	  0.093747497	-7.812000E+00	  0.093747497	8.910100E+01	  0.093747497	3.619700E+01	  0.093747497	3.528500E+01
370	  0.093947895	-7.848000E+00	  0.093947895	8.848800E+01	  0.093947895	3.657300E+01	  0.093947895	3.543800E+01
371	  0.094148301	-7.876000E+00	  0.094148301	8.782400E+01	  0.094148301	3.695400E+01	  0.094148301	3.563200E+01
372	  0.094348699	-7.909000E+00	  0.094348699	8.722500E+01	  0.094348699	3.732300E+01	  0.094348699	3.578100E+01
373	  0.094549097	-7.940000E+00	  0.094549097	8.660600E+01	  0.094549097	3.769800E+01	  0.094549097	3.594400E+01
374	  0.094749503	-7.981000E+00	  0.094749503	8.596900E+01	  0.094749503	3.811300E+01	  0.094749503	3.607600E+01
375	  0.094949901	-8.012000E+00	  0.094949901	8.540100E+01	  0.094949901	3.847000E+01	  0.094949901	3.621200E+01
376	  0.095150299	-8.041000E+00	  0.095150299	8.482300E+01	  0.095150299	3.883200E+01	  0.095150299	3.635000E+01
377	  0.095350705	-8.072000E+00	  0.095350705	8.424300E+01	  0.095350705	3.920200E+01	  0.095350705	3.648200E+01
378	  0.095551103	-8.107000E+00	  0.095551103	8.367100E+01	  0.095551103	3.958100E+01	  0.095551103	3.659400E+01
379	  0.095751502	-8.144000E+00	  0.095751502	8.315600E+01	  0.095751502	3.993800E+01	  0.095751502	3.667400E+01
380	  0.095951907	-8.175000E+00	  0.095951907	8.259700E+01	  0.095951907	4.030600E+01	  0.095951907	3.678800E+01
381	  0.096152306	-8.207000E+00	  0.096152306	8.204200E+01	  0.096152306	4.067600E+01	  0.096152306	3.689200E+01
382	  0.096352704	-8.248000E+00	  0.096352704	8.147200E+01	  0.096352704	4.108000E+01	  0.096352704	3.696900E+01
383	  0.096553110	-8.288000E+00	  0.096553110	8.091800E+01	  0.096553110	4.147600E+01	  0.096553110	3.703600E+01
384	  0.096753508	-8.312000E+00	  0.096753508	8.036900E+01	  0.096753508	4.183000E+01	  0.096753508	3.715800E+01
385	  0.096953906	-8.343000E+00	  0.096953906	7.985200E+01	  0.096953906	4.218800E+01	  0.096953906	3.723800E+01
386	  0.097154312	-8.376000E+00	  0.097154312	7.930600E+01	  0.097154312	4.256800E+01	  0.097154312	3.731600E+01
387	  0.097354710	-8.406000E+00	  0.097354710	7.879900E+01	  0.097354710	4.292400E+01	  0.097354710	3.738700E+01
388	  0.097555116	-8.437000E+00	  0.097555116	7.828900E+01	  0.097555116	4.328200E+01	  0.097555116	3.745600E+01
389	  0.097755514	-8.463000E+00	  0.097755514	7.777300E+01	  0.097755514	4.363700E+01	  0.097755514	3.753900E+01
390	  0.097955912	-8.487000E+00	  0.097955912	7.727600E+01	  0.097955912	4.397700E+01	  0.097955912	3.762300E+01
391	  0.098156318	-8.519000E+00	  0.098156318	7.678400E+01	  0.098156318	4.433500E+01	  0.098156318	3.766800E+01
392	  0.098356716	-8.549000E+00	  0.098356716	7.630500E+01	  0.098356716	4.468200E+01	  0.098356716	3.771500E+01
393	  0.098557115	-8.576000E+00	  0.098557115	7.588000E+01	  0.098557115	4.499300E+01	  0.098557115	3.775100E+01
394	  0.098757520	-8.606000E+00	  0.098757520	7.543000E+01	  0.098757520	4.532800E+01	  0.098757520	3.777900E+01
395	  0.098957919	-8.634000E+00	  0.098957919	7.494800E+01	  0.098957919	4.567700E+01	  0.098957919	3.782400E+01
396	  0.099158317	-8.663000E+00	  0.099158317	7.452300E+01	  0.099158317	4.599400E+01	  0.099158317	3.784700E+01
397	  0.099358723	-8.692000E+00	  0.099358723	7.411800E+01	  0.099358723	4.630100E+01	  0.099358723	3.785800E+01
398	  0.099559121	-8.718000E+00	  0.099559121	7.366300E+01	  0.099559121	4.663400E+01	  0.099559121	3.789300E+01
399	  0.099759519	-8.744000E+00	  0.099759519	7.320900E+01	  0.099759519	4.696700E+01	  0.099759519	3.792600E+01
400	  0.099959925	-8.770000E+00	  0.099959925	7.282100E+01	  0.099959925	4.726100E+01	  0.099959925	3.793400E+01
401	  0.100160323	-8.790000E+00	  0.100160323	7.238500E+01	  0.100160323	4.757500E+01	  0.100160323	3.797800E+01
402	  0.100360721	-8.823000E+00	  0.100360721	7.194900E+01	  0.100360721	4.791300E+01	  0.100360721	3.796900E+01
403	  0.100561127	-8.842000E+00	  0.100561127	7.148400E+01	  0.100561127	4.824600E+01	  0.100561127	3.802000E+01
404	  0.100761525	-8.863000E+00	  0.100761525	7.103900E+01	  0.100761525	4.857100E+01	  0.100761525	3.805500E+01
405	  0.100961931	-8.876000E+00	  0.100961931	7.060700E+01	  0.100961931	4.887400E+01	  0.100961931	3.812000E+01
406	  0.101162329	-8.902000E+00	  0.101162329	7.023100E+01	  0.101162329	4.916500E+01	  0.101162329	3.811100E+01
407	  0.101362728	-8.921000E+00	  0.101362728	6.984400E+01	  0.101362728	4.945200E+01	  0.101362728	3.813300E+01
408	  0.101563133	-8.939000E+00	  0.101563133	6.944800E+01	  0.101563133	4.974500E+01	  0.101563133	3.815600E+01
409	  0.101763532	-8.952000E+00	  0.101763532	6.899600E+01	  0.101763532	5.006700E+01	  0.101763532	3.821600E+01
410	  0.101963930	-8.965000E+00	  0.101963930	6.858100E+01	  0.101963930	5.036800E+01	  0.101963930	3.826000E+01
411	  0.102164336	-8.984000E+00	  0.102164336	6.808300E+01	  0.102164336	5.073400E+01	  0.102164336	3.830100E+01
412	  0.102364734	-8.989000E+00	  0.102364734	6.765400E+01	  0.102364734	5.103500E+01	  0.102364734	3.837900E+01
413	  0.102565132	-8.992000E+00	  0.102565132	6.729500E+01	  0.102565132	5.128600E+01	  0.102565132	3.845200E+01
414	  0.102765530	-9.004000E+00	  0.102765530	6.683900E+01	  0.102765530	5.162000E+01	  0.102765530	3.850200E+01
415	  0.102965929	-9.005000E+00	  0.102965929	6.636700E+01	  0.102965929	5.194900E+01	  0.102965929	3.860800E+01
416	  0.103166327	-9.014000E+00	  0.103166327	6.598000E+01	  0.103166327	5.223500E+01	  0.103166327	3.864900E+01
417	  0.103366733	-9.020000E+00	  0.103366733	6.560200E+01	  0.103366733	5.251100E+01	  0.103366733	3.870500E+01
418	  0.103567131	-9.020000E+00	  0.103567131	6.515400E+01	  0.103567131	5.282900E+01	  0.103567131	3.880300E+01
419	  0.103767529	-9.011000E+00	  0.103767529	6.476900E+01	  0.103767529	5.309400E+01	  0.103767529	3.892600E+01
420	  0.103967935	-9.013000E+00	  0.103967935	6.445700E+01	  0.103967935	5.332200E+01	  0.103967935	3.898000E+01
421	  0.104168333	-9.018000E+00	  0.104168333	6.401600E+01	  0.104168333	5.365000E+01	  0.104168333	3.904700E+01
422	  0.104368731	-9.016000E+00	  0.104368731	6.362500E+01	  0.104368731	5.393400E+01	  0.104368731	3.913300E+01
423	  0.104569137	-9.013000E+00	  0.104569137	6.313700E+01	  0.104569137	5.429300E+01	  0.104569137	3.924200E+01
424	  0.104769535	-9.023000E+00	  0.104769535	6.284000E+01	  0.104769535	5.452600E+01	  0.104769535	3.925000E+01
425	  0.104969934	-9.026000E+00	  0.104969934	6.237700E+01	  0.104969934	5.487700E+01	  0.104969934	3.931800E+01
426	  0.105170339	-9.023000E+00	  0.105170339	6.206000E+01	  0.105170339	5.511300E+01	  0.105170339	3.938700E+01
427	  0.105370738	-9.028000E+00	  0.105370738	6.157800E+01	  0.105370738	5.548500E+01	  0.105370738	3.945000E+01
428	  0.105571143	-9.017000E+00	  0.105571143	6.110800E+01	  0.105571143	5.583400E+01	  0.105571143	3.958400E+01
429	  0.105771542	-9.032000E+00	  0.105771542	6.073200E+01	  0.105771542	5.614100E+01	  0.105771542	3.956800E+01
430	  0.105971940	-9.026000E+00	  0.105971940	6.028500E+01	  0.105971940	5.648200E+01	  0.105971940	3.967100E+01
431	  0.106172346	-9.029000E+00	  0.106172346	5.988900E+01	  0.106172346	5.679600E+01	  0.106172346	3.971500E+01
432	  0.106372744	-9.024000E+00	  0.106372744	5.933900E+01	  0.106372744	5.722700E+01	  0.106372744	3.982100E+01
433	  0.106573142	-9.029000E+00	  0.106573142	5.888700E+01	  0.106573142	5.759200E+01	  0.106573142	3.985800E+01
434	  0.106773548	-9.021000E+00	  0.106773548	5.838600E+01	  0.106773548	5.798800E+01	  0.106773548	3.996600E+01
435	  0.106973946	-9.028000E+00	  0.106973946	5.783100E+01	  0.106973946	5.844500E+01	  0.106973946	3.999700E+01
436	  0.107174344	-9.015000E+00	  0.107174344	5.735400E+01	  0.107174344	5.882700E+01	  0.107174344	4.012000E+01
437	  0.107374750	-9.006000E+00	  0.107374750	5.689000E+01	  0.107374750	5.920400E+01	  0.107374750	4.022200E+01
438	  0.107575148	-8.999000E+00	  0.107575148	5.631800E+01	  0.107575148	5.967700E+01	  0.107575148	4.031700E+01
439	  0.107775547	-9.000000E+00	  0.107775547	5.573400E+01	  0.107775547	6.017000E+01	  0.107775547	4.036900E+01
440	  0.107975952	-8.994000E+00	  0.107975952	5.512700E+01	  0.107975952	6.068500E+01	  0.107975952	4.045000E+01
441	  0.108176351	-8.977000E+00	  0.108176351	5.455800E+01	  0.108176351	6.116700E+01	  0.108176351	4.058800E+01
442	  0.108376749	-8.980000E+00	  0.108376749	5.399000E+01	  0.108376749	6.166200E+01	  0.108376749	4.061100E+01
443	  0.108577155	-8.960000E+00	  0.108577155	5.346400E+01	  0.108577155	6.211700E+01	  0.108577155	4.075500E+01
444	  0.108777553	-8.940000E+00	  0.108777553	5.287300E+01	  0.108777553	6.263700E+01	  0.108777553	4.090300E+01
445	  0.108977959	-8.937000E+00	  0.108977959	5.236800E+01	  0.108977959	6.308900E+01	  0.108977959	4.094100E+01
446	  0.109178357	-8.924000E+00	  0.109178357	5.176500E+01	  0.109178357	6.363300E+01	  0.109178357	4.103400E+01
447	  0.109378755	-8.912000E+00	  0.109378755	5.120000E+01	  0.109378755	6.415000E+01	  0.109378755	4.112100E+01
448	  0.109579161	-8.902000E+00	  0.109579161	5.062200E+01	  0.109579161	6.468400E+01	  0.109579161	4.118300E+01
449	  0.109779559	-8.893000E+00	  0.109779559	5.007000E+01	  0.109779559	6.520000E+01	  0.109779559	4.123400E+01
450	  0.109979957	-8.884000E+00	  0.109979957	4.943100E+01	  0.109979957	6.580300E+01	  0.109979957	4.128500E+01
451	  0.110180363	-8.878000E+00	  0.110180363	4.888000E+01	  0.110180363	6.632900E+01	  0.110180363	4.130700E+01
452	  0.110380761	-8.874000E+00	  0.110380761	4.826400E+01	  0.110380761	6.692200E+01	  0.110380761	4.130900E+01
453	  0.110581160	-8.870000E+00	  0.110581160	4.760800E+01	  0.110581160	6.755900E+01	  0.110581160	4.129400E+01
454	  0.110781565	-8.870000E+00	  0.110781565	4.696500E+01	  0.110781565	6.818800E+01	  0.110781565	4.124900E+01
455	  0.110981964	-8.860000E+00	  0.110981964	4.637600E+01	  0.110981964	6.877500E+01	  0.110981964	4.126600E+01
456	  0.111182362	-8.855000E+00	  0.111182362	4.574600E+01	  0.111182362	6.940600E+01	  0.111182362	4.123800E+01
457	  0.111382768	-8.851000E+00	  0.111382768	4.508300E+01	  0.111382768	7.007300E+01	  0.111382768	4.118600E+01
458	  0.111583166	-8.863000E+00	  0.111583166	4.445900E+01	  0.111583166	7.069300E+01	  0.111583166	4.102200E+01
459	  0.111783572	-8.855000E+00	  0.111783572	4.372600E+01	  0.111783572	7.144600E+01	  0.111783572	4.096100E+01
460	  0.111983970	-8.860000E+00	  0.111983970	4.299600E+01	  0.111983970	7.218900E+01	  0.111983970	4.080300E+01
461	  0.112184368	-8.867000E+00	  0.112184368	4.232300E+01	  0.112184368	7.287400E+01	  0.112184368	4.063000E+01
462	  0.112384774	-8.860000E+00	  0.112384774	4.160300E+01	  0.112384774	7.363100E+01	  0.112384774	4.052200E+01
463	  0.112585172	-8.870000E+00	  0.112585172	4.085800E+01	  0.112585172	7.439300E+01	  0.112585172	4.027900E+01
464	  0.112785570	-8.866000E+00	  0.112785570	4.015200E+01	  0.112785570	7.514100E+01	  0.112785570	4.012700E+01
465	  0.112985976	-8.867000E+00	  0.112985976	3.932100E+01	  0.112985976	7.601600E+01	  0.112985976	3.988500E+01
466	  0.113186374	-8.868000E+00	  0.113186374	3.852500E+01	  0.113186374	7.685800E+01	  0.113186374	3.963400E+01
467	  0.113386773	-8.869000E+00	  0.113386773	3.775300E+01	  0.113386773	7.767800E+01	  0.113386773	3.936700E+01
468	  0.113587178	-8.873000E+00	  0.113587178	3.700900E+01	  0.113587178	7.846500E+01	  0.113587178	3.907300E+01
469	  0.113787577	-8.868000E+00	  0.113787577	3.624200E+01	  0.113787577	7.929900E+01	  0.113787577	3.881300E+01
470	  0.113987975	-8.871000E+00	  0.113987975	3.544900E+01	  0.113987975	8.014400E+01	  0.113987975	3.846500E+01
471	  0.114188381	-8.876000E+00	  0.114188381	3.463200E+01	  0.114188381	8.100800E+01	  0.114188381	3.806700E+01
472	  0.114388779	-8.879000E+00	  0.114388779	3.379400E+01	  0.114388779	8.190100E+01	  0.114388779	3.765200E+01
473	  0.114589177	-8.887000E+00	  0.114589177	3.294400E+01	  0.114589177	8.278900E+01	  0.114589177	3.716800E+01
474	  0.114789583	-8.898000E+00	  0.114789583	3.216600E+01	  0.114789583	8.358200E+01	  0.114789583	3.667200E+01
475	  0.114989981	-8.913000E+00	  0.114989981	3.136800E+01	  0.114989981	8.438100E+01	  0.114989981	3.612300E+01
476	  0.115190387	-8.916000E+00	  0.115190387	3.050600E+01	  0.115190387	8.528400E+01	  0.115190387	3.558600E+01
477	  0.115390785	-8.931000E+00	  0.115390785	2.964000E+01	  0.115390785	8.613700E+01	  0.115390785	3.493900E+01
478	  0.115591183	-8.948000E+00	  0.115591183	2.875300E+01	  0.115591183	8.698500E+01	  0.115591183	3.422800E+01
479	  0.115791589	-8.970000E+00	  0.115791589	2.790200E+01	  0.115791589	8.776700E+01	  0.115791589	3.349000E+01
480	  0.115991987	-8.982000E+00	  0.115991987	2.698600E+01	  0.115991987	8.864000E+01	  0.115991987	3.273800E+01
481	  0.116192386	-9.011000E+00	  0.116192386	2.611400E+01	  0.116192386	8.937000E+01	  0.116192386	3.187900E+01
482	  0.116392791	-9.032000E+00	  0.116392791	2.519100E+01	  0.116392791	9.017200E+01	  0.116392791	3.101200E+01
483	  0.116593190	-9.055000E+00	  0.116593190	2.422600E+01	  0.116593190	9.097700E+01	  0.116593190	3.006000E+01
484	  0.116793588	-9.088000E+00	  0.116793588	2.325500E+01	  0.116793588	9.169900E+01	  0.116793588	2.900900E+01
485	  0.116993994	-9.111000E+00	  0.116993994	2.228400E+01	  0.116993994	9.245500E+01	  0.116993994	2.799900E+01
486	  0.117194392	-9.141000E+00	  0.117194392	2.133600E+01	  0.117194392	9.311100E+01	  0.117194392	2.693300E+01
487	  0.117394790	-9.180000E+00	  0.117394790	2.032400E+01	  0.117394790	9.373400E+01	  0.117394790	2.573700E+01
488	  0.117595196	-9.219000E+00	  0.117595196	1.929900E+01	  0.117595196	9.432100E+01	  0.117595196	2.450200E+01
489	  0.117795594	-9.252000E+00	  0.117795594	1.828300E+01	  0.117795594	9.490000E+01	  0.117795594	2.328700E+01
490	  0.117995992	-9.290000E+00	  0.117995992	1.719100E+01	  0.117995992	9.545300E+01	  0.117995992	2.194500E+01
491	  0.118196398	-9.324000E+00	  0.118196398	1.612500E+01	  0.118196398	9.596900E+01	  0.118196398	2.063100E+01
492	  0.118396796	-9.383000E+00	  0.118396796	1.510600E+01	  0.118396796	9.622300E+01	  0.118396796	1.924400E+01
493	  0.118597202	-9.420000E+00	  0.118597202	1.394200E+01	  0.118597202	9.667500E+01	  0.118597202	1.778100E+01
494	  0.118797600	-9.471000E+00	  0.118797600	1.285400E+01	  0.118797600	9.691000E+01	  0.118797600	1.633400E+01
495	  0.118997999	-9.523000E+00	  0.118997999	1.170000E+01	  0.118997999	9.711900E+01	  0.118997999	1.481100E+01
496	  0.119198404	-9.576000E+00	  0.119198404	1.053700E+01	  0.119198404	9.726800E+01	  0.119198404	1.327600E+01
497	  0.119398803	-9.632000E+00	  0.119398803	9.409000E+00	  0.119398803	9.730800E+01	  0.119398803	1.177900E+01
498	  0.119599201	-9.692000E+00	  0.119599201	8.191000E+00	  0.119599201	9.728900E+01	  0.119599201	1.017600E+01
499	  0.119799607	-9.756000E+00	  0.119799607	7.045000E+00	  0.119799607	9.714500E+01	  0.119799607	8.666000E+00
500	  0.120000005	-9.822000E+00	  0.120000005	5.841000E+00	  0.120000005	9.695100E+01	  0.120000005	7.111000E+00
