! Anritsu VNA Master:             	Model: MS2036C/10/77
! SN:             	1601066
! /card0/usr/18may27.balun/5a..r20.txt
! Existing Calibration Information:
! TYPE:             	Current Settings	Active Cal Settings
! TIME:             	05/27/2018 04:55:33 PM	05/27/2018 04:42:15 PM
! INTERNAL TEMP:    	53.3 C	52.0 C
! # POINTS:         	500	500
! START FREQ:       	20.000 MHz	20.000 MHz
! STOP FREQ:        	120.000 MHz	120.000 MHz
! SOURCE POWER:     	High	High
! IFBW:             	50 Hz	50 Hz
! AVG FACTOR:       	  1 	  1 
! REF PLANE 1:      	0 mm	0 mm
! REF PLANE 2:      	0 mm	0 mm
! CAL TYPE:         	Full S11	Full S11
! CAL METHOD:       	SOLT	SOLT
! CAL LINE TYPE:    	Coax	Coax
! DUT PORT 1:       	K-Conn(M)	K-Conn(M)
! DUT PORT 2:       	K-Conn(M)	K-Conn(M)
! CAL STATUS:       	OK: Accuracy High	--
! PROP-V:       	0.700
! CABLE LOSS:       	0.000 dB/m
! REF IMPEDANCE:       	50.0
! Trace Specific Parameters:	TR1	TR2	TR3	TR4
! TRACE.#.Y (GRAPH TYPE)	LOG MAG	PHASE	REAL IMPEDANCE	IMAGINARY IMPEDANCE
! TRACE.#.X 	FREQ.GHZ	FREQ.GHZ	FREQ.GHZ	FREQ.GHZ
! S-PARAMETER	S11	S11	S11	S11
! SMOOTH/APERTURE %	0	0	0	0
! WINDOW	NSL	NSL	NSL	NSL
! GATING	OFF	OFF	OFF	OFF
! FGTD	OFF	OFF	OFF	OFF
Marker Information per Trace:	TR1	TR2	TR3	TR4
!MK1	--	--	--	"MK1 TR4:  70.100 200 MHz,Z:(32.162 ohm, 34.263 ohm)"
!MK2	--	--	--	--
!MK3	--	--	--	--
!MK4	--	--	--	--
!MK5	--	--	--	--
!MK6	--	--	--	--
!MK7	--	--	--	--
!MK8	--	--	--	--
PNT	TR1.FREQ.GHZ	TR1.LOG MAG.dB	TR2.FREQ.GHZ	TR2.PHASE.deg	TR3.FREQ.GHZ	TR3.REAL IMPEDANCE.ohm	TR4.FREQ.GHZ	TR4.IMAGINARY IMPEDANCE.ohm
1	  0.020000000	-7.307000E+00	  0.020000000	1.549840E+02	  0.020000000	2.069000E+01	  0.020000000	9.267000E+00
2	  0.020200402	-7.314000E+00	  0.020200402	1.547090E+02	  0.020200402	2.072600E+01	  0.020200402	9.367000E+00
3	  0.020400802	-7.311000E+00	  0.020400802	1.544380E+02	  0.020400802	2.073800E+01	  0.020400802	9.471000E+00
4	  0.020601204	-7.311000E+00	  0.020601204	1.541320E+02	  0.020601204	2.075900E+01	  0.020601204	9.586000E+00
5	  0.020801604	-7.308000E+00	  0.020801604	1.538600E+02	  0.020801604	2.077100E+01	  0.020801604	9.690000E+00
6	  0.021002004	-7.304000E+00	  0.021002004	1.535860E+02	  0.021002004	2.077900E+01	  0.021002004	9.796000E+00
7	  0.021202406	-7.302000E+00	  0.021202406	1.532880E+02	  0.021202406	2.079600E+01	  0.021202406	9.909000E+00
8	  0.021402806	-7.303000E+00	  0.021402806	1.530140E+02	  0.021402806	2.081700E+01	  0.021402806	1.001200E+01
9	  0.021603208	-7.302000E+00	  0.021603208	1.527850E+02	  0.021603208	2.083200E+01	  0.021603208	1.010000E+01
10	  0.021803608	-7.302000E+00	  0.021803608	1.525180E+02	  0.021803608	2.085200E+01	  0.021803608	1.020000E+01
11	  0.022004008	-7.304000E+00	  0.022004008	1.522710E+02	  0.022004008	2.087500E+01	  0.022004008	1.029300E+01
12	  0.022204408	-7.297000E+00	  0.022204408	1.520590E+02	  0.022204408	2.087500E+01	  0.022204408	1.037600E+01
13	  0.022404809	-7.294000E+00	  0.022404809	1.518210E+02	  0.022404809	2.088400E+01	  0.022404809	1.046900E+01
14	  0.022605211	-7.288000E+00	  0.022605211	1.515710E+02	  0.022605211	2.088800E+01	  0.022605211	1.056700E+01
15	  0.022805611	-7.287000E+00	  0.022805611	1.513360E+02	  0.022805611	2.090500E+01	  0.022805611	1.065600E+01
16	  0.023006011	-7.284000E+00	  0.023006011	1.511310E+02	  0.023006011	2.091200E+01	  0.023006011	1.073600E+01
17	  0.023206413	-7.283000E+00	  0.023206413	1.508760E+02	  0.023206413	2.093000E+01	  0.023206413	1.083300E+01
18	  0.023406813	-7.280000E+00	  0.023406813	1.506510E+02	  0.023406813	2.094200E+01	  0.023406813	1.092000E+01
19	  0.023607215	-7.277000E+00	  0.023607215	1.504190E+02	  0.023607215	2.095300E+01	  0.023607215	1.101000E+01
20	  0.023807615	-7.278000E+00	  0.023807615	1.501730E+02	  0.023807615	2.097400E+01	  0.023807615	1.110300E+01
21	  0.024008015	-7.279000E+00	  0.024008015	1.499310E+02	  0.024008015	2.099600E+01	  0.024008015	1.119500E+01
22	  0.024208417	-7.281000E+00	  0.024208417	1.497380E+02	  0.024208417	2.101800E+01	  0.024208417	1.126700E+01
23	  0.024408817	-7.285000E+00	  0.024408817	1.495480E+02	  0.024408817	2.104300E+01	  0.024408817	1.133800E+01
24	  0.024609219	-7.292000E+00	  0.024609219	1.493040E+02	  0.024609219	2.108100E+01	  0.024609219	1.142700E+01
25	  0.024809619	-7.294000E+00	  0.024809619	1.490920E+02	  0.024809619	2.110400E+01	  0.024809619	1.150700E+01
26	  0.025010020	-7.296000E+00	  0.025010020	1.488380E+02	  0.025010020	2.113200E+01	  0.025010020	1.160200E+01
27	  0.025210422	-7.305000E+00	  0.025210422	1.485890E+02	  0.025210422	2.117400E+01	  0.025210422	1.169300E+01
28	  0.025410822	-7.311000E+00	  0.025410822	1.483220E+02	  0.025410822	2.121300E+01	  0.025410822	1.179200E+01
29	  0.025611224	-7.312000E+00	  0.025611224	1.480580E+02	  0.025611224	2.123900E+01	  0.025611224	1.189100E+01
30	  0.025811624	-7.309000E+00	  0.025811624	1.477460E+02	  0.025811624	2.126000E+01	  0.025811624	1.201300E+01
31	  0.026012026	-7.304000E+00	  0.026012026	1.474720E+02	  0.026012026	2.127100E+01	  0.026012026	1.212000E+01
32	  0.026212426	-7.304000E+00	  0.026212426	1.471900E+02	  0.026212426	2.129600E+01	  0.026212426	1.222900E+01
33	  0.026412826	-7.299000E+00	  0.026412826	1.469110E+02	  0.026412826	2.130900E+01	  0.026412826	1.233800E+01
34	  0.026613226	-7.297000E+00	  0.026613226	1.466420E+02	  0.026613226	2.133000E+01	  0.026613226	1.244300E+01
35	  0.026813626	-7.295000E+00	  0.026813626	1.464200E+02	  0.026813626	2.134500E+01	  0.026813626	1.252900E+01
36	  0.027014028	-7.293000E+00	  0.027014028	1.462160E+02	  0.027014028	2.135900E+01	  0.027014028	1.260900E+01
37	  0.027214428	-7.293000E+00	  0.027214428	1.460080E+02	  0.027214428	2.138000E+01	  0.027214428	1.268900E+01
38	  0.027414829	-7.291000E+00	  0.027414829	1.458260E+02	  0.027414829	2.139100E+01	  0.027414829	1.276000E+01
39	  0.027615231	-7.293000E+00	  0.027615231	1.456030E+02	  0.027615231	2.141800E+01	  0.027615231	1.284500E+01
40	  0.027815631	-7.296000E+00	  0.027815631	1.453620E+02	  0.027815631	2.144800E+01	  0.027815631	1.293600E+01
41	  0.028016033	-7.297000E+00	  0.028016033	1.451240E+02	  0.028016033	2.147300E+01	  0.028016033	1.302700E+01
42	  0.028216433	-7.300000E+00	  0.028216433	1.448620E+02	  0.028216433	2.150800E+01	  0.028216433	1.312600E+01
43	  0.028416833	-7.298000E+00	  0.028416833	1.446090E+02	  0.028416833	2.152700E+01	  0.028416833	1.322500E+01
44	  0.028617235	-7.297000E+00	  0.028617235	1.443530E+02	  0.028617235	2.155000E+01	  0.028617235	1.332400E+01
45	  0.028817635	-7.300000E+00	  0.028817635	1.441040E+02	  0.028817635	2.158400E+01	  0.028817635	1.341900E+01
46	  0.029018037	-7.299000E+00	  0.029018037	1.438360E+02	  0.029018037	2.160900E+01	  0.029018037	1.352200E+01
47	  0.029218437	-7.300000E+00	  0.029218437	1.435850E+02	  0.029218437	2.163600E+01	  0.029218437	1.361900E+01
48	  0.029418837	-7.297000E+00	  0.029418837	1.433840E+02	  0.029418837	2.164900E+01	  0.029418837	1.369900E+01
49	  0.029619239	-7.292000E+00	  0.029619239	1.431740E+02	  0.029619239	2.165900E+01	  0.029619239	1.378400E+01
50	  0.029819639	-7.294000E+00	  0.029819639	1.429820E+02	  0.029819639	2.168300E+01	  0.029819639	1.385700E+01
51	  0.030020041	-7.296000E+00	  0.030020041	1.427950E+02	  0.030020041	2.170800E+01	  0.030020041	1.392800E+01
52	  0.030220442	-7.297000E+00	  0.030220442	1.425740E+02	  0.030220442	2.173400E+01	  0.030220442	1.401300E+01
53	  0.030420844	-7.307000E+00	  0.030420844	1.423420E+02	  0.030420844	2.178500E+01	  0.030420844	1.409600E+01
54	  0.030621244	-7.318000E+00	  0.030621244	1.421010E+02	  0.030621244	2.183800E+01	  0.030621244	1.418200E+01
55	  0.030821644	-7.324000E+00	  0.030821644	1.417960E+02	  0.030821644	2.188800E+01	  0.030821644	1.429600E+01
56	  0.031022044	-7.326000E+00	  0.031022044	1.414680E+02	  0.031022044	2.192700E+01	  0.031022044	1.442200E+01
57	  0.031222444	-7.319000E+00	  0.031222444	1.412160E+02	  0.031222444	2.193700E+01	  0.031222444	1.452600E+01
58	  0.031422846	-7.320000E+00	  0.031422846	1.408970E+02	  0.031422846	2.197700E+01	  0.031422846	1.464900E+01
59	  0.031623244	-7.317000E+00	  0.031623244	1.406190E+02	  0.031623244	2.200000E+01	  0.031623244	1.475900E+01
60	  0.031823646	-7.314000E+00	  0.031823646	1.403150E+02	  0.031823646	2.202600E+01	  0.031823646	1.488000E+01
61	  0.032024048	-7.303000E+00	  0.032024048	1.400590E+02	  0.032024048	2.202700E+01	  0.032024048	1.498900E+01
62	  0.032224450	-7.292000E+00	  0.032224450	1.397900E+02	  0.032224450	2.203100E+01	  0.032224450	1.510200E+01
63	  0.032424849	-7.284000E+00	  0.032424849	1.395700E+02	  0.032424849	2.203600E+01	  0.032424849	1.519400E+01
64	  0.032625251	-7.278000E+00	  0.032625251	1.393350E+02	  0.032625251	2.204700E+01	  0.032625251	1.529100E+01
65	  0.032825653	-7.270000E+00	  0.032825653	1.391240E+02	  0.032825653	2.205200E+01	  0.032825653	1.538000E+01
66	  0.033026051	-7.270000E+00	  0.033026051	1.389260E+02	  0.033026051	2.207500E+01	  0.033026051	1.545800E+01
67	  0.033226453	-7.269000E+00	  0.033226453	1.387060E+02	  0.033226453	2.210000E+01	  0.033226453	1.554500E+01
68	  0.033426855	-7.271000E+00	  0.033426855	1.384870E+02	  0.033426855	2.213000E+01	  0.033426855	1.563000E+01
69	  0.033627257	-7.273000E+00	  0.033627257	1.382280E+02	  0.033627257	2.216600E+01	  0.033627257	1.573000E+01
70	  0.033827655	-7.274000E+00	  0.033827655	1.379960E+02	  0.033827655	2.219700E+01	  0.033827655	1.582100E+01
71	  0.034028057	-7.278000E+00	  0.034028057	1.377680E+02	  0.034028057	2.223700E+01	  0.034028057	1.590700E+01
72	  0.034228459	-7.281000E+00	  0.034228459	1.375140E+02	  0.034228459	2.227500E+01	  0.034228459	1.600500E+01
73	  0.034428857	-7.286000E+00	  0.034428857	1.372880E+02	  0.034428857	2.231800E+01	  0.034428857	1.609000E+01
74	  0.034629259	-7.283000E+00	  0.034629259	1.370250E+02	  0.034629259	2.234300E+01	  0.034629259	1.619600E+01
75	  0.034829661	-7.283000E+00	  0.034829661	1.368210E+02	  0.034829661	2.236800E+01	  0.034829661	1.627700E+01
76	  0.035030060	-7.276000E+00	  0.035030060	1.365460E+02	  0.035030060	2.238400E+01	  0.035030060	1.639200E+01
77	  0.035230462	-7.270000E+00	  0.035230462	1.363550E+02	  0.035230462	2.239500E+01	  0.035230462	1.647200E+01
78	  0.035430863	-7.266000E+00	  0.035430863	1.361190E+02	  0.035430863	2.241300E+01	  0.035430863	1.657000E+01
79	  0.035631265	-7.267000E+00	  0.035631265	1.359550E+02	  0.035631265	2.243900E+01	  0.035631265	1.663300E+01
80	  0.035831664	-7.266000E+00	  0.035831664	1.357750E+02	  0.035831664	2.246000E+01	  0.035831664	1.670600E+01
81	  0.036032066	-7.277000E+00	  0.036032066	1.355720E+02	  0.036032066	2.251500E+01	  0.036032066	1.677700E+01
82	  0.036232468	-7.286000E+00	  0.036232468	1.353430E+02	  0.036232468	2.256800E+01	  0.036232468	1.686000E+01
83	  0.036432866	-7.299000E+00	  0.036432866	1.351070E+02	  0.036432866	2.263400E+01	  0.036432866	1.694200E+01
84	  0.036633268	-7.309000E+00	  0.036633268	1.348200E+02	  0.036633268	2.269800E+01	  0.036633268	1.704700E+01
85	  0.036833670	-7.311000E+00	  0.036833670	1.345210E+02	  0.036833670	2.274400E+01	  0.036833670	1.716400E+01
86	  0.037034072	-7.316000E+00	  0.037034072	1.342360E+02	  0.037034072	2.279700E+01	  0.037034072	1.727300E+01
87	  0.037234470	-7.317000E+00	  0.037234470	1.339440E+02	  0.037234470	2.284000E+01	  0.037234470	1.738800E+01
88	  0.037434869	-7.315000E+00	  0.037434869	1.336580E+02	  0.037434869	2.287300E+01	  0.037434869	1.750400E+01
89	  0.037635271	-7.308000E+00	  0.037635271	1.333930E+02	  0.037635271	2.289200E+01	  0.037635271	1.761600E+01
90	  0.037835669	-7.299000E+00	  0.037835669	1.331450E+02	  0.037835669	2.290400E+01	  0.037835669	1.772400E+01
91	  0.038036071	-7.294000E+00	  0.038036071	1.328880E+02	  0.038036071	2.292700E+01	  0.038036071	1.783100E+01
92	  0.038236473	-7.287000E+00	  0.038236473	1.326900E+02	  0.038236473	2.293800E+01	  0.038236473	1.791700E+01
93	  0.038436871	-7.288000E+00	  0.038436871	1.324670E+02	  0.038436871	2.297100E+01	  0.038436871	1.800600E+01
94	  0.038637273	-7.293000E+00	  0.038637273	1.322300E+02	  0.038637273	2.301900E+01	  0.038637273	1.809600E+01
95	  0.038837675	-7.296000E+00	  0.038837675	1.319850E+02	  0.038837675	2.306300E+01	  0.038837675	1.819100E+01
96	  0.039038073	-7.300000E+00	  0.039038073	1.317170E+02	  0.039038073	2.311300E+01	  0.039038073	1.829500E+01
97	  0.039238475	-7.305000E+00	  0.039238475	1.314440E+02	  0.039238475	2.316600E+01	  0.039238475	1.840000E+01
98	  0.039438877	-7.306000E+00	  0.039438877	1.311650E+02	  0.039438877	2.321200E+01	  0.039438877	1.851000E+01
99	  0.039639279	-7.310000E+00	  0.039639279	1.308880E+02	  0.039639279	2.326200E+01	  0.039639279	1.861900E+01
100	  0.039839678	-7.308000E+00	  0.039839678	1.306150E+02	  0.039839678	2.330100E+01	  0.039839678	1.873000E+01
101	  0.040040080	-7.305000E+00	  0.040040080	1.303500E+02	  0.040040080	2.333200E+01	  0.040040080	1.884000E+01
102	  0.040240481	-7.301000E+00	  0.040240481	1.300890E+02	  0.040240481	2.336200E+01	  0.040240481	1.894900E+01
103	  0.040440880	-7.294000E+00	  0.040440880	1.297990E+02	  0.040440880	2.338800E+01	  0.040440880	1.907300E+01
104	  0.040641282	-7.285000E+00	  0.040641282	1.295380E+02	  0.040641282	2.340500E+01	  0.040641282	1.918800E+01
105	  0.040841684	-7.274000E+00	  0.040841684	1.293100E+02	  0.040841684	2.341200E+01	  0.040841684	1.929200E+01
106	  0.041042086	-7.267000E+00	  0.041042086	1.291100E+02	  0.041042086	2.342500E+01	  0.041042086	1.938100E+01
107	  0.041242484	-7.267000E+00	  0.041242484	1.289470E+02	  0.041242484	2.345100E+01	  0.041242484	1.944600E+01
108	  0.041442886	-7.272000E+00	  0.041442886	1.287740E+02	  0.041442886	2.349000E+01	  0.041442886	1.951300E+01
109	  0.041643288	-7.276000E+00	  0.041643288	1.285850E+02	  0.041643288	2.353200E+01	  0.041643288	1.958500E+01
110	  0.041843686	-7.280000E+00	  0.041843686	1.283320E+02	  0.041843686	2.358400E+01	  0.041843686	1.968300E+01
111	  0.042044088	-7.282000E+00	  0.042044088	1.280840E+02	  0.042044088	2.362900E+01	  0.042044088	1.978200E+01
112	  0.042244490	-7.285000E+00	  0.042244490	1.278630E+02	  0.042244490	2.367400E+01	  0.042244490	1.986900E+01
113	  0.042444889	-7.284000E+00	  0.042444889	1.276320E+02	  0.042444889	2.371000E+01	  0.042444889	1.996300E+01
114	  0.042645290	-7.278000E+00	  0.042645290	1.273750E+02	  0.042645290	2.373600E+01	  0.042645290	2.007500E+01
115	  0.042845692	-7.277000E+00	  0.042845692	1.271680E+02	  0.042845692	2.376700E+01	  0.042845692	2.016100E+01
116	  0.043046094	-7.268000E+00	  0.043046094	1.269010E+02	  0.043046094	2.378600E+01	  0.043046094	2.028100E+01
117	  0.043246493	-7.260000E+00	  0.043246493	1.266940E+02	  0.043246493	2.380100E+01	  0.043246493	2.037400E+01
118	  0.043446895	-7.257000E+00	  0.043446895	1.265290E+02	  0.043446895	2.382100E+01	  0.043446895	2.044500E+01
119	  0.043647297	-7.259000E+00	  0.043647297	1.263090E+02	  0.043647297	2.386400E+01	  0.043647297	2.053300E+01
120	  0.043847695	-7.261000E+00	  0.043847695	1.261610E+02	  0.043847695	2.389600E+01	  0.043847695	2.059100E+01
121	  0.044048097	-7.268000E+00	  0.044048097	1.259480E+02	  0.044048097	2.395100E+01	  0.044048097	2.067100E+01
122	  0.044248499	-7.279000E+00	  0.044248499	1.257310E+02	  0.044248499	2.401800E+01	  0.044248499	2.074800E+01
123	  0.044448901	-7.288000E+00	  0.044448901	1.254690E+02	  0.044448901	2.408700E+01	  0.044448901	2.084500E+01
124	  0.044649299	-7.292000E+00	  0.044649299	1.252430E+02	  0.044649299	2.413800E+01	  0.044649299	2.093300E+01
125	  0.044849701	-7.303000E+00	  0.044849701	1.249690E+02	  0.044849701	2.421800E+01	  0.044849701	2.103300E+01
126	  0.045050103	-7.307000E+00	  0.045050103	1.247040E+02	  0.045050103	2.427600E+01	  0.045050103	2.113700E+01
127	  0.045250501	-7.310000E+00	  0.045250501	1.244210E+02	  0.045250501	2.433300E+01	  0.045250501	2.125100E+01
128	  0.045450903	-7.318000E+00	  0.045450903	1.241160E+02	  0.045450903	2.441200E+01	  0.045450903	2.136600E+01
129	  0.045651305	-7.317000E+00	  0.045651305	1.237720E+02	  0.045651305	2.447000E+01	  0.045651305	2.151000E+01
130	  0.045851704	-7.310000E+00	  0.045851704	1.235040E+02	  0.045851704	2.450100E+01	  0.045851704	2.162900E+01
131	  0.046052106	-7.310000E+00	  0.046052106	1.231920E+02	  0.046052106	2.456000E+01	  0.046052106	2.175700E+01
132	  0.046252504	-7.303000E+00	  0.046252504	1.229030E+02	  0.046252504	2.459400E+01	  0.046252504	2.188600E+01
133	  0.046452906	-7.298000E+00	  0.046452906	1.226360E+02	  0.046452906	2.463000E+01	  0.046452906	2.200300E+01
134	  0.046653304	-7.299000E+00	  0.046653304	1.224060E+02	  0.046653304	2.467700E+01	  0.046653304	2.209700E+01
135	  0.046853706	-7.296000E+00	  0.046853706	1.221380E+02	  0.046853706	2.472000E+01	  0.046853706	2.221200E+01
136	  0.047054108	-7.295000E+00	  0.047054108	1.218600E+02	  0.047054108	2.477200E+01	  0.047054108	2.232900E+01
137	  0.047254506	-7.298000E+00	  0.047254506	1.216150E+02	  0.047254506	2.482500E+01	  0.047254506	2.242800E+01
138	  0.047454908	-7.293000E+00	  0.047454908	1.213600E+02	  0.047454908	2.486200E+01	  0.047454908	2.254000E+01
139	  0.047655310	-7.294000E+00	  0.047655310	1.211040E+02	  0.047655310	2.491500E+01	  0.047655310	2.264600E+01
140	  0.047855709	-7.288000E+00	  0.047855709	1.208340E+02	  0.047855709	2.495200E+01	  0.047855709	2.276600E+01
141	  0.048056111	-7.277000E+00	  0.048056111	1.206050E+02	  0.048056111	2.496800E+01	  0.048056111	2.287600E+01
142	  0.048256513	-7.264000E+00	  0.048256513	1.203300E+02	  0.048256513	2.498700E+01	  0.048256513	2.300900E+01
143	  0.048456915	-7.255000E+00	  0.048456915	1.201320E+02	  0.048456915	2.500200E+01	  0.048456915	2.310400E+01
144	  0.048657313	-7.242000E+00	  0.048657313	1.199500E+02	  0.048657313	2.500200E+01	  0.048657313	2.319800E+01
145	  0.048857715	-7.235000E+00	  0.048857715	1.197660E+02	  0.048857715	2.502100E+01	  0.048857715	2.328400E+01
146	  0.049058117	-7.232000E+00	  0.049058117	1.196240E+02	  0.049058117	2.504000E+01	  0.049058117	2.334900E+01
147	  0.049258515	-7.232000E+00	  0.049258515	1.194970E+02	  0.049258515	2.506800E+01	  0.049258515	2.340200E+01
148	  0.049458917	-7.237000E+00	  0.049458917	1.193370E+02	  0.049458917	2.511300E+01	  0.049458917	2.346400E+01
149	  0.049659319	-7.240000E+00	  0.049659319	1.191380E+02	  0.049659319	2.516300E+01	  0.049659319	2.354300E+01
150	  0.049859721	-7.247000E+00	  0.049859721	1.189660E+02	  0.049859721	2.521900E+01	  0.049859721	2.360600E+01
151	  0.050060119	-7.253000E+00	  0.050060119	1.187870E+02	  0.050060119	2.527200E+01	  0.050060119	2.367300E+01
152	  0.050260521	-7.262000E+00	  0.050260521	1.185590E+02	  0.050260521	2.534500E+01	  0.050260521	2.375800E+01
153	  0.050460923	-7.272000E+00	  0.050460923	1.183550E+02	  0.050460923	2.541700E+01	  0.050460923	2.382900E+01
154	  0.050661322	-7.277000E+00	  0.050661322	1.181060E+02	  0.050661322	2.548400E+01	  0.050661322	2.392700E+01
155	  0.050861724	-7.284000E+00	  0.050861724	1.178460E+02	  0.050861724	2.555600E+01	  0.050861724	2.402900E+01
156	  0.051062126	-7.289000E+00	  0.051062126	1.175710E+02	  0.051062126	2.563200E+01	  0.051062126	2.413700E+01
157	  0.051262524	-7.288000E+00	  0.051262524	1.172620E+02	  0.051262524	2.569500E+01	  0.051262524	2.427000E+01
158	  0.051462926	-7.292000E+00	  0.051462926	1.169700E+02	  0.051462926	2.577000E+01	  0.051462926	2.438800E+01
159	  0.051663328	-7.295000E+00	  0.051663328	1.167190E+02	  0.051663328	2.583300E+01	  0.051663328	2.449000E+01
160	  0.051863730	-7.300000E+00	  0.051863730	1.164700E+02	  0.051863730	2.590200E+01	  0.051863730	2.458900E+01
161	  0.052064128	-7.302000E+00	  0.052064128	1.161820E+02	  0.052064128	2.597300E+01	  0.052064128	2.470800E+01
162	  0.052264530	-7.306000E+00	  0.052264530	1.159120E+02	  0.052264530	2.604500E+01	  0.052264530	2.481700E+01
163	  0.052464932	-7.307000E+00	  0.052464932	1.155990E+02	  0.052464932	2.611900E+01	  0.052464932	2.494900E+01
164	  0.052665330	-7.312000E+00	  0.052665330	1.153040E+02	  0.052665330	2.619900E+01	  0.052665330	2.506700E+01
165	  0.052865732	-7.314000E+00	  0.052865732	1.149780E+02	  0.052865732	2.628200E+01	  0.052865732	2.520200E+01
166	  0.053066134	-7.309000E+00	  0.053066134	1.146610E+02	  0.053066134	2.633900E+01	  0.053066134	2.534600E+01
167	  0.053266536	-7.305000E+00	  0.053266536	1.143600E+02	  0.053266536	2.639900E+01	  0.053266536	2.548100E+01
168	  0.053466935	-7.295000E+00	  0.053466935	1.140470E+02	  0.053466935	2.644300E+01	  0.053466935	2.563100E+01
169	  0.053667337	-7.285000E+00	  0.053667337	1.137720E+02	  0.053667337	2.648200E+01	  0.053667337	2.576400E+01
170	  0.053867739	-7.269000E+00	  0.053867739	1.135050E+02	  0.053867739	2.649900E+01	  0.053867739	2.590500E+01
171	  0.054068137	-7.261000E+00	  0.054068137	1.132650E+02	  0.054068137	2.653500E+01	  0.054068137	2.602000E+01
172	  0.054268539	-7.248000E+00	  0.054268539	1.130750E+02	  0.054268539	2.654300E+01	  0.054268539	2.612400E+01
173	  0.054468941	-7.241000E+00	  0.054468941	1.128800E+02	  0.054468941	2.657200E+01	  0.054468941	2.621800E+01
174	  0.054669339	-7.239000E+00	  0.054669339	1.127430E+02	  0.054669339	2.660000E+01	  0.054669339	2.628100E+01
175	  0.054869737	-7.234000E+00	  0.054869737	1.125480E+02	  0.054869737	2.663300E+01	  0.054869737	2.637300E+01
176	  0.055070139	-7.233000E+00	  0.055070139	1.123650E+02	  0.055070139	2.667500E+01	  0.055070139	2.645500E+01
177	  0.055270538	-7.231000E+00	  0.055270538	1.122060E+02	  0.055270538	2.670700E+01	  0.055270538	2.652800E+01
178	  0.055470940	-7.237000E+00	  0.055470940	1.120180E+02	  0.055470940	2.677100E+01	  0.055470940	2.660000E+01
179	  0.055671342	-7.240000E+00	  0.055671342	1.118470E+02	  0.055671342	2.682200E+01	  0.055671342	2.666900E+01
180	  0.055871744	-7.242000E+00	  0.055871744	1.116680E+02	  0.055871744	2.687400E+01	  0.055871744	2.674300E+01
181	  0.056072142	-7.243000E+00	  0.056072142	1.114130E+02	  0.056072142	2.694000E+01	  0.056072142	2.685300E+01
182	  0.056272544	-7.246000E+00	  0.056272544	1.111750E+02	  0.056272544	2.700900E+01	  0.056272544	2.695200E+01
183	  0.056472946	-7.251000E+00	  0.056472946	1.109470E+02	  0.056472946	2.708300E+01	  0.056472946	2.704100E+01
184	  0.056673344	-7.255000E+00	  0.056673344	1.106900E+02	  0.056673344	2.716000E+01	  0.056673344	2.714700E+01
185	  0.056873746	-7.257000E+00	  0.056873746	1.104700E+02	  0.056873746	2.722200E+01	  0.056873746	2.724000E+01
186	  0.057074148	-7.264000E+00	  0.057074148	1.102180E+02	  0.057074148	2.730700E+01	  0.057074148	2.733900E+01
187	  0.057274550	-7.270000E+00	  0.057274550	1.099520E+02	  0.057274550	2.739500E+01	  0.057274550	2.744400E+01
188	  0.057474948	-7.272000E+00	  0.057474948	1.097150E+02	  0.057474948	2.746200E+01	  0.057474948	2.754500E+01
189	  0.057675350	-7.278000E+00	  0.057675350	1.094470E+02	  0.057675350	2.755100E+01	  0.057675350	2.765100E+01
190	  0.057875752	-7.285000E+00	  0.057875752	1.091710E+02	  0.057875752	2.764300E+01	  0.057875752	2.776000E+01
191	  0.058076151	-7.288000E+00	  0.058076151	1.088780E+02	  0.058076151	2.773300E+01	  0.058076151	2.788100E+01
192	  0.058276553	-7.291000E+00	  0.058276553	1.085790E+02	  0.058276553	2.782100E+01	  0.058276553	2.800800E+01
193	  0.058476955	-7.290000E+00	  0.058476955	1.082460E+02	  0.058476955	2.790900E+01	  0.058476955	2.815600E+01
194	  0.058677353	-7.285000E+00	  0.058677353	1.079120E+02	  0.058677353	2.798800E+01	  0.058677353	2.831100E+01
195	  0.058877755	-7.279000E+00	  0.058877755	1.076280E+02	  0.058877755	2.805000E+01	  0.058877755	2.844600E+01
196	  0.059078157	-7.271000E+00	  0.059078157	1.073100E+02	  0.059078157	2.811400E+01	  0.059078157	2.860200E+01
197	  0.059278559	-7.259000E+00	  0.059278559	1.070610E+02	  0.059278559	2.815100E+01	  0.059278559	2.873300E+01
198	  0.059478957	-7.246000E+00	  0.059478957	1.067940E+02	  0.059478957	2.818700E+01	  0.059478957	2.887700E+01
199	  0.059679359	-7.240000E+00	  0.059679359	1.065940E+02	  0.059679359	2.822600E+01	  0.059679359	2.897700E+01
200	  0.059879761	-7.229000E+00	  0.059879761	1.063820E+02	  0.059879761	2.825600E+01	  0.059879761	2.909100E+01
201	  0.060080159	-7.221000E+00	  0.060080159	1.061780E+02	  0.060080159	2.829100E+01	  0.060080159	2.919700E+01
202	  0.060280561	-7.216000E+00	  0.060280561	1.060080E+02	  0.060280561	2.832600E+01	  0.060280561	2.928200E+01
203	  0.060480963	-7.210000E+00	  0.060480963	1.058660E+02	  0.060480963	2.834900E+01	  0.060480963	2.935800E+01
204	  0.060681365	-7.201000E+00	  0.060681365	1.056810E+02	  0.060681365	2.837500E+01	  0.060681365	2.945800E+01
205	  0.060881764	-7.207000E+00	  0.060881764	1.055390E+02	  0.060881764	2.843400E+01	  0.060881764	2.951000E+01
206	  0.061082166	-7.206000E+00	  0.061082166	1.053610E+02	  0.061082166	2.848400E+01	  0.061082166	2.959200E+01
207	  0.061282568	-7.204000E+00	  0.061282568	1.052050E+02	  0.061282568	2.852400E+01	  0.061282568	2.966500E+01
208	  0.061482966	-7.207000E+00	  0.061482966	1.050150E+02	  0.061482966	2.859100E+01	  0.061482966	2.974300E+01
209	  0.061683368	-7.208000E+00	  0.061683368	1.048090E+02	  0.061683368	2.865300E+01	  0.061683368	2.983500E+01
210	  0.061883770	-7.212000E+00	  0.061883770	1.045940E+02	  0.061883770	2.873100E+01	  0.061883770	2.992200E+01
211	  0.062084168	-7.218000E+00	  0.062084168	1.044080E+02	  0.062084168	2.880400E+01	  0.062084168	2.999400E+01
212	  0.062284570	-7.222000E+00	  0.062284570	1.042070E+02	  0.062284570	2.887600E+01	  0.062284570	3.007700E+01
213	  0.062484972	-7.215000E+00	  0.062484972	1.040170E+02	  0.062484972	2.891400E+01	  0.062484972	3.017500E+01
214	  0.062685370	-7.225000E+00	  0.062685370	1.038230E+02	  0.062685370	2.900100E+01	  0.062685370	3.024400E+01
215	  0.062885776	-7.242000E+00	  0.062885776	1.035610E+02	  0.062885776	2.913400E+01	  0.062885776	3.032600E+01
216	  0.063086174	-7.245000E+00	  0.063086174	1.033200E+02	  0.063086174	2.921700E+01	  0.063086174	3.042800E+01
217	  0.063286573	-7.257000E+00	  0.063286573	1.030630E+02	  0.063286573	2.933300E+01	  0.063286573	3.051800E+01
218	  0.063486971	-7.264000E+00	  0.063486971	1.027460E+02	  0.063486971	2.945100E+01	  0.063486971	3.064800E+01
219	  0.063687377	-7.277000E+00	  0.063687377	1.024330E+02	  0.063687377	2.959000E+01	  0.063687377	3.076000E+01
220	  0.063887775	-7.274000E+00	  0.063887775	1.020980E+02	  0.063887775	2.968900E+01	  0.063887775	3.091600E+01
221	  0.064088173	-7.275000E+00	  0.064088173	1.018040E+02	  0.064088173	2.978500E+01	  0.064088173	3.104700E+01
222	  0.064288579	-7.279000E+00	  0.064288579	1.014290E+02	  0.064288579	2.991800E+01	  0.064288579	3.120800E+01
223	  0.064488977	-7.276000E+00	  0.064488977	1.011050E+02	  0.064488977	3.001400E+01	  0.064488977	3.136000E+01
224	  0.064689375	-7.266000E+00	  0.064689375	1.007780E+02	  0.064689375	3.009500E+01	  0.064689375	3.152800E+01
225	  0.064889781	-7.260000E+00	  0.064889781	1.005020E+02	  0.064889781	3.016600E+01	  0.064889781	3.166800E+01
226	  0.065090179	-7.253000E+00	  0.065090179	1.001890E+02	  0.065090179	3.025300E+01	  0.065090179	3.182300E+01
227	  0.065290578	-7.239000E+00	  0.065290578	9.993000E+01	  0.065290578	3.029800E+01	  0.065290578	3.197200E+01
228	  0.065490983	-7.231000E+00	  0.065490983	9.968800E+01	  0.065490983	3.035400E+01	  0.065490983	3.210100E+01
229	  0.065691382	-7.216000E+00	  0.065691382	9.946300E+01	  0.065691382	3.038700E+01	  0.065691382	3.223700E+01
230	  0.065891780	-7.204000E+00	  0.065891780	9.931100E+01	  0.065891780	3.040100E+01	  0.065891780	3.233500E+01
231	  0.066092186	-7.195000E+00	  0.066092186	9.909700E+01	  0.066092186	3.044800E+01	  0.066092186	3.245200E+01
232	  0.066292584	-7.187000E+00	  0.066292584	9.891200E+01	  0.066292584	3.048800E+01	  0.066292584	3.255600E+01
233	  0.066492982	-7.181000E+00	  0.066492982	9.872100E+01	  0.066492982	3.053800E+01	  0.066492982	3.265600E+01
234	  0.066693388	-7.175000E+00	  0.066693388	9.856400E+01	  0.066693388	3.057400E+01	  0.066693388	3.274300E+01
235	  0.066893786	-7.168000E+00	  0.066893786	9.838200E+01	  0.066893786	3.061500E+01	  0.066893786	3.284300E+01
236	  0.067094192	-7.166000E+00	  0.067094192	9.821500E+01	  0.067094192	3.066800E+01	  0.067094192	3.292500E+01
237	  0.067294590	-7.165000E+00	  0.067294590	9.801100E+01	  0.067294590	3.073800E+01	  0.067294590	3.302100E+01
238	  0.067494988	-7.165000E+00	  0.067494988	9.788000E+01	  0.067494988	3.078300E+01	  0.067494988	3.308200E+01
239	  0.067695394	-7.159000E+00	  0.067695394	9.771200E+01	  0.067695394	3.082500E+01	  0.067695394	3.317400E+01
240	  0.067895792	-7.161000E+00	  0.067895792	9.758000E+01	  0.067895792	3.088000E+01	  0.067895792	3.322900E+01
241	  0.068096191	-7.176000E+00	  0.068096191	9.742700E+01	  0.068096191	3.097800E+01	  0.068096191	3.326600E+01
242	  0.068296596	-7.178000E+00	  0.068296596	9.725700E+01	  0.068296596	3.104600E+01	  0.068296596	3.333900E+01
243	  0.068496995	-7.186000E+00	  0.068496995	9.708800E+01	  0.068496995	3.113400E+01	  0.068496995	3.339600E+01
244	  0.068697393	-7.193000E+00	  0.068697393	9.686100E+01	  0.068697393	3.123600E+01	  0.068697393	3.348600E+01
245	  0.068897791	-7.207000E+00	  0.068897791	9.664400E+01	  0.068897791	3.136000E+01	  0.068897791	3.355100E+01
246	  0.069098189	-7.214000E+00	  0.069098189	9.638700E+01	  0.069098189	3.147600E+01	  0.069098189	3.365200E+01
247	  0.069298595	-7.229000E+00	  0.069298595	9.614300E+01	  0.069298595	3.161000E+01	  0.069298595	3.372900E+01
248	  0.069498993	-7.237000E+00	  0.069498993	9.581300E+01	  0.069498993	3.175800E+01	  0.069498993	3.386100E+01
249	  0.069699399	-7.247000E+00	  0.069699399	9.548500E+01	  0.069699399	3.191100E+01	  0.069699399	3.398800E+01
250	  0.069899797	-7.254000E+00	  0.069899797	9.515200E+01	  0.069899797	3.205900E+01	  0.069899797	3.412400E+01
251	  0.070100196	-7.251000E+00	  0.070100196	9.486500E+01	  0.070100196	3.216200E+01	  0.070100196	3.426200E+01
252	  0.070300601	-7.255000E+00	  0.070300601	9.450800E+01	  0.070300601	3.231100E+01	  0.070300601	3.441700E+01
253	  0.070501000	-7.251000E+00	  0.070501000	9.420200E+01	  0.070501000	3.241700E+01	  0.070501000	3.456900E+01
254	  0.070701398	-7.250000E+00	  0.070701398	9.392100E+01	  0.070701398	3.252500E+01	  0.070701398	3.470100E+01
255	  0.070901804	-7.245000E+00	  0.070901804	9.358600E+01	  0.070901804	3.264400E+01	  0.070901804	3.486700E+01
256	  0.071102202	-7.239000E+00	  0.071102202	9.331400E+01	  0.071102202	3.273400E+01	  0.071102202	3.500900E+01
257	  0.071302600	-7.229000E+00	  0.071302600	9.305200E+01	  0.071302600	3.280900E+01	  0.071302600	3.515700E+01
258	  0.071503006	-7.219000E+00	  0.071503006	9.280700E+01	  0.071503006	3.287600E+01	  0.071503006	3.529900E+01
259	  0.071703404	-7.209000E+00	  0.071703404	9.252800E+01	  0.071703404	3.296000E+01	  0.071703404	3.545400E+01
260	  0.071903802	-7.208000E+00	  0.071903802	9.225100E+01	  0.071903802	3.306900E+01	  0.071903802	3.558800E+01
261	  0.072104208	-7.189000E+00	  0.072104208	9.202800E+01	  0.072104208	3.310300E+01	  0.072104208	3.574200E+01
262	  0.072304606	-7.187000E+00	  0.072304606	9.181600E+01	  0.072304606	3.318300E+01	  0.072304606	3.584800E+01
263	  0.072505005	-7.181000E+00	  0.072505005	9.161900E+01	  0.072505005	3.324700E+01	  0.072505005	3.595700E+01
264	  0.072705410	-7.170000E+00	  0.072705410	9.139100E+01	  0.072705410	3.331000E+01	  0.072705410	3.609300E+01
265	  0.072905809	-7.161000E+00	  0.072905809	9.117900E+01	  0.072905809	3.336900E+01	  0.072905809	3.622000E+01
266	  0.073106214	-7.156000E+00	  0.073106214	9.103600E+01	  0.073106214	3.341600E+01	  0.073106214	3.630000E+01
267	  0.073306613	-7.150000E+00	  0.073306613	9.090100E+01	  0.073306613	3.345500E+01	  0.073306613	3.638000E+01
268	  0.073507011	-7.146000E+00	  0.073507011	9.070800E+01	  0.073507011	3.352200E+01	  0.073507011	3.648400E+01
269	  0.073707417	-7.150000E+00	  0.073707417	9.056200E+01	  0.073707417	3.360000E+01	  0.073707417	3.654000E+01
270	  0.073907815	-7.147000E+00	  0.073907815	9.042000E+01	  0.073907815	3.364800E+01	  0.073907815	3.661700E+01
271	  0.074108213	-7.145000E+00	  0.074108213	9.023300E+01	  0.074108213	3.372500E+01	  0.074108213	3.671000E+01
272	  0.074308619	-7.153000E+00	  0.074308619	9.005000E+01	  0.074308619	3.382700E+01	  0.074308619	3.677500E+01
273	  0.074509017	-7.161000E+00	  0.074509017	8.988200E+01	  0.074509017	3.392700E+01	  0.074509017	3.683000E+01
274	  0.074709415	-7.173000E+00	  0.074709415	8.963200E+01	  0.074709415	3.407300E+01	  0.074709415	3.691300E+01
275	  0.074909821	-7.179000E+00	  0.074909821	8.942200E+01	  0.074909821	3.418500E+01	  0.074909821	3.699500E+01
276	  0.075110219	-7.184000E+00	  0.075110219	8.915100E+01	  0.075110219	3.432100E+01	  0.075110219	3.710800E+01
277	  0.075310618	-7.198000E+00	  0.075310618	8.895100E+01	  0.075310618	3.445200E+01	  0.075310618	3.716200E+01
278	  0.075511023	-7.200000E+00	  0.075511023	8.866200E+01	  0.075511023	3.458900E+01	  0.075511023	3.729000E+01
279	  0.075711422	-7.201000E+00	  0.075711422	8.836500E+01	  0.075711422	3.472400E+01	  0.075711422	3.743000E+01
280	  0.075911827	-7.212000E+00	  0.075911827	8.803400E+01	  0.075911827	3.490900E+01	  0.075911827	3.755200E+01
281	  0.076112226	-7.202000E+00	  0.076112226	8.781500E+01	  0.076112226	3.498000E+01	  0.076112226	3.768300E+01
282	  0.076312624	-7.204000E+00	  0.076312624	8.751100E+01	  0.076312624	3.512700E+01	  0.076312624	3.782100E+01
283	  0.076513030	-7.207000E+00	  0.076513030	8.727300E+01	  0.076513030	3.524600E+01	  0.076513030	3.792400E+01
284	  0.076713428	-7.204000E+00	  0.076713428	8.699100E+01	  0.076713428	3.537000E+01	  0.076713428	3.806500E+01
285	  0.076913826	-7.207000E+00	  0.076913826	8.672800E+01	  0.076913826	3.550200E+01	  0.076913826	3.818100E+01
286	  0.077114232	-7.199000E+00	  0.077114232	8.643600E+01	  0.077114232	3.561700E+01	  0.077114232	3.834200E+01
287	  0.077314630	-7.202000E+00	  0.077314630	8.616100E+01	  0.077314630	3.575800E+01	  0.077314630	3.846200E+01
288	  0.077515028	-7.199000E+00	  0.077515028	8.590700E+01	  0.077515028	3.587000E+01	  0.077515028	3.859200E+01
289	  0.077715434	-7.195000E+00	  0.077715434	8.565900E+01	  0.077715434	3.597800E+01	  0.077715434	3.872200E+01
290	  0.077915832	-7.185000E+00	  0.077915832	8.536200E+01	  0.077915832	3.609300E+01	  0.077915832	3.889400E+01
291	  0.078116231	-7.181000E+00	  0.078116231	8.513400E+01	  0.078116231	3.619100E+01	  0.078116231	3.901600E+01
292	  0.078316636	-7.175000E+00	  0.078316636	8.488600E+01	  0.078316636	3.629700E+01	  0.078316636	3.915200E+01
293	  0.078517035	-7.166000E+00	  0.078517035	8.466300E+01	  0.078517035	3.637900E+01	  0.078517035	3.928800E+01
294	  0.078717433	-7.160000E+00	  0.078717433	8.443200E+01	  0.078717433	3.647600E+01	  0.078717433	3.941600E+01
295	  0.078917839	-7.152000E+00	  0.078917839	8.422800E+01	  0.078917839	3.655100E+01	  0.078917839	3.954300E+01
296	  0.079118237	-7.151000E+00	  0.079118237	8.403400E+01	  0.079118237	3.664800E+01	  0.079118237	3.963700E+01
297	  0.079318643	-7.145000E+00	  0.079318643	8.385700E+01	  0.079318643	3.671800E+01	  0.079318643	3.974200E+01
298	  0.079519041	-7.141000E+00	  0.079519041	8.368700E+01	  0.079519041	3.679300E+01	  0.079519041	3.983500E+01
299	  0.079719439	-7.144000E+00	  0.079719439	8.343500E+01	  0.079719439	3.693200E+01	  0.079719439	3.994500E+01
300	  0.079919845	-7.146000E+00	  0.079919845	8.322200E+01	  0.079919845	3.704600E+01	  0.079919845	4.004200E+01
301	  0.080120243	-7.146000E+00	  0.080120243	8.303900E+01	  0.080120243	3.714300E+01	  0.080120243	4.012800E+01
302	  0.080320641	-7.147000E+00	  0.080320641	8.280400E+01	  0.080320641	3.727000E+01	  0.080320641	4.023500E+01
303	  0.080521047	-7.158000E+00	  0.080521047	8.256200E+01	  0.080521047	3.742900E+01	  0.080521047	4.031400E+01
304	  0.080721445	-7.152000E+00	  0.080721445	8.234400E+01	  0.080721445	3.752700E+01	  0.080721445	4.043700E+01
305	  0.080921844	-7.152000E+00	  0.080921844	8.210300E+01	  0.080921844	3.765300E+01	  0.080921844	4.055400E+01
306	  0.081122249	-7.154000E+00	  0.081122249	8.182700E+01	  0.081122249	3.780700E+01	  0.081122249	4.067800E+01
307	  0.081322648	-7.150000E+00	  0.081322648	8.156700E+01	  0.081322648	3.793700E+01	  0.081322648	4.081400E+01
308	  0.081523046	-7.141000E+00	  0.081523046	8.134500E+01	  0.081523046	3.802800E+01	  0.081523046	4.095400E+01
309	  0.081723452	-7.143000E+00	  0.081723452	8.113800E+01	  0.081723452	3.814800E+01	  0.081723452	4.104300E+01
310	  0.081923850	-7.138000E+00	  0.081923850	8.095200E+01	  0.081923850	3.823300E+01	  0.081923850	4.115100E+01
311	  0.082124248	-7.136000E+00	  0.082124248	8.069500E+01	  0.082124248	3.836700E+01	  0.082124248	4.128300E+01
312	  0.082324654	-7.135000E+00	  0.082324654	8.050300E+01	  0.082324654	3.847200E+01	  0.082324654	4.137600E+01
313	  0.082525052	-7.136000E+00	  0.082525052	8.029300E+01	  0.082525052	3.859100E+01	  0.082525052	4.147300E+01
314	  0.082725458	-7.134000E+00	  0.082725458	8.010200E+01	  0.082725458	3.869100E+01	  0.082725458	4.157200E+01
315	  0.082925856	-7.132000E+00	  0.082925856	7.987300E+01	  0.082925856	3.881600E+01	  0.082925856	4.168700E+01
316	  0.083126254	-7.139000E+00	  0.083126254	7.966700E+01	  0.083126254	3.895400E+01	  0.083126254	4.176000E+01
317	  0.083326660	-7.134000E+00	  0.083326660	7.943500E+01	  0.083326660	3.907000E+01	  0.083326660	4.188900E+01
318	  0.083527058	-7.135000E+00	  0.083527058	7.920700E+01	  0.083527058	3.920500E+01	  0.083527058	4.199300E+01
319	  0.083727457	-7.136000E+00	  0.083727457	7.898800E+01	  0.083727457	3.933400E+01	  0.083727457	4.209300E+01
320	  0.083927862	-7.136000E+00	  0.083927862	7.876000E+01	  0.083927862	3.946500E+01	  0.083927862	4.220300E+01
321	  0.084128261	-7.141000E+00	  0.084128261	7.856500E+01	  0.084128261	3.959400E+01	  0.084128261	4.227700E+01
322	  0.084328659	-7.139000E+00	  0.084328659	7.835900E+01	  0.084328659	3.971000E+01	  0.084328659	4.238100E+01
323	  0.084529065	-7.140000E+00	  0.084529065	7.816000E+01	  0.084529065	3.983100E+01	  0.084529065	4.247100E+01
324	  0.084729463	-7.140000E+00	  0.084729463	7.793000E+01	  0.084729463	3.996700E+01	  0.084729463	4.257900E+01
325	  0.084929861	-7.142000E+00	  0.084929861	7.769700E+01	  0.084929861	4.011300E+01	  0.084929861	4.268100E+01
326	  0.085130267	-7.151000E+00	  0.085130267	7.746600E+01	  0.085130267	4.027600E+01	  0.085130267	4.275900E+01
327	  0.085330658	-7.160000E+00	  0.085330658	7.723300E+01	  0.085330658	4.044500E+01	  0.085330658	4.283300E+01
328	  0.085531056	-7.159000E+00	  0.085531056	7.695800E+01	  0.085531056	4.060900E+01	  0.085531056	4.296600E+01
329	  0.085731462	-7.171000E+00	  0.085731462	7.670500E+01	  0.085731462	4.080300E+01	  0.085731462	4.303400E+01
330	  0.085931860	-7.167000E+00	  0.085931860	7.641800E+01	  0.085931860	4.096700E+01	  0.085931860	4.318400E+01
331	  0.086132258	-7.172000E+00	  0.086132258	7.611700E+01	  0.086132258	4.116900E+01	  0.086132258	4.330500E+01
332	  0.086332664	-7.174000E+00	  0.086332664	7.579900E+01	  0.086332664	4.137300E+01	  0.086332664	4.344700E+01
333	  0.086533062	-7.166000E+00	  0.086533062	7.554500E+01	  0.086533062	4.151000E+01	  0.086533062	4.359700E+01
334	  0.086733460	-7.154000E+00	  0.086733460	7.523300E+01	  0.086733460	4.167000E+01	  0.086733460	4.379300E+01
335	  0.086933866	-7.152000E+00	  0.086933866	7.497900E+01	  0.086933866	4.182500E+01	  0.086933866	4.392300E+01
336	  0.087134264	-7.144000E+00	  0.087134264	7.473700E+01	  0.087134264	4.195800E+01	  0.087134264	4.406800E+01
337	  0.087334670	-7.139000E+00	  0.087334670	7.447700E+01	  0.087334670	4.211000E+01	  0.087334670	4.421200E+01
338	  0.087535068	-7.127000E+00	  0.087535068	7.423800E+01	  0.087535068	4.222900E+01	  0.087535068	4.437400E+01
339	  0.087735467	-7.123000E+00	  0.087735467	7.402700E+01	  0.087735467	4.235500E+01	  0.087735467	4.449100E+01
340	  0.087935872	-7.117000E+00	  0.087935872	7.383100E+01	  0.087935872	4.246400E+01	  0.087935872	4.461200E+01
341	  0.088136271	-7.115000E+00	  0.088136271	7.362000E+01	  0.088136271	4.259900E+01	  0.088136271	4.471600E+01
342	  0.088336669	-7.103000E+00	  0.088336669	7.341400E+01	  0.088336669	4.269800E+01	  0.088336669	4.486800E+01
343	  0.088537075	-7.101000E+00	  0.088537075	7.319900E+01	  0.088537075	4.283700E+01	  0.088537075	4.497600E+01
344	  0.088737473	-7.099000E+00	  0.088737473	7.301000E+01	  0.088737473	4.295800E+01	  0.088737473	4.507400E+01
345	  0.088937871	-7.098000E+00	  0.088937871	7.280400E+01	  0.088937871	4.309500E+01	  0.088937871	4.517400E+01
346	  0.089138277	-7.095000E+00	  0.089138277	7.264200E+01	  0.089138277	4.319500E+01	  0.089138277	4.526600E+01
347	  0.089338675	-7.098000E+00	  0.089338675	7.245800E+01	  0.089338675	4.332900E+01	  0.089338675	4.533900E+01
348	  0.089539073	-7.087000E+00	  0.089539073	7.227800E+01	  0.089539073	4.342200E+01	  0.089539073	4.547000E+01
349	  0.089739479	-7.097000E+00	  0.089739479	7.213700E+01	  0.089739479	4.354800E+01	  0.089739479	4.549400E+01
350	  0.089939877	-7.100000E+00	  0.089939877	7.194900E+01	  0.089939877	4.368900E+01	  0.089939877	4.556400E+01
351	  0.090140276	-7.104000E+00	  0.090140276	7.176200E+01	  0.090140276	4.383200E+01	  0.090140276	4.563300E+01
352	  0.090340681	-7.111000E+00	  0.090340681	7.157900E+01	  0.090340681	4.398100E+01	  0.090340681	4.568600E+01
353	  0.090541080	-7.126000E+00	  0.090541080	7.138600E+01	  0.090541080	4.416000E+01	  0.090541080	4.570900E+01
354	  0.090741485	-7.129000E+00	  0.090741485	7.116700E+01	  0.090741485	4.432700E+01	  0.090741485	4.579100E+01
355	  0.090941884	-7.138000E+00	  0.090941884	7.089700E+01	  0.090941884	4.454600E+01	  0.090941884	4.587400E+01
356	  0.091142282	-7.152000E+00	  0.091142282	7.067100E+01	  0.091142282	4.474800E+01	  0.091142282	4.591400E+01
357	  0.091342688	-7.161000E+00	  0.091342688	7.035600E+01	  0.091342688	4.500400E+01	  0.091342688	4.601000E+01
358	  0.091543086	-7.172000E+00	  0.091543086	7.006400E+01	  0.091543086	4.524600E+01	  0.091543086	4.609200E+01
359	  0.091743484	-7.172000E+00	  0.091743484	6.972800E+01	  0.091743484	4.549100E+01	  0.091743484	4.624400E+01
360	  0.091943890	-7.171000E+00	  0.091943890	6.942700E+01	  0.091943890	4.571000E+01	  0.091943890	4.638200E+01
361	  0.092144288	-7.164000E+00	  0.092144288	6.912800E+01	  0.092144288	4.591300E+01	  0.092144288	4.654800E+01
362	  0.092344686	-7.162000E+00	  0.092344686	6.879500E+01	  0.092344686	4.615700E+01	  0.092344686	4.670700E+01
363	  0.092545092	-7.155000E+00	  0.092545092	6.849500E+01	  0.092545092	4.636200E+01	  0.092545092	4.687800E+01
364	  0.092745490	-7.149000E+00	  0.092745490	6.819900E+01	  0.092745490	4.657000E+01	  0.092745490	4.703800E+01
365	  0.092945889	-7.140000E+00	  0.092945889	6.792200E+01	  0.092945889	4.675600E+01	  0.092945889	4.720700E+01
366	  0.093146294	-7.133000E+00	  0.093146294	6.767000E+01	  0.093146294	4.693100E+01	  0.093146294	4.735400E+01
367	  0.093346693	-7.116000E+00	  0.093346693	6.739500E+01	  0.093346693	4.709400E+01	  0.093346693	4.756500E+01
368	  0.093547091	-7.113000E+00	  0.093547091	6.714900E+01	  0.093547091	4.728200E+01	  0.093547091	4.768500E+01
369	  0.093747497	-7.106000E+00	  0.093747497	6.691400E+01	  0.093747497	4.744600E+01	  0.093747497	4.782800E+01
370	  0.093947895	-7.087000E+00	  0.093947895	6.669000E+01	  0.093947895	4.756600E+01	  0.093947895	4.802900E+01
371	  0.094148301	-7.086000E+00	  0.094148301	6.646600E+01	  0.094148301	4.774400E+01	  0.094148301	4.813100E+01
372	  0.094348699	-7.068000E+00	  0.094348699	6.629000E+01	  0.094348699	4.783300E+01	  0.094348699	4.830200E+01
373	  0.094549097	-7.063000E+00	  0.094549097	6.610800E+01	  0.094549097	4.796400E+01	  0.094549097	4.841500E+01
374	  0.094749503	-7.049000E+00	  0.094749503	6.591400E+01	  0.094749503	4.808000E+01	  0.094749503	4.857600E+01
375	  0.094949901	-7.046000E+00	  0.094949901	6.577200E+01	  0.094949901	4.818900E+01	  0.094949901	4.865200E+01
376	  0.095150299	-7.042000E+00	  0.095150299	6.562700E+01	  0.095150299	4.829700E+01	  0.095150299	4.873700E+01
377	  0.095350705	-7.036000E+00	  0.095350705	6.548600E+01	  0.095350705	4.839500E+01	  0.095350705	4.883200E+01
378	  0.095551103	-7.041000E+00	  0.095551103	6.534700E+01	  0.095551103	4.852300E+01	  0.095551103	4.887000E+01
379	  0.095751502	-7.039000E+00	  0.095751502	6.520900E+01	  0.095751502	4.863400E+01	  0.095751502	4.893800E+01
380	  0.095951907	-7.045000E+00	  0.095951907	6.506400E+01	  0.095951907	4.877100E+01	  0.095951907	4.897100E+01
381	  0.096152306	-7.057000E+00	  0.096152306	6.491700E+01	  0.096152306	4.892800E+01	  0.096152306	4.897100E+01
382	  0.096352704	-7.068000E+00	  0.096352704	6.468300E+01	  0.096352704	4.915600E+01	  0.096352704	4.901300E+01
383	  0.096553110	-7.079000E+00	  0.096553110	6.450800E+01	  0.096553110	4.933600E+01	  0.096553110	4.902400E+01
384	  0.096753508	-7.090000E+00	  0.096753508	6.428900E+01	  0.096753508	4.955100E+01	  0.096753508	4.905700E+01
385	  0.096953906	-7.097000E+00	  0.096953906	6.406800E+01	  0.096953906	4.975900E+01	  0.096953906	4.911400E+01
386	  0.097154312	-7.105000E+00	  0.097154312	6.379900E+01	  0.097154312	5.001100E+01	  0.097154312	4.918300E+01
387	  0.097354710	-7.114000E+00	  0.097354710	6.353500E+01	  0.097354710	5.026200E+01	  0.097354710	4.924400E+01
388	  0.097555116	-7.117000E+00	  0.097555116	6.326400E+01	  0.097555116	5.050600E+01	  0.097555116	4.933900E+01
389	  0.097755514	-7.123000E+00	  0.097755514	6.296300E+01	  0.097755514	5.078800E+01	  0.097755514	4.942600E+01
390	  0.097955912	-7.125000E+00	  0.097955912	6.266300E+01	  0.097955912	5.105600E+01	  0.097955912	4.953800E+01
391	  0.098156318	-7.127000E+00	  0.098156318	6.236000E+01	  0.098156318	5.133000E+01	  0.098156318	4.965000E+01
392	  0.098356716	-7.125000E+00	  0.098356716	6.207000E+01	  0.098356716	5.158200E+01	  0.098356716	4.978300E+01
393	  0.098557115	-7.122000E+00	  0.098557115	6.177100E+01	  0.098557115	5.184600E+01	  0.098557115	4.991600E+01
394	  0.098757520	-7.120000E+00	  0.098757520	6.149200E+01	  0.098757520	5.209200E+01	  0.098757520	5.004300E+01
395	  0.098957919	-7.116000E+00	  0.098957919	6.119300E+01	  0.098957919	5.235400E+01	  0.098957919	5.018800E+01
396	  0.099158317	-7.109000E+00	  0.099158317	6.093800E+01	  0.099158317	5.257200E+01	  0.099158317	5.032800E+01
397	  0.099358723	-7.103000E+00	  0.099358723	6.062000E+01	  0.099358723	5.285000E+01	  0.099358723	5.049200E+01
398	  0.099559121	-7.090000E+00	  0.099559121	6.037000E+01	  0.099559121	5.304900E+01	  0.099559121	5.067300E+01
399	  0.099759519	-7.080000E+00	  0.099759519	6.012400E+01	  0.099759519	5.325500E+01	  0.099759519	5.083100E+01
400	  0.099959925	-7.065000E+00	  0.099959925	5.993700E+01	  0.099959925	5.339500E+01	  0.099959925	5.099600E+01
401	  0.100160323	-7.065000E+00	  0.100160323	5.974400E+01	  0.100160323	5.357900E+01	  0.100160323	5.107100E+01
402	  0.100360721	-7.051000E+00	  0.100360721	5.956000E+01	  0.100360721	5.371900E+01	  0.100360721	5.123100E+01
403	  0.100561127	-7.043000E+00	  0.100561127	5.936000E+01	  0.100561127	5.389200E+01	  0.100561127	5.136000E+01
404	  0.100761525	-7.029000E+00	  0.100761525	5.916500E+01	  0.100761525	5.404300E+01	  0.100761525	5.153000E+01
405	  0.100961931	-7.033000E+00	  0.100961931	5.905700E+01	  0.100961931	5.416000E+01	  0.100961931	5.154100E+01
406	  0.101162329	-7.026000E+00	  0.101162329	5.886900E+01	  0.101162329	5.432600E+01	  0.101162329	5.165900E+01
407	  0.101362728	-7.026000E+00	  0.101362728	5.879000E+01	  0.101362728	5.440100E+01	  0.101362728	5.169300E+01
408	  0.101563133	-7.023000E+00	  0.101563133	5.861100E+01	  0.101563133	5.457200E+01	  0.101563133	5.177900E+01
409	  0.101763532	-7.034000E+00	  0.101763532	5.841300E+01	  0.101763532	5.479400E+01	  0.101763532	5.178500E+01
410	  0.101963930	-7.036000E+00	  0.101963930	5.822800E+01	  0.101963930	5.498200E+01	  0.101963930	5.184400E+01
411	  0.102164336	-7.045000E+00	  0.102164336	5.808700E+01	  0.102164336	5.514600E+01	  0.102164336	5.183500E+01
412	  0.102364734	-7.052000E+00	  0.102364734	5.789700E+01	  0.102364734	5.535400E+01	  0.102364734	5.185700E+01
413	  0.102565132	-7.068000E+00	  0.102565132	5.769700E+01	  0.102565132	5.559200E+01	  0.102565132	5.183000E+01
414	  0.102765530	-7.056000E+00	  0.102765530	5.745000E+01	  0.102765530	5.581200E+01	  0.102765530	5.200100E+01
415	  0.102965929	-7.079000E+00	  0.102965929	5.718700E+01	  0.102965929	5.613500E+01	  0.102965929	5.194100E+01
416	  0.103166327	-7.078000E+00	  0.103166327	5.695700E+01	  0.103166327	5.636800E+01	  0.103166327	5.202700E+01
417	  0.103366733	-7.082000E+00	  0.103366733	5.667100E+01	  0.103366733	5.666900E+01	  0.103366733	5.210400E+01
418	  0.103567131	-7.083000E+00	  0.103567131	5.641200E+01	  0.103567131	5.694000E+01	  0.103567131	5.218600E+01
419	  0.103767529	-7.101000E+00	  0.103767529	5.615700E+01	  0.103767529	5.724500E+01	  0.103767529	5.215100E+01
420	  0.103967935	-7.101000E+00	  0.103967935	5.583900E+01	  0.103967935	5.757800E+01	  0.103967935	5.225700E+01
421	  0.104168333	-7.111000E+00	  0.104168333	5.556200E+01	  0.104168333	5.789200E+01	  0.104168333	5.228100E+01
422	  0.104368731	-7.107000E+00	  0.104368731	5.527000E+01	  0.104368731	5.819200E+01	  0.104368731	5.240200E+01
423	  0.104569137	-7.098000E+00	  0.104569137	5.492700E+01	  0.104569137	5.854300E+01	  0.104569137	5.257100E+01
424	  0.104769535	-7.102000E+00	  0.104769535	5.466900E+01	  0.104769535	5.882800E+01	  0.104769535	5.262600E+01
425	  0.104969934	-7.092000E+00	  0.104969934	5.438400E+01	  0.104969934	5.911700E+01	  0.104969934	5.278600E+01
426	  0.105170339	-7.088000E+00	  0.105170339	5.410100E+01	  0.105170339	5.941800E+01	  0.105170339	5.290500E+01
427	  0.105370738	-7.067000E+00	  0.105370738	5.381600E+01	  0.105370738	5.969000E+01	  0.105370738	5.314300E+01
428	  0.105571143	-7.072000E+00	  0.105571143	5.355700E+01	  0.105571143	5.998800E+01	  0.105571143	5.318600E+01
429	  0.105771542	-7.063000E+00	  0.105771542	5.332300E+01	  0.105771542	6.023100E+01	  0.105771542	5.332300E+01
430	  0.105971940	-7.048000E+00	  0.105971940	5.308300E+01	  0.105971940	6.047100E+01	  0.105971940	5.350700E+01
431	  0.106172346	-7.049000E+00	  0.106172346	5.289400E+01	  0.106172346	6.068500E+01	  0.106172346	5.356000E+01
432	  0.106372744	-7.034000E+00	  0.106372744	5.277800E+01	  0.106372744	6.079000E+01	  0.106372744	5.370200E+01
433	  0.106573142	-7.039000E+00	  0.106573142	5.254500E+01	  0.106573142	6.106600E+01	  0.106573142	5.373200E+01
434	  0.106773548	-7.026000E+00	  0.106773548	5.236000E+01	  0.106773548	6.125200E+01	  0.106773548	5.388800E+01
435	  0.106973946	-7.027000E+00	  0.106973946	5.219000E+01	  0.106973946	6.145000E+01	  0.106973946	5.393100E+01
436	  0.107174344	-7.031000E+00	  0.107174344	5.202000E+01	  0.107174344	6.165500E+01	  0.107174344	5.394300E+01
437	  0.107374750	-7.021000E+00	  0.107374750	5.187400E+01	  0.107374750	6.180600E+01	  0.107374750	5.406400E+01
438	  0.107575148	-7.019000E+00	  0.107575148	5.175200E+01	  0.107575148	6.194700E+01	  0.107575148	5.410800E+01
439	  0.107775547	-7.028000E+00	  0.107775547	5.154400E+01	  0.107775547	6.220600E+01	  0.107775547	5.410000E+01
440	  0.107975952	-7.024000E+00	  0.107975952	5.140500E+01	  0.107975952	6.236300E+01	  0.107975952	5.416700E+01
441	  0.108176351	-7.028000E+00	  0.108176351	5.117700E+01	  0.108176351	6.263900E+01	  0.108176351	5.419800E+01
442	  0.108376749	-7.041000E+00	  0.108376749	5.096200E+01	  0.108376749	6.291700E+01	  0.108376749	5.415100E+01
443	  0.108577155	-7.042000E+00	  0.108577155	5.075000E+01	  0.108577155	6.317100E+01	  0.108577155	5.420000E+01
444	  0.108777553	-7.044000E+00	  0.108777553	5.052100E+01	  0.108777553	6.344900E+01	  0.108777553	5.423800E+01
445	  0.108977959	-7.043000E+00	  0.108977959	5.031700E+01	  0.108977959	6.369300E+01	  0.108977959	5.429700E+01
446	  0.109178357	-7.056000E+00	  0.109178357	5.011000E+01	  0.109178357	6.396300E+01	  0.109178357	5.424700E+01
447	  0.109378755	-7.060000E+00	  0.109378755	4.981700E+01	  0.109378755	6.432500E+01	  0.109378755	5.428000E+01
448	  0.109579161	-7.068000E+00	  0.109579161	4.953900E+01	  0.109579161	6.467600E+01	  0.109579161	5.428000E+01
449	  0.109779559	-7.068000E+00	  0.109779559	4.926300E+01	  0.109779559	6.501700E+01	  0.109779559	5.433600E+01
450	  0.109979957	-7.076000E+00	  0.109979957	4.900000E+01	  0.109979957	6.535400E+01	  0.109979957	5.432400E+01
451	  0.110180363	-7.073000E+00	  0.110180363	4.869100E+01	  0.110180363	6.573400E+01	  0.110180363	5.441200E+01
452	  0.110380761	-7.076000E+00	  0.110380761	4.841800E+01	  0.110380761	6.607800E+01	  0.110380761	5.444700E+01
453	  0.110581160	-7.075000E+00	  0.110581160	4.808200E+01	  0.110581160	6.650100E+01	  0.110581160	5.451700E+01
454	  0.110781565	-7.070000E+00	  0.110781565	4.783600E+01	  0.110781565	6.680700E+01	  0.110781565	5.460400E+01
455	  0.110981964	-7.063000E+00	  0.110981964	4.754000E+01	  0.110981964	6.717800E+01	  0.110981964	5.471200E+01
456	  0.111182362	-7.064000E+00	  0.111182362	4.726400E+01	  0.111182362	6.753400E+01	  0.111182362	5.474500E+01
457	  0.111382768	-7.062000E+00	  0.111382768	4.706200E+01	  0.111382768	6.779300E+01	  0.111382768	5.480100E+01
458	  0.111583166	-7.061000E+00	  0.111583166	4.681100E+01	  0.111583166	6.811800E+01	  0.111583166	5.485000E+01
459	  0.111783572	-7.053000E+00	  0.111783572	4.655300E+01	  0.111783572	6.844800E+01	  0.111783572	5.495300E+01
460	  0.111983970	-7.051000E+00	  0.111983970	4.629200E+01	  0.111983970	6.879000E+01	  0.111983970	5.500400E+01
461	  0.112184368	-7.047000E+00	  0.112184368	4.608600E+01	  0.112184368	6.905900E+01	  0.112184368	5.507000E+01
462	  0.112384774	-7.046000E+00	  0.112384774	4.589600E+01	  0.112384774	6.931200E+01	  0.112384774	5.510100E+01
463	  0.112585172	-7.031000E+00	  0.112585172	4.567800E+01	  0.112585172	6.959000E+01	  0.112585172	5.526400E+01
464	  0.112785570	-7.033000E+00	  0.112785570	4.553500E+01	  0.112785570	6.978500E+01	  0.112785570	5.526500E+01
465	  0.112985976	-7.031000E+00	  0.112985976	4.530500E+01	  0.112985976	7.009300E+01	  0.112985976	5.530500E+01
466	  0.113186374	-7.030000E+00	  0.113186374	4.507000E+01	  0.113186374	7.041200E+01	  0.113186374	5.533900E+01
467	  0.113386773	-7.026000E+00	  0.113386773	4.488100E+01	  0.113386773	7.066600E+01	  0.113386773	5.540200E+01
468	  0.113587178	-7.028000E+00	  0.113587178	4.463100E+01	  0.113587178	7.101000E+01	  0.113587178	5.540100E+01
469	  0.113787577	-7.025000E+00	  0.113787577	4.445400E+01	  0.113787577	7.125300E+01	  0.113787577	5.544900E+01
470	  0.113987975	-7.031000E+00	  0.113987975	4.423900E+01	  0.113987975	7.155200E+01	  0.113987975	5.541300E+01
471	  0.114188381	-7.026000E+00	  0.114188381	4.404200E+01	  0.114188381	7.182300E+01	  0.114188381	5.547200E+01
472	  0.114388779	-7.022000E+00	  0.114388779	4.380400E+01	  0.114388779	7.215300E+01	  0.114388779	5.552300E+01
473	  0.114589177	-7.026000E+00	  0.114589177	4.355100E+01	  0.114589177	7.250900E+01	  0.114589177	5.550700E+01
474	  0.114789583	-7.031000E+00	  0.114789583	4.331300E+01	  0.114789583	7.284700E+01	  0.114789583	5.547200E+01
475	  0.114989981	-7.023000E+00	  0.114989981	4.308400E+01	  0.114989981	7.316800E+01	  0.114989981	5.555300E+01
476	  0.115190387	-7.023000E+00	  0.115190387	4.285200E+01	  0.115190387	7.349800E+01	  0.115190387	5.556300E+01
477	  0.115390785	-7.022000E+00	  0.115390785	4.262000E+01	  0.115390785	7.382900E+01	  0.115390785	5.558100E+01
478	  0.115591183	-7.019000E+00	  0.115591183	4.238000E+01	  0.115591183	7.417400E+01	  0.115591183	5.561200E+01
479	  0.115791589	-7.018000E+00	  0.115791589	4.214600E+01	  0.115791589	7.451100E+01	  0.115791589	5.562700E+01
480	  0.115991987	-7.010000E+00	  0.115991987	4.187500E+01	  0.115991987	7.490400E+01	  0.115991987	5.570200E+01
481	  0.116192386	-7.013000E+00	  0.116192386	4.166600E+01	  0.116192386	7.520800E+01	  0.116192386	5.566900E+01
482	  0.116392791	-7.011000E+00	  0.116392791	4.142200E+01	  0.116392791	7.556600E+01	  0.116392791	5.569000E+01
483	  0.116593190	-7.004000E+00	  0.116593190	4.123000E+01	  0.116593190	7.585100E+01	  0.116593190	5.575200E+01
484	  0.116793588	-7.005000E+00	  0.116793588	4.101000E+01	  0.116793588	7.617500E+01	  0.116793588	5.573600E+01
485	  0.116993994	-7.001000E+00	  0.116993994	4.081500E+01	  0.116993994	7.646600E+01	  0.116993994	5.576500E+01
486	  0.117194392	-7.001000E+00	  0.117194392	4.061400E+01	  0.117194392	7.676700E+01	  0.117194392	5.575300E+01
487	  0.117394790	-7.000000E+00	  0.117394790	4.034300E+01	  0.117394790	7.717200E+01	  0.117394790	5.575400E+01
488	  0.117595196	-6.998000E+00	  0.117595196	4.019100E+01	  0.117595196	7.740200E+01	  0.117595196	5.576500E+01
489	  0.117795594	-6.992000E+00	  0.117795594	4.003500E+01	  0.117795594	7.764100E+01	  0.117795594	5.581200E+01
490	  0.117995992	-6.997000E+00	  0.117995992	3.981700E+01	  0.117995992	7.796700E+01	  0.117995992	5.574100E+01
491	  0.118196398	-6.995000E+00	  0.118196398	3.959400E+01	  0.118196398	7.830800E+01	  0.118196398	5.574500E+01
492	  0.118396796	-7.002000E+00	  0.118396796	3.939500E+01	  0.118396796	7.860700E+01	  0.118396796	5.565600E+01
493	  0.118597202	-7.008000E+00	  0.118597202	3.918600E+01	  0.118597202	7.892300E+01	  0.118597202	5.557400E+01
494	  0.118797600	-7.011000E+00	  0.118797600	3.901300E+01	  0.118797600	7.918600E+01	  0.118797600	5.552500E+01
495	  0.118997999	-7.015000E+00	  0.118997999	3.875800E+01	  0.118997999	7.957400E+01	  0.118997999	5.544700E+01
496	  0.119198404	-7.018000E+00	  0.119198404	3.850900E+01	  0.119198404	7.995600E+01	  0.119198404	5.538300E+01
497	  0.119398803	-7.023000E+00	  0.119398803	3.823600E+01	  0.119398803	8.037300E+01	  0.119398803	5.529500E+01
498	  0.119599201	-7.030000E+00	  0.119599201	3.800300E+01	  0.119599201	8.072800E+01	  0.119599201	5.518100E+01
499	  0.119799607	-7.034000E+00	  0.119799607	3.775600E+01	  0.119799607	8.110800E+01	  0.119799607	5.509300E+01
500	  0.120000005	-7.037000E+00	  0.120000005	3.747700E+01	  0.120000005	8.153900E+01	  0.120000005	5.500900E+01
