! Anritsu VNA Master:             	Model: MS2036C/10/77
! SN:             	1601066
! /card0/usr/18may27.balun/5a.r50.2.txt
! Existing Calibration Information:
! TYPE:             	Current Settings	Active Cal Settings
! TIME:             	05/27/2018 05:21:24 PM	05/27/2018 05:09:13 PM
! INTERNAL TEMP:    	53.3 C	53.3 C
! # POINTS:         	500	500
! START FREQ:       	20.000 MHz	20.000 MHz
! STOP FREQ:        	120.000 MHz	120.000 MHz
! SOURCE POWER:     	High	High
! IFBW:             	50 Hz	50 Hz
! AVG FACTOR:       	  1 	  1 
! REF PLANE 1:      	0 mm	0 mm
! REF PLANE 2:      	0 mm	0 mm
! CAL TYPE:         	Full S11	Full S11
! CAL METHOD:       	SOLT	SOLT
! CAL LINE TYPE:    	Coax	Coax
! DUT PORT 1:       	K-Conn(M)	K-Conn(M)
! DUT PORT 2:       	K-Conn(M)	K-Conn(M)
! CAL STATUS:       	OK: Accuracy High	--
! PROP-V:       	0.700
! CABLE LOSS:       	0.000 dB/m
! REF IMPEDANCE:       	50.0
! Trace Specific Parameters:	TR1	TR2	TR3	TR4
! TRACE.#.Y (GRAPH TYPE)	LOG MAG	PHASE	REAL IMPEDANCE	IMAGINARY IMPEDANCE
! TRACE.#.X 	FREQ.GHZ	FREQ.GHZ	FREQ.GHZ	FREQ.GHZ
! S-PARAMETER	S11	S11	S11	S11
! SMOOTH/APERTURE %	0	0	0	0
! WINDOW	NSL	NSL	NSL	NSL
! GATING	OFF	OFF	OFF	OFF
! FGTD	OFF	OFF	OFF	OFF
Marker Information per Trace:	TR1	TR2	TR3	TR4
!MK1	--	--	--	"MK1 TR4:  70.100 200 MHz,Z:(52.411 ohm, 1.207 ohm)"
!MK2	--	--	--	--
!MK3	--	--	--	--
!MK4	--	--	--	--
!MK5	--	--	--	--
!MK6	--	--	--	--
!MK7	--	--	--	--
!MK8	--	--	--	--
PNT	TR1.FREQ.GHZ	TR1.LOG MAG.dB	TR2.FREQ.GHZ	TR2.PHASE.deg	TR3.FREQ.GHZ	TR3.REAL IMPEDANCE.ohm	TR4.FREQ.GHZ	TR4.IMAGINARY IMPEDANCE.ohm
1	  0.020000000	-3.916800E+01	  0.020000000	5.143100E+01	  0.020000000	5.068300E+01	  0.020000000	8.720000E-01
2	  0.020200402	-3.905200E+01	  0.020200402	5.089200E+01	  0.020200402	5.070000E+01	  0.020200402	8.770000E-01
3	  0.020400802	-3.908800E+01	  0.020400802	5.077100E+01	  0.020400802	5.069900E+01	  0.020400802	8.720000E-01
4	  0.020601204	-3.903000E+01	  0.020601204	5.105500E+01	  0.020601204	5.070000E+01	  0.020601204	8.810000E-01
5	  0.020801604	-3.903800E+01	  0.020801604	5.126800E+01	  0.020801604	5.069600E+01	  0.020801604	8.830000E-01
6	  0.021002004	-3.901700E+01	  0.021002004	5.115300E+01	  0.021002004	5.069900E+01	  0.021002004	8.840000E-01
7	  0.021202406	-3.889300E+01	  0.021202406	5.046900E+01	  0.021202406	5.072000E+01	  0.021202406	8.880000E-01
8	  0.021402806	-3.888700E+01	  0.021402806	5.008500E+01	  0.021402806	5.072600E+01	  0.021402806	8.840000E-01
9	  0.021603208	-3.873700E+01	  0.021603208	5.015900E+01	  0.021603208	5.073800E+01	  0.021603208	9.010000E-01
10	  0.021803608	-3.869100E+01	  0.021803608	5.012500E+01	  0.021803608	5.074200E+01	  0.021803608	9.050000E-01
11	  0.022004008	-3.863100E+01	  0.022004008	4.990900E+01	  0.022004008	5.075100E+01	  0.022004008	9.090000E-01
12	  0.022204408	-3.854400E+01	  0.022204408	4.936500E+01	  0.022204408	5.076700E+01	  0.022204408	9.110000E-01
13	  0.022404809	-3.841700E+01	  0.022404809	4.942100E+01	  0.022404809	5.077800E+01	  0.022404809	9.250000E-01
14	  0.022605211	-3.831200E+01	  0.022605211	4.837000E+01	  0.022605211	5.080400E+01	  0.022605211	9.220000E-01
15	  0.022805611	-3.822200E+01	  0.022805611	4.887100E+01	  0.022805611	5.080400E+01	  0.022805611	9.390000E-01
16	  0.023006011	-3.816700E+01	  0.023006011	4.846700E+01	  0.023006011	5.081600E+01	  0.023006011	9.390000E-01
17	  0.023206413	-3.802100E+01	  0.023206413	4.954000E+01	  0.023206413	5.081200E+01	  0.023206413	9.710000E-01
18	  0.023406813	-3.796900E+01	  0.023406813	4.923700E+01	  0.023406813	5.082200E+01	  0.023406813	9.720000E-01
19	  0.023607215	-3.793200E+01	  0.023607215	4.920300E+01	  0.023607215	5.082600E+01	  0.023607215	9.760000E-01
20	  0.023807615	-3.786300E+01	  0.023807615	4.981500E+01	  0.023807615	5.082200E+01	  0.023807615	9.930000E-01
21	  0.024008015	-3.776400E+01	  0.024008015	4.962600E+01	  0.024008015	5.083500E+01	  0.024008015	1.002000E+00
22	  0.024208417	-3.781100E+01	  0.024208417	5.006500E+01	  0.024208417	5.082200E+01	  0.024208417	1.002000E+00
23	  0.024408817	-3.776100E+01	  0.024408817	5.007400E+01	  0.024408817	5.082700E+01	  0.024408817	1.008000E+00
24	  0.024609219	-3.778000E+01	  0.024609219	5.027000E+01	  0.024609219	5.082100E+01	  0.024609219	1.009000E+00
25	  0.024809619	-3.779000E+01	  0.024809619	4.971600E+01	  0.024809619	5.083000E+01	  0.024809619	1.000000E+00
26	  0.025010020	-3.773800E+01	  0.025010020	5.005100E+01	  0.025010020	5.082900E+01	  0.025010020	1.011000E+00
27	  0.025210422	-3.768600E+01	  0.025210422	5.000200E+01	  0.025210422	5.083500E+01	  0.025210422	1.016000E+00
28	  0.025410822	-3.770900E+01	  0.025410822	5.018300E+01	  0.025410822	5.083000E+01	  0.025410822	1.016000E+00
29	  0.025611224	-3.772500E+01	  0.025611224	4.977700E+01	  0.025611224	5.083600E+01	  0.025611224	1.008000E+00
30	  0.025811624	-3.763200E+01	  0.025811624	4.956000E+01	  0.025811624	5.084800E+01	  0.025811624	1.016000E+00
31	  0.026012026	-3.776900E+01	  0.026012026	4.945000E+01	  0.026012026	5.083700E+01	  0.026012026	9.980000E-01
32	  0.026212426	-3.767400E+01	  0.026212426	4.920600E+01	  0.026212426	5.085100E+01	  0.026212426	1.006000E+00
33	  0.026412826	-3.765700E+01	  0.026412826	4.834000E+01	  0.026412826	5.086800E+01	  0.026412826	9.950000E-01
34	  0.026613226	-3.759600E+01	  0.026613226	4.759200E+01	  0.026613226	5.088700E+01	  0.026613226	9.910000E-01
35	  0.026813626	-3.760700E+01	  0.026813626	4.724500E+01	  0.026813626	5.089200E+01	  0.026813626	9.840000E-01
36	  0.027014028	-3.747800E+01	  0.027014028	4.697500E+01	  0.027014028	5.091000E+01	  0.027014028	9.950000E-01
37	  0.027214428	-3.748000E+01	  0.027214428	4.661900E+01	  0.027214428	5.091600E+01	  0.027214428	9.890000E-01
38	  0.027414829	-3.736800E+01	  0.027414829	4.615200E+01	  0.027414829	5.093600E+01	  0.027414829	9.940000E-01
39	  0.027615231	-3.735300E+01	  0.027615231	4.543000E+01	  0.027615231	5.095100E+01	  0.027615231	9.840000E-01
40	  0.027815631	-3.717400E+01	  0.027815631	4.541800E+01	  0.027815631	5.097100E+01	  0.027815631	1.005000E+00
41	  0.028016033	-3.701500E+01	  0.028016033	4.484100E+01	  0.028016033	5.099900E+01	  0.028016033	1.014000E+00
42	  0.028216433	-3.694700E+01	  0.028216433	4.551100E+01	  0.028216433	5.099500E+01	  0.028216433	1.034000E+00
43	  0.028416833	-3.684400E+01	  0.028416833	4.555600E+01	  0.028416833	5.100600E+01	  0.028416833	1.047000E+00
44	  0.028617235	-3.669300E+01	  0.028617235	4.511900E+01	  0.028617235	5.103200E+01	  0.028617235	1.058000E+00
45	  0.028817635	-3.662100E+01	  0.028817635	4.546900E+01	  0.028817635	5.103400E+01	  0.028817635	1.073000E+00
46	  0.029018037	-3.651800E+01	  0.029018037	4.551900E+01	  0.029018037	5.104500E+01	  0.029018037	1.087000E+00
47	  0.029218437	-3.637100E+01	  0.029218437	4.584800E+01	  0.029218437	5.105600E+01	  0.029218437	1.112000E+00
48	  0.029418837	-3.641200E+01	  0.029418837	4.645000E+01	  0.029418837	5.103900E+01	  0.029418837	1.118000E+00
49	  0.029619239	-3.633500E+01	  0.029619239	4.690800E+01	  0.029619239	5.103900E+01	  0.029619239	1.136000E+00
50	  0.029819639	-3.630400E+01	  0.029819639	4.735900E+01	  0.029819639	5.103400E+01	  0.029819639	1.149000E+00
51	  0.030020041	-3.627700E+01	  0.030020041	4.762200E+01	  0.030020041	5.103200E+01	  0.030020041	1.157000E+00
52	  0.030220442	-3.632000E+01	  0.030220442	4.781000E+01	  0.030220442	5.102300E+01	  0.030220442	1.155000E+00
53	  0.030420844	-3.632400E+01	  0.030420844	4.817600E+01	  0.030420844	5.101500E+01	  0.030420844	1.161000E+00
54	  0.030621244	-3.632900E+01	  0.030621244	4.800100E+01	  0.030621244	5.101800E+01	  0.030621244	1.157000E+00
55	  0.030821644	-3.633100E+01	  0.030821644	4.807100E+01	  0.030821644	5.101600E+01	  0.030821644	1.158000E+00
56	  0.031022044	-3.637500E+01	  0.031022044	4.781900E+01	  0.031022044	5.101600E+01	  0.031022044	1.147000E+00
57	  0.031222444	-3.637500E+01	  0.031222444	4.868700E+01	  0.031222444	5.099800E+01	  0.031222444	1.163000E+00
58	  0.031422846	-3.642100E+01	  0.031422846	4.813400E+01	  0.031422846	5.100400E+01	  0.031422846	1.147000E+00
59	  0.031623244	-3.645900E+01	  0.031623244	4.739000E+01	  0.031623244	5.101500E+01	  0.031623244	1.129000E+00
60	  0.031823646	-3.649500E+01	  0.031823646	4.717400E+01	  0.031823646	5.101500E+01	  0.031823646	1.120000E+00
61	  0.032024048	-3.640200E+01	  0.032024048	4.674500E+01	  0.032024048	5.103500E+01	  0.032024048	1.125000E+00
62	  0.032224450	-3.642000E+01	  0.032224450	4.602300E+01	  0.032224450	5.104700E+01	  0.032224450	1.109000E+00
63	  0.032424849	-3.643400E+01	  0.032424849	4.568200E+01	  0.032424849	5.105200E+01	  0.032424849	1.101000E+00
64	  0.032625251	-3.635900E+01	  0.032625251	4.480800E+01	  0.032625251	5.107800E+01	  0.032625251	1.095000E+00
65	  0.032825653	-3.629500E+01	  0.032825653	4.428200E+01	  0.032825653	5.109600E+01	  0.032825653	1.093000E+00
66	  0.033026051	-3.626700E+01	  0.033026051	4.379000E+01	  0.033026051	5.111000E+01	  0.033026051	1.087000E+00
67	  0.033226453	-3.606200E+01	  0.033226453	4.280200E+01	  0.033226453	5.115600E+01	  0.033226453	1.094000E+00
68	  0.033426855	-3.603000E+01	  0.033426855	4.222800E+01	  0.033426855	5.117100E+01	  0.033426855	1.086000E+00
69	  0.033627257	-3.588500E+01	  0.033627257	4.244700E+01	  0.033627257	5.118700E+01	  0.033627257	1.109000E+00
70	  0.033827655	-3.577100E+01	  0.033827655	4.197700E+01	  0.033827655	5.121200E+01	  0.033827655	1.114000E+00
71	  0.034028057	-3.568500E+01	  0.034028057	4.255600E+01	  0.034028057	5.121200E+01	  0.034028057	1.138000E+00
72	  0.034228459	-3.561000E+01	  0.034228459	4.237000E+01	  0.034228459	5.122600E+01	  0.034228459	1.144000E+00
73	  0.034428857	-3.551500E+01	  0.034428857	4.237400E+01	  0.034428857	5.124000E+01	  0.034428857	1.157000E+00
74	  0.034629259	-3.540000E+01	  0.034629259	4.222800E+01	  0.034629259	5.125900E+01	  0.034629259	1.170000E+00
75	  0.034829661	-3.533000E+01	  0.034829661	4.271600E+01	  0.034829661	5.125900E+01	  0.034829661	1.190000E+00
76	  0.035030060	-3.526300E+01	  0.035030060	4.320500E+01	  0.035030060	5.125800E+01	  0.035030060	1.211000E+00
77	  0.035230462	-3.517300E+01	  0.035230462	4.331000E+01	  0.035230462	5.126900E+01	  0.035230462	1.226000E+00
78	  0.035430863	-3.515800E+01	  0.035430863	4.441000E+01	  0.035430863	5.124700E+01	  0.035430863	1.252000E+00
79	  0.035631265	-3.513800E+01	  0.035631265	4.508900E+01	  0.035631265	5.123500E+01	  0.035631265	1.270000E+00
80	  0.035831664	-3.511500E+01	  0.035831664	4.489400E+01	  0.035831664	5.124200E+01	  0.035831664	1.269000E+00
81	  0.036032066	-3.516700E+01	  0.036032066	4.505100E+01	  0.036032066	5.123100E+01	  0.036032066	1.265000E+00
82	  0.036232468	-3.523600E+01	  0.036232468	4.560300E+01	  0.036232468	5.120900E+01	  0.036232468	1.266000E+00
83	  0.036432866	-3.525800E+01	  0.036432866	4.530900E+01	  0.036432866	5.121300E+01	  0.036432866	1.257000E+00
84	  0.036633268	-3.524000E+01	  0.036633268	4.583300E+01	  0.036633268	5.120300E+01	  0.036633268	1.271000E+00
85	  0.036833670	-3.532200E+01	  0.036833670	4.592500E+01	  0.036833670	5.119000E+01	  0.036833670	1.260000E+00
86	  0.037034072	-3.540800E+01	  0.037034072	4.581500E+01	  0.037034072	5.118100E+01	  0.037034072	1.245000E+00
87	  0.037234470	-3.541200E+01	  0.037234470	4.524600E+01	  0.037234470	5.119300E+01	  0.037234470	1.233000E+00
88	  0.037434869	-3.541900E+01	  0.037434869	4.501900E+01	  0.037434869	5.119700E+01	  0.037434869	1.227000E+00
89	  0.037635271	-3.541400E+01	  0.037635271	4.384200E+01	  0.037635271	5.122300E+01	  0.037635271	1.203000E+00
90	  0.037835669	-3.540800E+01	  0.037835669	4.361900E+01	  0.037835669	5.122900E+01	  0.037835669	1.199000E+00
91	  0.038036071	-3.552200E+01	  0.038036071	4.326800E+01	  0.038036071	5.122000E+01	  0.038036071	1.176000E+00
92	  0.038236473	-3.540700E+01	  0.038236473	4.242200E+01	  0.038236473	5.125400E+01	  0.038236473	1.173000E+00
93	  0.038436871	-3.542300E+01	  0.038436871	4.230900E+01	  0.038436871	5.125400E+01	  0.038436871	1.168000E+00
94	  0.038637273	-3.534000E+01	  0.038637273	4.095200E+01	  0.038637273	5.129500E+01	  0.038637273	1.150000E+00
95	  0.038837675	-3.529800E+01	  0.038837675	4.048500E+01	  0.038837675	5.131100E+01	  0.038837675	1.145000E+00
96	  0.039038073	-3.520500E+01	  0.039038073	4.034100E+01	  0.039038073	5.132800E+01	  0.039038073	1.154000E+00
97	  0.039238475	-3.505000E+01	  0.039238475	3.928600E+01	  0.039238475	5.137400E+01	  0.039238475	1.150000E+00
98	  0.039438877	-3.495500E+01	  0.039438877	3.943000E+01	  0.039438877	5.138600E+01	  0.039438877	1.167000E+00
99	  0.039639279	-3.487800E+01	  0.039639279	3.955900E+01	  0.039639279	5.139600E+01	  0.039639279	1.180000E+00
100	  0.039839678	-3.479200E+01	  0.039839678	3.898500E+01	  0.039839678	5.142200E+01	  0.039839678	1.178000E+00
101	  0.040040080	-3.454000E+01	  0.040040080	3.892700E+01	  0.040040080	5.146500E+01	  0.040040080	1.213000E+00
102	  0.040240481	-3.450500E+01	  0.040240481	3.932600E+01	  0.040240481	5.146200E+01	  0.040240481	1.228000E+00
103	  0.040440880	-3.453700E+01	  0.040440880	3.980200E+01	  0.040440880	5.144600E+01	  0.040440880	1.235000E+00
104	  0.040641282	-3.433900E+01	  0.040641282	4.053300E+01	  0.040641282	5.146300E+01	  0.040641282	1.283000E+00
105	  0.040841684	-3.431100E+01	  0.040841684	4.049800E+01	  0.040841684	5.146900E+01	  0.040841684	1.287000E+00
106	  0.041042086	-3.426900E+01	  0.041042086	4.085800E+01	  0.041042086	5.146800E+01	  0.041042086	1.303000E+00
107	  0.041242484	-3.427500E+01	  0.041242484	4.101500E+01	  0.041242484	5.146300E+01	  0.041242484	1.306000E+00
108	  0.041442886	-3.422400E+01	  0.041442886	4.171500E+01	  0.041442886	5.145500E+01	  0.041442886	1.331000E+00
109	  0.041643288	-3.420000E+01	  0.041643288	4.188600E+01	  0.041643288	5.145500E+01	  0.041643288	1.340000E+00
110	  0.041843686	-3.424200E+01	  0.041843686	4.196400E+01	  0.041843686	5.144600E+01	  0.041843686	1.335000E+00
111	  0.042044088	-3.427800E+01	  0.042044088	4.225200E+01	  0.042044088	5.143300E+01	  0.042044088	1.337000E+00
112	  0.042244490	-3.429700E+01	  0.042244490	4.247600E+01	  0.042244490	5.142400E+01	  0.042244490	1.339000E+00
113	  0.042444889	-3.437400E+01	  0.042444889	4.236300E+01	  0.042444889	5.141400E+01	  0.042444889	1.324000E+00
114	  0.042645290	-3.439900E+01	  0.042645290	4.225200E+01	  0.042645290	5.141300E+01	  0.042645290	1.318000E+00
115	  0.042845692	-3.435900E+01	  0.042845692	4.195700E+01	  0.042845692	5.142600E+01	  0.042845692	1.316000E+00
116	  0.043046094	-3.448900E+01	  0.043046094	4.184500E+01	  0.043046094	5.140800E+01	  0.043046094	1.293000E+00
117	  0.043246493	-3.449200E+01	  0.043246493	4.120000E+01	  0.043246493	5.142200E+01	  0.043246493	1.277000E+00
118	  0.043446895	-3.445300E+01	  0.043446895	4.050800E+01	  0.043446895	5.144500E+01	  0.043446895	1.266000E+00
119	  0.043647297	-3.449900E+01	  0.043647297	3.993200E+01	  0.043647297	5.145000E+01	  0.043647297	1.244000E+00
120	  0.043847695	-3.452400E+01	  0.043847695	3.974400E+01	  0.043847695	5.145000E+01	  0.043847695	1.236000E+00
121	  0.044048097	-3.444800E+01	  0.044048097	3.894600E+01	  0.044048097	5.148000E+01	  0.044048097	1.226000E+00
122	  0.044248499	-3.440700E+01	  0.044248499	3.813800E+01	  0.044248499	5.150500E+01	  0.044248499	1.211000E+00
123	  0.044448901	-3.429500E+01	  0.044448901	3.791500E+01	  0.044448901	5.153000E+01	  0.044448901	1.221000E+00
124	  0.044649299	-3.425100E+01	  0.044649299	3.735800E+01	  0.044649299	5.155000E+01	  0.044649299	1.213000E+00
125	  0.044849701	-3.408200E+01	  0.044849701	3.698300E+01	  0.044849701	5.158900E+01	  0.044849701	1.227000E+00
126	  0.045050103	-3.402500E+01	  0.045050103	3.672100E+01	  0.045050103	5.160500E+01	  0.045050103	1.228000E+00
127	  0.045250501	-3.393700E+01	  0.045250501	3.676100E+01	  0.045250501	5.162100E+01	  0.045250501	1.242000E+00
128	  0.045450903	-3.383400E+01	  0.045450903	3.642400E+01	  0.045450903	5.164800E+01	  0.045450903	1.247000E+00
129	  0.045651305	-3.372000E+01	  0.045651305	3.664700E+01	  0.045651305	5.166500E+01	  0.045651305	1.271000E+00
130	  0.045851704	-3.365400E+01	  0.045851704	3.714500E+01	  0.045851704	5.166600E+01	  0.045851704	1.296000E+00
131	  0.046052106	-3.357900E+01	  0.046052106	3.735100E+01	  0.046052106	5.167600E+01	  0.046052106	1.313000E+00
132	  0.046252504	-3.351800E+01	  0.046252504	3.802800E+01	  0.046252504	5.167100E+01	  0.046252504	1.343000E+00
133	  0.046452906	-3.347200E+01	  0.046452906	3.801900E+01	  0.046452906	5.168000E+01	  0.046452906	1.350000E+00
134	  0.046653304	-3.341200E+01	  0.046653304	3.872000E+01	  0.046653304	5.167500E+01	  0.046653304	1.380000E+00
135	  0.046853706	-3.340900E+01	  0.046853706	3.870400E+01	  0.046853706	5.167600E+01	  0.046853706	1.380000E+00
136	  0.047054108	-3.338000E+01	  0.047054108	3.911700E+01	  0.047054108	5.167100E+01	  0.047054108	1.397000E+00
137	  0.047254506	-3.341400E+01	  0.047254506	3.979100E+01	  0.047254506	5.164700E+01	  0.047254506	1.411000E+00
138	  0.047454908	-3.343000E+01	  0.047454908	4.004500E+01	  0.047454908	5.163800E+01	  0.047454908	1.416000E+00
139	  0.047655310	-3.353200E+01	  0.047655310	3.987800E+01	  0.047655310	5.162300E+01	  0.047655310	1.394000E+00
140	  0.047855709	-3.359400E+01	  0.047855709	4.058700E+01	  0.047855709	5.159300E+01	  0.047855709	1.404000E+00
141	  0.048056111	-3.361400E+01	  0.048056111	4.040800E+01	  0.048056111	5.159400E+01	  0.048056111	1.395000E+00
142	  0.048256513	-3.363300E+01	  0.048256513	3.997000E+01	  0.048256513	5.160200E+01	  0.048256513	1.380000E+00
143	  0.048456915	-3.368900E+01	  0.048456915	4.023100E+01	  0.048456915	5.158500E+01	  0.048456915	1.378000E+00
144	  0.048657313	-3.379800E+01	  0.048657313	3.968300E+01	  0.048657313	5.157800E+01	  0.048657313	1.345000E+00
145	  0.048857715	-3.381400E+01	  0.048857715	3.884400E+01	  0.048857715	5.159500E+01	  0.048857715	1.319000E+00
146	  0.049058117	-3.385400E+01	  0.049058117	3.859600E+01	  0.049058117	5.159400E+01	  0.049058117	1.306000E+00
147	  0.049258515	-3.387600E+01	  0.049258515	3.785500E+01	  0.049258515	5.160700E+01	  0.049258515	1.282000E+00
148	  0.049458917	-3.393200E+01	  0.049458917	3.725900E+01	  0.049458917	5.161000E+01	  0.049458917	1.257000E+00
149	  0.049659319	-3.388600E+01	  0.049659319	3.635700E+01	  0.049659319	5.163900E+01	  0.049659319	1.238000E+00
150	  0.049859721	-3.381400E+01	  0.049859721	3.609800E+01	  0.049859721	5.165900E+01	  0.049859721	1.241000E+00
151	  0.050060119	-3.384400E+01	  0.050060119	3.557400E+01	  0.050060119	5.166500E+01	  0.050060119	1.221000E+00
152	  0.050260521	-3.371700E+01	  0.050260521	3.490000E+01	  0.050260521	5.170400E+01	  0.050260521	1.220000E+00
153	  0.050460923	-3.370600E+01	  0.050460923	3.434500E+01	  0.050460923	5.171900E+01	  0.050460923	1.204000E+00
154	  0.050661322	-3.355400E+01	  0.050661322	3.365800E+01	  0.050661322	5.176400E+01	  0.050661322	1.205000E+00
155	  0.050861724	-3.356700E+01	  0.050861724	3.355500E+01	  0.050861724	5.176400E+01	  0.050861724	1.200000E+00
156	  0.051062126	-3.340900E+01	  0.051062126	3.384700E+01	  0.051062126	5.179000E+01	  0.051062126	1.232000E+00
157	  0.051262524	-3.328300E+01	  0.051262524	3.364900E+01	  0.051262524	5.182100E+01	  0.051262524	1.245000E+00
158	  0.051462926	-3.324900E+01	  0.051462926	3.298000E+01	  0.051462926	5.184300E+01	  0.051462926	1.228000E+00
159	  0.051663328	-3.310600E+01	  0.051663328	3.349900E+01	  0.051663328	5.186300E+01	  0.051663328	1.266000E+00
160	  0.051863730	-3.309700E+01	  0.051863730	3.338100E+01	  0.051863730	5.186700E+01	  0.051863730	1.264000E+00
161	  0.052064128	-3.305600E+01	  0.052064128	3.370300E+01	  0.052064128	5.186900E+01	  0.052064128	1.281000E+00
162	  0.052264530	-3.296700E+01	  0.052264530	3.384900E+01	  0.052264530	5.188500E+01	  0.052264530	1.299000E+00
163	  0.052464932	-3.294500E+01	  0.052464932	3.419400E+01	  0.052464932	5.188100E+01	  0.052464932	1.314000E+00
164	  0.052665330	-3.290200E+01	  0.052665330	3.440900E+01	  0.052665330	5.188600E+01	  0.052665330	1.328000E+00
165	  0.052865732	-3.293200E+01	  0.052865732	3.429400E+01	  0.052865732	5.188200E+01	  0.052865732	1.319000E+00
166	  0.053066134	-3.293200E+01	  0.053066134	3.490700E+01	  0.053066134	5.186700E+01	  0.053066134	1.340000E+00
167	  0.053266536	-3.286900E+01	  0.053266536	3.498900E+01	  0.053266536	5.187900E+01	  0.053266536	1.352000E+00
168	  0.053466935	-3.290100E+01	  0.053466935	3.483500E+01	  0.053466935	5.187600E+01	  0.053466935	1.342000E+00
169	  0.053667337	-3.290900E+01	  0.053667337	3.507200E+01	  0.053667337	5.186800E+01	  0.053667337	1.349000E+00
170	  0.053867739	-3.295700E+01	  0.053867739	3.491300E+01	  0.053867739	5.186100E+01	  0.053867739	1.336000E+00
171	  0.054068137	-3.295100E+01	  0.054068137	3.461200E+01	  0.054068137	5.187000E+01	  0.054068137	1.327000E+00
172	  0.054268539	-3.299600E+01	  0.054268539	3.431100E+01	  0.054268539	5.186700E+01	  0.054268539	1.310000E+00
173	  0.054468941	-3.295900E+01	  0.054468941	3.414500E+01	  0.054468941	5.187900E+01	  0.054468941	1.310000E+00
174	  0.054669339	-3.295800E+01	  0.054669339	3.395000E+01	  0.054669339	5.188400E+01	  0.054669339	1.304000E+00
175	  0.054869737	-3.296700E+01	  0.054869737	3.359600E+01	  0.054869737	5.189100E+01	  0.054869737	1.291000E+00
176	  0.055070139	-3.291900E+01	  0.055070139	3.333800E+01	  0.055070139	5.190700E+01	  0.055070139	1.289000E+00
177	  0.055270538	-3.292700E+01	  0.055270538	3.289400E+01	  0.055270538	5.191600E+01	  0.055270538	1.273000E+00
178	  0.055470940	-3.286900E+01	  0.055470940	3.269700E+01	  0.055470940	5.193300E+01	  0.055470940	1.275000E+00
179	  0.055671342	-3.279900E+01	  0.055671342	3.229800E+01	  0.055671342	5.195800E+01	  0.055671342	1.272000E+00
180	  0.055871744	-3.273200E+01	  0.055871744	3.233200E+01	  0.055871744	5.197300E+01	  0.055871744	1.284000E+00
181	  0.056072142	-3.276300E+01	  0.056072142	3.207800E+01	  0.056072142	5.197200E+01	  0.056072142	1.270000E+00
182	  0.056272544	-3.270600E+01	  0.056272544	3.183100E+01	  0.056272544	5.199100E+01	  0.056272544	1.270000E+00
183	  0.056472946	-3.264100E+01	  0.056472946	3.198500E+01	  0.056472946	5.200200E+01	  0.056472946	1.286000E+00
184	  0.056673344	-3.259900E+01	  0.056673344	3.190600E+01	  0.056673344	5.201400E+01	  0.056673344	1.289000E+00
185	  0.056873746	-3.258900E+01	  0.056873746	3.202300E+01	  0.056873746	5.201300E+01	  0.056873746	1.295000E+00
186	  0.057074148	-3.248100E+01	  0.057074148	3.193300E+01	  0.057074148	5.204100E+01	  0.057074148	1.308000E+00
187	  0.057274550	-3.252500E+01	  0.057274550	3.207200E+01	  0.057274550	5.202700E+01	  0.057274550	1.307000E+00
188	  0.057474948	-3.247900E+01	  0.057474948	3.250000E+01	  0.057474948	5.202800E+01	  0.057474948	1.329000E+00
189	  0.057675350	-3.247400E+01	  0.057675350	3.263400E+01	  0.057675350	5.202600E+01	  0.057675350	1.335000E+00
190	  0.057875752	-3.248600E+01	  0.057875752	3.271400E+01	  0.057875752	5.202100E+01	  0.057875752	1.336000E+00
191	  0.058076151	-3.253700E+01	  0.058076151	3.271000E+01	  0.058076151	5.200900E+01	  0.058076151	1.327000E+00
192	  0.058276553	-3.250300E+01	  0.058276553	3.296000E+01	  0.058276553	5.201100E+01	  0.058276553	1.342000E+00
193	  0.058476955	-3.254100E+01	  0.058476955	3.295900E+01	  0.058476955	5.200200E+01	  0.058476955	1.336000E+00
194	  0.058677353	-3.260100E+01	  0.058677353	3.247500E+01	  0.058677353	5.200000E+01	  0.058677353	1.309000E+00
195	  0.058877755	-3.265400E+01	  0.058877755	3.221200E+01	  0.058877755	5.199400E+01	  0.058877755	1.292000E+00
196	  0.059078157	-3.270800E+01	  0.059078157	3.194500E+01	  0.059078157	5.198700E+01	  0.059078157	1.274000E+00
197	  0.059278559	-3.270100E+01	  0.059278559	3.152400E+01	  0.059278559	5.199900E+01	  0.059278559	1.260000E+00
198	  0.059478957	-3.270400E+01	  0.059478957	3.140400E+01	  0.059478957	5.200100E+01	  0.059478957	1.255000E+00
199	  0.059679359	-3.274800E+01	  0.059679359	3.079600E+01	  0.059679359	5.200400E+01	  0.059679359	1.227000E+00
200	  0.059879761	-3.269900E+01	  0.059879761	3.042900E+01	  0.059879761	5.202400E+01	  0.059879761	1.221000E+00
201	  0.060080159	-3.265000E+01	  0.060080159	2.936600E+01	  0.060080159	5.205900E+01	  0.060080159	1.190000E+00
202	  0.060280561	-3.260900E+01	  0.060280561	2.924500E+01	  0.060280561	5.207100E+01	  0.060280561	1.192000E+00
203	  0.060480963	-3.261400E+01	  0.060480963	2.841300E+01	  0.060480963	5.208800E+01	  0.060480963	1.160000E+00
204	  0.060681365	-3.253500E+01	  0.060681365	2.821600E+01	  0.060681365	5.211100E+01	  0.060681365	1.164000E+00
205	  0.060881764	-3.255500E+01	  0.060881764	2.756900E+01	  0.060881764	5.212000E+01	  0.060881764	1.137000E+00
206	  0.061082166	-3.237800E+01	  0.061082166	2.734100E+01	  0.061082166	5.216900E+01	  0.061082166	1.153000E+00
207	  0.061282568	-3.238600E+01	  0.061282568	2.746800E+01	  0.061282568	5.216500E+01	  0.061282568	1.156000E+00
208	  0.061482966	-3.224200E+01	  0.061482966	2.685000E+01	  0.061482966	5.221500E+01	  0.061482966	1.152000E+00
209	  0.061683368	-3.220400E+01	  0.061683368	2.693400E+01	  0.061683368	5.222200E+01	  0.061683368	1.161000E+00
210	  0.061883770	-3.205400E+01	  0.061883770	2.676900E+01	  0.061883770	5.226600E+01	  0.061883770	1.176000E+00
211	  0.062084168	-3.199500E+01	  0.062084168	2.706500E+01	  0.062084168	5.227500E+01	  0.062084168	1.196000E+00
212	  0.062284570	-3.190000E+01	  0.062284570	2.761400E+01	  0.062284570	5.228800E+01	  0.062284570	1.232000E+00
213	  0.062484972	-3.180500E+01	  0.062484972	2.770600E+01	  0.062484972	5.231100E+01	  0.062484972	1.250000E+00
214	  0.062685370	-3.182700E+01	  0.062685370	2.847000E+01	  0.062685370	5.228800E+01	  0.062685370	1.278000E+00
215	  0.062885776	-3.177000E+01	  0.062885776	2.816400E+01	  0.062885776	5.231000E+01	  0.062885776	1.274000E+00
216	  0.063086174	-3.173900E+01	  0.063086174	2.884800E+01	  0.063086174	5.230300E+01	  0.063086174	1.307000E+00
217	  0.063286573	-3.179900E+01	  0.063286573	2.914700E+01	  0.063286573	5.227900E+01	  0.063286573	1.309000E+00
218	  0.063486971	-3.180500E+01	  0.063486971	2.961300E+01	  0.063486971	5.226700E+01	  0.063486971	1.327000E+00
219	  0.063687377	-3.181000E+01	  0.063687377	2.966000E+01	  0.063687377	5.226400E+01	  0.063687377	1.328000E+00
220	  0.063887775	-3.181700E+01	  0.063887775	2.980500E+01	  0.063887775	5.225900E+01	  0.063887775	1.333000E+00
221	  0.064088173	-3.191500E+01	  0.064088173	3.023200E+01	  0.064088173	5.222300E+01	  0.064088173	1.334000E+00
222	  0.064288579	-3.192300E+01	  0.064288579	3.021700E+01	  0.064288579	5.222100E+01	  0.064288579	1.332000E+00
223	  0.064488977	-3.212000E+01	  0.064488977	2.972700E+01	  0.064488977	5.218200E+01	  0.064488977	1.282000E+00
224	  0.064689375	-3.212200E+01	  0.064689375	2.947200E+01	  0.064689375	5.218700E+01	  0.064689375	1.272000E+00
225	  0.064889781	-3.208600E+01	  0.064889781	2.935900E+01	  0.064889781	5.219900E+01	  0.064889781	1.273000E+00
226	  0.065090179	-3.225200E+01	  0.065090179	2.854500E+01	  0.065090179	5.217500E+01	  0.065090179	1.217000E+00
227	  0.065290578	-3.228400E+01	  0.065290578	2.838800E+01	  0.065290578	5.217100E+01	  0.065290578	1.206000E+00
228	  0.065490983	-3.221500E+01	  0.065490983	2.721500E+01	  0.065490983	5.221400E+01	  0.065490983	1.170000E+00
229	  0.065691382	-3.224600E+01	  0.065691382	2.656200E+01	  0.065691382	5.221900E+01	  0.065691382	1.141000E+00
230	  0.065891780	-3.220400E+01	  0.065891780	2.588700E+01	  0.065891780	5.224400E+01	  0.065891780	1.120000E+00
231	  0.066092186	-3.218300E+01	  0.066092186	2.549200E+01	  0.066092186	5.225800E+01	  0.066092186	1.107000E+00
232	  0.066292584	-3.223200E+01	  0.066292584	2.438900E+01	  0.066292584	5.226700E+01	  0.066292584	1.056000E+00
233	  0.066492982	-3.212100E+01	  0.066492982	2.436000E+01	  0.066492982	5.229700E+01	  0.066492982	1.069000E+00
234	  0.066693388	-3.199100E+01	  0.066693388	2.390200E+01	  0.066693388	5.234100E+01	  0.066693388	1.067000E+00
235	  0.066893786	-3.194000E+01	  0.066893786	2.354900E+01	  0.066893786	5.236200E+01	  0.066893786	1.058000E+00
236	  0.067094192	-3.184300E+01	  0.067094192	2.331200E+01	  0.067094192	5.239400E+01	  0.067094192	1.061000E+00
237	  0.067294590	-3.171200E+01	  0.067294590	2.301200E+01	  0.067294590	5.243700E+01	  0.067294590	1.065000E+00
238	  0.067494988	-3.164500E+01	  0.067494988	2.295100E+01	  0.067494988	5.245700E+01	  0.067494988	1.071000E+00
239	  0.067695394	-3.153200E+01	  0.067695394	2.361200E+01	  0.067695394	5.247700E+01	  0.067695394	1.115000E+00
240	  0.067895792	-3.140700E+01	  0.067895792	2.339000E+01	  0.067895792	5.251800E+01	  0.067895792	1.122000E+00
241	  0.068096191	-3.141200E+01	  0.068096191	2.371200E+01	  0.068096191	5.251000E+01	  0.068096191	1.135000E+00
242	  0.068296596	-3.139900E+01	  0.068296596	2.429300E+01	  0.068296596	5.250100E+01	  0.068296596	1.163000E+00
243	  0.068496995	-3.131400E+01	  0.068496995	2.437700E+01	  0.068496995	5.252500E+01	  0.068496995	1.179000E+00
244	  0.068697393	-3.128100E+01	  0.068697393	2.480300E+01	  0.068697393	5.252500E+01	  0.068697393	1.203000E+00
245	  0.068897791	-3.132800E+01	  0.068897791	2.582700E+01	  0.068897791	5.248800E+01	  0.068897791	1.242000E+00
246	  0.069098189	-3.131900E+01	  0.069098189	2.573800E+01	  0.069098189	5.249300E+01	  0.069098189	1.239000E+00
247	  0.069298595	-3.141300E+01	  0.069298595	2.627500E+01	  0.069298595	5.245400E+01	  0.069298595	1.249000E+00
248	  0.069498993	-3.139500E+01	  0.069498993	2.555700E+01	  0.069498993	5.247500E+01	  0.069498993	1.220000E+00
249	  0.069699399	-3.148600E+01	  0.069699399	2.610100E+01	  0.069699399	5.243600E+01	  0.069699399	1.230000E+00
250	  0.069899797	-3.154900E+01	  0.069899797	2.661500E+01	  0.069899797	5.240700E+01	  0.069899797	1.243000E+00
251	  0.070100196	-3.159200E+01	  0.070100196	2.591600E+01	  0.070100196	5.241000E+01	  0.070100196	1.206000E+00
252	  0.070300601	-3.173800E+01	  0.070300601	2.562400E+01	  0.070300601	5.237600E+01	  0.070300601	1.173000E+00
253	  0.070501000	-3.175800E+01	  0.070501000	2.550300E+01	  0.070501000	5.237300E+01	  0.070501000	1.165000E+00
254	  0.070701398	-3.186200E+01	  0.070701398	2.470900E+01	  0.070701398	5.236100E+01	  0.070701398	1.117000E+00
255	  0.070901804	-3.190800E+01	  0.070901804	2.403000E+01	  0.070901804	5.236200E+01	  0.070901804	1.083000E+00
256	  0.071102202	-3.193500E+01	  0.071102202	2.327400E+01	  0.071102202	5.236900E+01	  0.071102202	1.047000E+00
257	  0.071302600	-3.188400E+01	  0.071302600	2.263700E+01	  0.071302600	5.239500E+01	  0.071302600	1.027000E+00
258	  0.071503006	-3.188500E+01	  0.071503006	2.185000E+01	  0.071503006	5.240900E+01	  0.071503006	9.930000E-01
259	  0.071703404	-3.186100E+01	  0.071703404	2.100300E+01	  0.071703404	5.243100E+01	  0.071703404	9.590000E-01
260	  0.071903802	-3.179000E+01	  0.071903802	2.015100E+01	  0.071903802	5.246600E+01	  0.071903802	9.300000E-01
261	  0.072104208	-3.166700E+01	  0.072104208	2.008000E+01	  0.072104208	5.250400E+01	  0.072104208	9.410000E-01
262	  0.072304606	-3.158500E+01	  0.072304606	1.905300E+01	  0.072304606	5.254600E+01	  0.072304606	9.040000E-01
263	  0.072505005	-3.145200E+01	  0.072505005	1.831500E+01	  0.072505005	5.259800E+01	  0.072505005	8.850000E-01
264	  0.072705410	-3.139000E+01	  0.072705410	1.859700E+01	  0.072705410	5.261200E+01	  0.072705410	9.040000E-01
265	  0.072905809	-3.116800E+01	  0.072905809	1.874300E+01	  0.072905809	5.267900E+01	  0.072905809	9.360000E-01
266	  0.073106214	-3.105200E+01	  0.073106214	1.881300E+01	  0.073106214	5.271500E+01	  0.073106214	9.530000E-01
267	  0.073306613	-3.102700E+01	  0.073306613	1.856100E+01	  0.073306613	5.272700E+01	  0.073306613	9.430000E-01
268	  0.073507011	-3.092600E+01	  0.073507011	1.910200E+01	  0.073507011	5.275000E+01	  0.073507011	9.820000E-01
269	  0.073707417	-3.079700E+01	  0.073707417	1.930800E+01	  0.073707417	5.278800E+01	  0.073707417	1.007000E+00
270	  0.073907815	-3.085600E+01	  0.073907815	1.986200E+01	  0.073907815	5.275900E+01	  0.073907815	1.028000E+00
271	  0.074108213	-3.069200E+01	  0.074108213	2.032700E+01	  0.074108213	5.280400E+01	  0.074108213	1.072000E+00
272	  0.074308619	-3.064200E+01	  0.074308619	2.081900E+01	  0.074308619	5.281000E+01	  0.074308619	1.103000E+00
273	  0.074509017	-3.067200E+01	  0.074509017	2.154000E+01	  0.074509017	5.278500E+01	  0.074509017	1.135000E+00
274	  0.074709415	-3.068900E+01	  0.074709415	2.207200E+01	  0.074709415	5.276900E+01	  0.074709415	1.159000E+00
275	  0.074909821	-3.072800E+01	  0.074909821	2.228300E+01	  0.074909821	5.275200E+01	  0.074909821	1.164000E+00
276	  0.075110219	-3.078000E+01	  0.075110219	2.299200E+01	  0.075110219	5.271900E+01	  0.075110219	1.191000E+00
277	  0.075310618	-3.083600E+01	  0.075310618	2.279500E+01	  0.075310618	5.270600E+01	  0.075310618	1.173000E+00
278	  0.075511023	-3.085300E+01	  0.075511023	2.317900E+01	  0.075511023	5.269200E+01	  0.075511023	1.190000E+00
279	  0.075711422	-3.100900E+01	  0.075711422	2.330000E+01	  0.075711422	5.264000E+01	  0.075711422	1.173000E+00
280	  0.075911827	-3.104900E+01	  0.075911827	2.313400E+01	  0.075911827	5.263200E+01	  0.075911827	1.159000E+00
281	  0.076112226	-3.105500E+01	  0.076112226	2.268800E+01	  0.076112226	5.263900E+01	  0.076112226	1.138000E+00
282	  0.076312624	-3.124100E+01	  0.076312624	2.259400E+01	  0.076312624	5.258400E+01	  0.076312624	1.108000E+00
283	  0.076513030	-3.116500E+01	  0.076513030	2.247000E+01	  0.076513030	5.261000E+01	  0.076513030	1.112000E+00
284	  0.076713428	-3.136300E+01	  0.076713428	2.152500E+01	  0.076713428	5.256800E+01	  0.076713428	1.043000E+00
285	  0.076913826	-3.133500E+01	  0.076913826	2.073400E+01	  0.076913826	5.259200E+01	  0.076913826	1.010000E+00
286	  0.077114232	-3.137500E+01	  0.077114232	2.040200E+01	  0.077114232	5.258500E+01	  0.077114232	9.900000E-01
287	  0.077314630	-3.134800E+01	  0.077314630	1.926800E+01	  0.077314630	5.261400E+01	  0.077314630	9.400000E-01
288	  0.077515028	-3.127200E+01	  0.077515028	1.872300E+01	  0.077515028	5.264700E+01	  0.077515028	9.230000E-01
289	  0.077715434	-3.124600E+01	  0.077715434	1.815600E+01	  0.077715434	5.266400E+01	  0.077715434	8.990000E-01
290	  0.077915832	-3.120900E+01	  0.077915832	1.771500E+01	  0.077915832	5.268300E+01	  0.077915832	8.820000E-01
291	  0.078116231	-3.111700E+01	  0.078116231	1.707700E+01	  0.078116231	5.272300E+01	  0.078116231	8.610000E-01
292	  0.078316636	-3.111000E+01	  0.078316636	1.697700E+01	  0.078316636	5.272700E+01	  0.078316636	8.570000E-01
293	  0.078517035	-3.097600E+01	  0.078517035	1.633400E+01	  0.078517035	5.278000E+01	  0.078517035	8.390000E-01
294	  0.078717433	-3.084900E+01	  0.078717433	1.618400E+01	  0.078717433	5.282400E+01	  0.078717433	8.450000E-01
295	  0.078917839	-3.077700E+01	  0.078917839	1.638000E+01	  0.078917839	5.284500E+01	  0.078917839	8.620000E-01
296	  0.079118237	-3.074600E+01	  0.079118237	1.636300E+01	  0.079118237	5.285600E+01	  0.079118237	8.640000E-01
297	  0.079318643	-3.063300E+01	  0.079318643	1.692700E+01	  0.079318643	5.288500E+01	  0.079318643	9.060000E-01
298	  0.079519041	-3.058600E+01	  0.079519041	1.690900E+01	  0.079519041	5.290200E+01	  0.079519041	9.100000E-01
299	  0.079719439	-3.049000E+01	  0.079719439	1.737000E+01	  0.079719439	5.292700E+01	  0.079719439	9.450000E-01
300	  0.079919845	-3.057600E+01	  0.079919845	1.745100E+01	  0.079919845	5.289600E+01	  0.079919845	9.390000E-01
301	  0.080120243	-3.048800E+01	  0.080120243	1.751800E+01	  0.080120243	5.292500E+01	  0.080120243	9.530000E-01
302	  0.080320641	-3.051500E+01	  0.080320641	1.821900E+01	  0.080320641	5.290300E+01	  0.080320641	9.860000E-01
303	  0.080521047	-3.055200E+01	  0.080521047	1.847700E+01	  0.080521047	5.288600E+01	  0.080521047	9.950000E-01
304	  0.080721445	-3.054100E+01	  0.080721445	1.919500E+01	  0.080721445	5.287600E+01	  0.080721445	1.034000E+00
305	  0.080921844	-3.062000E+01	  0.080921844	1.928300E+01	  0.080921844	5.284800E+01	  0.080921844	1.028000E+00
306	  0.081122249	-3.059800E+01	  0.081122249	1.881700E+01	  0.081122249	5.286400E+01	  0.081122249	1.007000E+00
307	  0.081322648	-3.069300E+01	  0.081322648	1.933000E+01	  0.081322648	5.282200E+01	  0.081322648	1.021000E+00
308	  0.081523046	-3.076100E+01	  0.081523046	1.931300E+01	  0.081523046	5.280000E+01	  0.081523046	1.012000E+00
309	  0.081723452	-3.080800E+01	  0.081723452	1.928700E+01	  0.081723452	5.278500E+01	  0.081723452	1.005000E+00
310	  0.081923850	-3.097400E+01	  0.081923850	1.860400E+01	  0.081923850	5.274400E+01	  0.081923850	9.520000E-01
311	  0.082124248	-3.093600E+01	  0.082124248	1.781600E+01	  0.082124248	5.276900E+01	  0.082124248	9.170000E-01
312	  0.082324654	-3.099600E+01	  0.082324654	1.753400E+01	  0.082324654	5.275500E+01	  0.082324654	8.970000E-01
313	  0.082525052	-3.101400E+01	  0.082525052	1.729800E+01	  0.082525052	5.275300E+01	  0.082525052	8.830000E-01
314	  0.082725458	-3.098300E+01	  0.082725458	1.662700E+01	  0.082725458	5.277300E+01	  0.082725458	8.530000E-01
315	  0.082925856	-3.099800E+01	  0.082925856	1.595000E+01	  0.082925856	5.277900E+01	  0.082925856	8.180000E-01
316	  0.083126254	-3.101800E+01	  0.083126254	1.506900E+01	  0.083126254	5.278500E+01	  0.083126254	7.720000E-01
317	  0.083326660	-3.095100E+01	  0.083326660	1.442200E+01	  0.083326660	5.281700E+01	  0.083326660	7.460000E-01
318	  0.083527058	-3.090100E+01	  0.083527058	1.442300E+01	  0.083527058	5.283300E+01	  0.083527058	7.500000E-01
319	  0.083727457	-3.079900E+01	  0.083727457	1.365700E+01	  0.083727457	5.287800E+01	  0.083727457	7.200000E-01
320	  0.083927862	-3.071400E+01	  0.083927862	1.368500E+01	  0.083927862	5.290600E+01	  0.083927862	7.290000E-01
321	  0.084128261	-3.060000E+01	  0.084128261	1.288400E+01	  0.084128261	5.295700E+01	  0.084128261	6.970000E-01
322	  0.084328659	-3.054800E+01	  0.084328659	1.284000E+01	  0.084328659	5.297500E+01	  0.084328659	6.990000E-01
323	  0.084529065	-3.047900E+01	  0.084529065	1.308000E+01	  0.084529065	5.299700E+01	  0.084529065	7.180000E-01
324	  0.084729463	-3.042300E+01	  0.084729463	1.315600E+01	  0.084729463	5.301600E+01	  0.084729463	7.270000E-01
325	  0.084929861	-3.031900E+01	  0.084929861	1.333700E+01	  0.084929861	5.305100E+01	  0.084929861	7.460000E-01
326	  0.085130267	-3.029500E+01	  0.085130267	1.385700E+01	  0.085130267	5.305200E+01	  0.085130267	7.770000E-01
327	  0.085330658	-3.023400E+01	  0.085330658	1.401800E+01	  0.085330658	5.307200E+01	  0.085330658	7.920000E-01
328	  0.085531056	-3.023800E+01	  0.085531056	1.439900E+01	  0.085531056	5.306500E+01	  0.085531056	8.120000E-01
329	  0.085731462	-3.025200E+01	  0.085731462	1.490900E+01	  0.085731462	5.305200E+01	  0.085731462	8.390000E-01
330	  0.085931860	-3.026600E+01	  0.085931860	1.506500E+01	  0.085931860	5.304400E+01	  0.085931860	8.460000E-01
331	  0.086132258	-3.024100E+01	  0.086132258	1.541600E+01	  0.086132258	5.304800E+01	  0.086132258	8.680000E-01
332	  0.086332664	-3.029700E+01	  0.086332664	1.574500E+01	  0.086332664	5.302200E+01	  0.086332664	8.800000E-01
333	  0.086533062	-3.039100E+01	  0.086533062	1.577000E+01	  0.086533062	5.298800E+01	  0.086533062	8.710000E-01
334	  0.086733460	-3.047500E+01	  0.086733460	1.587800E+01	  0.086733460	5.295700E+01	  0.086733460	8.680000E-01
335	  0.086933866	-3.046200E+01	  0.086933866	1.566400E+01	  0.086933866	5.296500E+01	  0.086933866	8.580000E-01
336	  0.087134264	-3.049800E+01	  0.087134264	1.546800E+01	  0.087134264	5.295500E+01	  0.087134264	8.440000E-01
337	  0.087334670	-3.062400E+01	  0.087334670	1.527300E+01	  0.087334670	5.291500E+01	  0.087334670	8.210000E-01
338	  0.087535068	-3.064000E+01	  0.087535068	1.517900E+01	  0.087535068	5.291100E+01	  0.087535068	8.140000E-01
339	  0.087735467	-3.075100E+01	  0.087735467	1.464700E+01	  0.087735467	5.288100E+01	  0.087735467	7.760000E-01
340	  0.087935872	-3.071800E+01	  0.087935872	1.415700E+01	  0.087935872	5.289900E+01	  0.087935872	7.530000E-01
341	  0.088136271	-3.079200E+01	  0.088136271	1.374400E+01	  0.088136271	5.287900E+01	  0.088136271	7.250000E-01
342	  0.088336669	-3.078800E+01	  0.088336669	1.275600E+01	  0.088336669	5.289300E+01	  0.088336669	6.750000E-01
343	  0.088537075	-3.075800E+01	  0.088537075	1.235000E+01	  0.088537075	5.290900E+01	  0.088537075	6.560000E-01
344	  0.088737473	-3.073600E+01	  0.088737473	1.213600E+01	  0.088737473	5.291900E+01	  0.088737473	6.470000E-01
345	  0.088937871	-3.076400E+01	  0.088937871	1.103000E+01	  0.088937871	5.292200E+01	  0.088937871	5.860000E-01
346	  0.089138277	-3.070800E+01	  0.089138277	1.060200E+01	  0.089138277	5.294600E+01	  0.089138277	5.680000E-01
347	  0.089338675	-3.064600E+01	  0.089338675	1.040500E+01	  0.089338675	5.297000E+01	  0.089338675	5.620000E-01
348	  0.089539073	-3.056800E+01	  0.089539073	9.797000E+00	  0.089539073	5.300300E+01	  0.089539073	5.340000E-01
349	  0.089739479	-3.050000E+01	  0.089739479	9.742000E+00	  0.089739479	5.302800E+01	  0.089739479	5.360000E-01
350	  0.089939877	-3.046600E+01	  0.089939877	9.603000E+00	  0.089939877	5.304200E+01	  0.089939877	5.300000E-01
351	  0.090140276	-3.039900E+01	  0.090140276	9.864000E+00	  0.090140276	5.306300E+01	  0.090140276	5.490000E-01
352	  0.090340681	-3.031600E+01	  0.090340681	9.921000E+00	  0.090340681	5.309300E+01	  0.090340681	5.580000E-01
353	  0.090541080	-3.029400E+01	  0.090541080	9.552000E+00	  0.090541080	5.310500E+01	  0.090541080	5.390000E-01
354	  0.090741485	-3.026800E+01	  0.090741485	9.351000E+00	  0.090741485	5.311700E+01	  0.090741485	5.290000E-01
355	  0.090941884	-3.025200E+01	  0.090941884	9.930000E+00	  0.090941884	5.311600E+01	  0.090941884	5.630000E-01
356	  0.091142282	-3.015500E+01	  0.091142282	1.027800E+01	  0.091142282	5.314900E+01	  0.091142282	5.890000E-01
357	  0.091342688	-3.020100E+01	  0.091342688	1.025800E+01	  0.091342688	5.313200E+01	  0.091342688	5.850000E-01
358	  0.091543086	-3.021900E+01	  0.091543086	1.030800E+01	  0.091543086	5.312500E+01	  0.091543086	5.860000E-01
359	  0.091743484	-3.025100E+01	  0.091743484	1.035600E+01	  0.091743484	5.311200E+01	  0.091743484	5.870000E-01
360	  0.091943890	-3.028100E+01	  0.091943890	1.031200E+01	  0.091943890	5.310200E+01	  0.091943890	5.820000E-01
361	  0.092144288	-3.034500E+01	  0.092144288	1.041500E+01	  0.092144288	5.307700E+01	  0.092144288	5.830000E-01
362	  0.092344686	-3.034900E+01	  0.092344686	1.019100E+01	  0.092344686	5.307800E+01	  0.092344686	5.710000E-01
363	  0.092545092	-3.036800E+01	  0.092545092	1.043800E+01	  0.092545092	5.306900E+01	  0.092545092	5.830000E-01
364	  0.092745490	-3.041000E+01	  0.092745490	9.700000E+00	  0.092745490	5.306100E+01	  0.092745490	5.390000E-01
365	  0.092945889	-3.038700E+01	  0.092945889	9.379000E+00	  0.092945889	5.307200E+01	  0.092945889	5.230000E-01
366	  0.093146294	-3.051700E+01	  0.093146294	9.163000E+00	  0.093146294	5.302800E+01	  0.093146294	5.030000E-01
367	  0.093346693	-3.049100E+01	  0.093346693	8.608000E+00	  0.093346693	5.304200E+01	  0.093346693	4.740000E-01
368	  0.093547091	-3.048000E+01	  0.093547091	8.071000E+00	  0.093547091	5.305100E+01	  0.093547091	4.460000E-01
369	  0.093747497	-3.047500E+01	  0.093747497	7.618000E+00	  0.093747497	5.305600E+01	  0.093747497	4.210000E-01
370	  0.093947895	-3.042400E+01	  0.093947895	6.859000E+00	  0.093947895	5.308000E+01	  0.093947895	3.820000E-01
371	  0.094148301	-3.034700E+01	  0.094148301	6.592000E+00	  0.094148301	5.311000E+01	  0.094148301	3.700000E-01
372	  0.094348699	-3.030200E+01	  0.094348699	6.392000E+00	  0.094348699	5.312800E+01	  0.094348699	3.610000E-01
373	  0.094549097	-3.023300E+01	  0.094549097	5.888000E+00	  0.094549097	5.315700E+01	  0.094549097	3.360000E-01
374	  0.094749503	-3.016400E+01	  0.094749503	5.734000E+00	  0.094749503	5.318400E+01	  0.094749503	3.300000E-01
375	  0.094949901	-3.011600E+01	  0.094949901	5.598000E+00	  0.094949901	5.320300E+01	  0.094949901	3.240000E-01
376	  0.095150299	-3.007800E+01	  0.095150299	5.768000E+00	  0.095150299	5.321700E+01	  0.095150299	3.350000E-01
377	  0.095350705	-3.001900E+01	  0.095350705	5.775000E+00	  0.095350705	5.323900E+01	  0.095350705	3.380000E-01
378	  0.095551103	-2.998300E+01	  0.095551103	5.909000E+00	  0.095551103	5.325200E+01	  0.095551103	3.470000E-01
379	  0.095751502	-2.991200E+01	  0.095751502	6.094000E+00	  0.095751502	5.327900E+01	  0.095751502	3.610000E-01
380	  0.095951907	-2.982300E+01	  0.095951907	6.564000E+00	  0.095951907	5.331000E+01	  0.095951907	3.930000E-01
381	  0.096152306	-2.990600E+01	  0.096152306	6.893000E+00	  0.096152306	5.327500E+01	  0.096152306	4.090000E-01
382	  0.096352704	-2.984200E+01	  0.096352704	6.836000E+00	  0.096352704	5.330100E+01	  0.096352704	4.090000E-01
383	  0.096553110	-2.992400E+01	  0.096553110	7.194000E+00	  0.096553110	5.326600E+01	  0.096553110	4.260000E-01
384	  0.096753508	-2.993500E+01	  0.096753508	7.710000E+00	  0.096753508	5.325800E+01	  0.096753508	4.550000E-01
385	  0.096953906	-2.995500E+01	  0.096953906	7.624000E+00	  0.096953906	5.325100E+01	  0.096953906	4.490000E-01
386	  0.097154312	-3.001500E+01	  0.097154312	7.932000E+00	  0.097154312	5.322500E+01	  0.097154312	4.640000E-01
387	  0.097354710	-3.010000E+01	  0.097354710	7.637000E+00	  0.097354710	5.319500E+01	  0.097354710	4.420000E-01
388	  0.097555116	-3.017200E+01	  0.097555116	7.589000E+00	  0.097555116	5.316800E+01	  0.097555116	4.350000E-01
389	  0.097755514	-3.026600E+01	  0.097755514	7.269000E+00	  0.097755514	5.313500E+01	  0.097755514	4.120000E-01
390	  0.097955912	-3.031000E+01	  0.097955912	7.155000E+00	  0.097955912	5.312000E+01	  0.097955912	4.040000E-01
391	  0.098156318	-3.036400E+01	  0.098156318	6.592000E+00	  0.098156318	5.310400E+01	  0.098156318	3.700000E-01
392	  0.098356716	-3.044500E+01	  0.098356716	5.665000E+00	  0.098356716	5.308000E+01	  0.098356716	3.150000E-01
393	  0.098557115	-3.041500E+01	  0.098557115	4.976000E+00	  0.098557115	5.309500E+01	  0.098557115	2.770000E-01
394	  0.098757520	-3.045700E+01	  0.098757520	4.228000E+00	  0.098757520	5.308300E+01	  0.098757520	2.350000E-01
395	  0.098957919	-3.046400E+01	  0.098957919	3.354000E+00	  0.098957919	5.308400E+01	  0.098957919	1.860000E-01
396	  0.099158317	-3.041500E+01	  0.099158317	2.601000E+00	  0.099158317	5.310400E+01	  0.099158317	1.450000E-01
397	  0.099358723	-3.036700E+01	  0.099358723	1.900000E+00	  0.099358723	5.312400E+01	  0.099358723	1.060000E-01
398	  0.099559121	-3.029800E+01	  0.099559121	9.960000E-01	  0.099559121	5.315100E+01	  0.099559121	5.600000E-02
399	  0.099759519	-3.018700E+01	  0.099759519	4.320000E-01	  0.099759519	5.319300E+01	  0.099759519	2.400000E-02
400	  0.099959925	-3.000700E+01	  0.099959925	-2.280000E-01	  0.099959925	5.326200E+01	  0.099959925	-1.300000E-02
401	  0.100160323	-2.984600E+01	  0.100160323	-1.630000E-01	  0.100160323	5.332500E+01	  0.100160323	-9.000000E-03
402	  0.100360721	-2.980200E+01	  0.100360721	-8.390000E-01	  0.100360721	5.334200E+01	  0.100360721	-5.000000E-02
403	  0.100561127	-2.964200E+01	  0.100561127	-3.650000E-01	  0.100561127	5.340700E+01	  0.100561127	-2.200000E-02
404	  0.100761525	-2.959700E+01	  0.100761525	-4.190000E-01	  0.100761525	5.342500E+01	  0.100761525	-2.500000E-02
405	  0.100961931	-2.949500E+01	  0.100961931	-1.740000E-01	  0.100961931	5.346700E+01	  0.100961931	-1.000000E-02
406	  0.101162329	-2.935300E+01	  0.101162329	1.430000E-01	  0.101162329	5.352600E+01	  0.101162329	9.000000E-03
407	  0.101362728	-2.921400E+01	  0.101362728	1.299000E+00	  0.101362728	5.358400E+01	  0.101362728	8.400000E-02
408	  0.101563133	-2.928100E+01	  0.101563133	1.486000E+00	  0.101563133	5.355600E+01	  0.101563133	9.500000E-02
409	  0.101763532	-2.913900E+01	  0.101763532	2.132000E+00	  0.101763532	5.361500E+01	  0.101763532	1.390000E-01
410	  0.101963930	-2.920000E+01	  0.101963930	2.949000E+00	  0.101963930	5.358600E+01	  0.101963930	1.910000E-01
411	  0.102164336	-2.912900E+01	  0.102164336	3.570000E+00	  0.102164336	5.361400E+01	  0.102164336	2.330000E-01
412	  0.102364734	-2.921300E+01	  0.102364734	4.576000E+00	  0.102364734	5.357300E+01	  0.102364734	2.960000E-01
413	  0.102565132	-2.930800E+01	  0.102565132	4.888000E+00	  0.102565132	5.353100E+01	  0.102565132	3.120000E-01
414	  0.102765530	-2.934100E+01	  0.102765530	5.054000E+00	  0.102765530	5.351600E+01	  0.102765530	3.220000E-01
415	  0.102965929	-2.952000E+01	  0.102965929	5.087000E+00	  0.102965929	5.344200E+01	  0.102965929	3.170000E-01
416	  0.103166327	-2.958100E+01	  0.103166327	5.454000E+00	  0.103166327	5.341400E+01	  0.103166327	3.370000E-01
417	  0.103366733	-2.963300E+01	  0.103366733	6.108000E+00	  0.103366733	5.338900E+01	  0.103366733	3.750000E-01
418	  0.103567131	-2.969200E+01	  0.103567131	5.799000E+00	  0.103567131	5.336700E+01	  0.103567131	3.530000E-01
419	  0.103767529	-2.975300E+01	  0.103767529	4.816000E+00	  0.103767529	5.334900E+01	  0.103767529	2.910000E-01
420	  0.103967935	-3.004900E+01	  0.103967935	4.605000E+00	  0.103967935	5.323400E+01	  0.103967935	2.690000E-01
421	  0.104168333	-3.013900E+01	  0.104168333	4.331000E+00	  0.104168333	5.320100E+01	  0.104168333	2.500000E-01
422	  0.104368731	-3.022000E+01	  0.104368731	3.398000E+00	  0.104368731	5.317400E+01	  0.104368731	1.940000E-01
423	  0.104569137	-3.024600E+01	  0.104569137	2.583000E+00	  0.104569137	5.316700E+01	  0.104569137	1.470000E-01
424	  0.104769535	-3.029600E+01	  0.104769535	1.971000E+00	  0.104769535	5.315000E+01	  0.104769535	1.110000E-01
425	  0.104969934	-3.016400E+01	  0.104969934	4.930000E-01	  0.104969934	5.320200E+01	  0.104969934	2.800000E-02
426	  0.105170339	-3.018500E+01	  0.105170339	2.130000E-01	  0.105170339	5.319400E+01	  0.105170339	1.200000E-02
427	  0.105370738	-3.005300E+01	  0.105370738	-1.125000E+00	  0.105370738	5.324400E+01	  0.105370738	-6.500000E-02
428	  0.105571143	-3.001300E+01	  0.105571143	-2.242000E+00	  0.105571143	5.325700E+01	  0.105571143	-1.310000E-01
429	  0.105771542	-2.991400E+01	  0.105771542	-2.039000E+00	  0.105771542	5.329600E+01	  0.105771542	-1.210000E-01
430	  0.105971940	-2.984900E+01	  0.105971940	-3.114000E+00	  0.105971940	5.331900E+01	  0.105971940	-1.860000E-01
431	  0.106172346	-2.970100E+01	  0.106172346	-3.258000E+00	  0.106172346	5.337700E+01	  0.106172346	-1.980000E-01
432	  0.106372744	-2.948600E+01	  0.106372744	-2.648000E+00	  0.106372744	5.346700E+01	  0.106372744	-1.650000E-01
433	  0.106573142	-2.941400E+01	  0.106573142	-2.272000E+00	  0.106573142	5.349800E+01	  0.106573142	-1.430000E-01
434	  0.106773548	-2.928400E+01	  0.106773548	-2.499000E+00	  0.106773548	5.355200E+01	  0.106773548	-1.600000E-01
435	  0.106973946	-2.916900E+01	  0.106973946	-1.852000E+00	  0.106973946	5.360200E+01	  0.106973946	-1.200000E-01
436	  0.107174344	-2.914900E+01	  0.107174344	-1.212000E+00	  0.107174344	5.361200E+01	  0.107174344	-7.900000E-02
437	  0.107374750	-2.900300E+01	  0.107374750	-7.150000E-01	  0.107374750	5.367600E+01	  0.107374750	-4.700000E-02
438	  0.107575148	-2.912500E+01	  0.107575148	-9.900000E-02	  0.107575148	5.362400E+01	  0.107575148	-6.000000E-03
439	  0.107775547	-2.913400E+01	  0.107775547	4.830000E-01	  0.107775547	5.361900E+01	  0.107775547	3.100000E-02
440	  0.107975952	-2.915100E+01	  0.107975952	1.064000E+00	  0.107975952	5.361100E+01	  0.107975952	6.900000E-02
441	  0.108176351	-2.911700E+01	  0.108176351	2.001000E+00	  0.108176351	5.362500E+01	  0.108176351	1.310000E-01
442	  0.108376749	-2.918600E+01	  0.108376749	2.510000E+00	  0.108376749	5.359400E+01	  0.108376749	1.630000E-01
443	  0.108577155	-2.936600E+01	  0.108577155	2.919000E+00	  0.108577155	5.351600E+01	  0.108577155	1.850000E-01
444	  0.108777553	-2.942500E+01	  0.108777553	3.195000E+00	  0.108777553	5.349000E+01	  0.108777553	2.010000E-01
445	  0.108977959	-2.957600E+01	  0.108977959	2.951000E+00	  0.108977959	5.342900E+01	  0.108977959	1.820000E-01
446	  0.109178357	-2.971900E+01	  0.109178357	3.640000E+00	  0.109178357	5.336800E+01	  0.109178357	2.210000E-01
447	  0.109378755	-2.989800E+01	  0.109378755	2.971000E+00	  0.109378755	5.330000E+01	  0.109378755	1.770000E-01
448	  0.109579161	-2.995400E+01	  0.109579161	2.239000E+00	  0.109579161	5.328000E+01	  0.109579161	1.320000E-01
449	  0.109779559	-3.007900E+01	  0.109779559	1.756000E+00	  0.109779559	5.323300E+01	  0.109779559	1.020000E-01
450	  0.109979957	-3.024600E+01	  0.109979957	1.241000E+00	  0.109979957	5.317000E+01	  0.109979957	7.000000E-02
451	  0.110180363	-3.027100E+01	  0.110180363	8.100000E-02	  0.110180363	5.316100E+01	  0.110180363	4.000000E-03
452	  0.110380761	-3.037200E+01	  0.110380761	-1.705000E+00	  0.110380761	5.312200E+01	  0.110380761	-9.500000E-02
453	  0.110581160	-3.031900E+01	  0.110581160	-2.387000E+00	  0.110581160	5.314000E+01	  0.110581160	-1.350000E-01
454	  0.110781565	-3.029600E+01	  0.110781565	-3.722000E+00	  0.110781565	5.314500E+01	  0.110781565	-2.110000E-01
455	  0.110981964	-3.020500E+01	  0.110981964	-4.812000E+00	  0.110981964	5.317400E+01	  0.110981964	-2.750000E-01
456	  0.111182362	-3.012000E+01	  0.111182362	-5.754000E+00	  0.111182362	5.320100E+01	  0.111182362	-3.330000E-01
457	  0.111382768	-3.003600E+01	  0.111382768	-6.033000E+00	  0.111382768	5.323100E+01	  0.111382768	-3.520000E-01
458	  0.111583166	-2.993800E+01	  0.111583166	-7.038000E+00	  0.111583166	5.326200E+01	  0.111583166	-4.160000E-01
459	  0.111783572	-2.982000E+01	  0.111783572	-6.711000E+00	  0.111783572	5.331000E+01	  0.111783572	-4.020000E-01
460	  0.111983970	-2.966600E+01	  0.111983970	-6.801000E+00	  0.111983970	5.337100E+01	  0.111983970	-4.150000E-01
461	  0.112184368	-2.942700E+01	  0.112184368	-7.095000E+00	  0.112184368	5.346600E+01	  0.112184368	-4.460000E-01
462	  0.112384774	-2.942800E+01	  0.112384774	-7.336000E+00	  0.112384774	5.346300E+01	  0.112384774	-4.610000E-01
463	  0.112585172	-2.919900E+01	  0.112585172	-6.754000E+00	  0.112585172	5.356400E+01	  0.112585172	-4.370000E-01
464	  0.112785570	-2.911800E+01	  0.112785570	-6.513000E+00	  0.112785570	5.360000E+01	  0.112785570	-4.260000E-01
465	  0.112985976	-2.901000E+01	  0.112985976	-5.734000E+00	  0.112985976	5.365300E+01	  0.112985976	-3.800000E-01
466	  0.113186374	-2.899100E+01	  0.113186374	-4.201000E+00	  0.113186374	5.367100E+01	  0.113186374	-2.790000E-01
467	  0.113386773	-2.901300E+01	  0.113386773	-3.706000E+00	  0.113386773	5.366400E+01	  0.113386773	-2.460000E-01
468	  0.113587178	-2.899300E+01	  0.113587178	-2.973000E+00	  0.113587178	5.367600E+01	  0.113587178	-1.970000E-01
469	  0.113787577	-2.902600E+01	  0.113787577	-2.143000E+00	  0.113787577	5.366400E+01	  0.113787577	-1.420000E-01
470	  0.113987975	-2.903100E+01	  0.113987975	-1.420000E+00	  0.113987975	5.366300E+01	  0.113987975	-9.400000E-02
471	  0.114188381	-2.928000E+01	  0.114188381	-5.400000E-01	  0.114188381	5.355700E+01	  0.114188381	-3.400000E-02
472	  0.114388779	-2.925800E+01	  0.114388779	-2.310000E-01	  0.114388779	5.356600E+01	  0.114388779	-1.400000E-02
473	  0.114589177	-2.942000E+01	  0.114589177	-7.990000E-01	  0.114589177	5.349800E+01	  0.114589177	-5.000000E-02
474	  0.114789583	-2.962600E+01	  0.114789583	-3.390000E-01	  0.114789583	5.341400E+01	  0.114789583	-2.000000E-02
475	  0.114989981	-2.965100E+01	  0.114989981	-3.140000E-01	  0.114989981	5.340300E+01	  0.114989981	-1.900000E-02
476	  0.115190387	-2.995000E+01	  0.115190387	-7.280000E-01	  0.115190387	5.328400E+01	  0.115190387	-4.300000E-02
477	  0.115390785	-3.002900E+01	  0.115390785	-1.066000E+00	  0.115390785	5.325300E+01	  0.115390785	-6.200000E-02
478	  0.115591183	-3.019200E+01	  0.115591183	-2.032000E+00	  0.115591183	5.318900E+01	  0.115591183	-1.160000E-01
479	  0.115791589	-3.024800E+01	  0.115791589	-2.613000E+00	  0.115791589	5.316600E+01	  0.115791589	-1.490000E-01
480	  0.115991987	-3.035400E+01	  0.115991987	-3.297000E+00	  0.115991987	5.312500E+01	  0.115991987	-1.850000E-01
481	  0.116192386	-3.041900E+01	  0.116192386	-4.925000E+00	  0.116192386	5.309400E+01	  0.116192386	-2.740000E-01
482	  0.116392791	-3.037100E+01	  0.116392791	-6.167000E+00	  0.116392791	5.310400E+01	  0.116392791	-3.460000E-01
483	  0.116593190	-3.042400E+01	  0.116593190	-7.634000E+00	  0.116593190	5.307400E+01	  0.116593190	-4.250000E-01
484	  0.116793588	-3.037300E+01	  0.116793588	-8.624000E+00	  0.116793588	5.308500E+01	  0.116793588	-4.820000E-01
485	  0.116993994	-3.027200E+01	  0.116993994	-9.152000E+00	  0.116993994	5.311700E+01	  0.116993994	-5.180000E-01
486	  0.117194392	-3.019300E+01	  0.117194392	-1.024200E+01	  0.117194392	5.313500E+01	  0.117194392	-5.840000E-01
487	  0.117394790	-3.007600E+01	  0.117394790	-1.095600E+01	  0.117394790	5.317100E+01	  0.117394790	-6.340000E-01
488	  0.117595196	-2.991900E+01	  0.117595196	-1.151800E+01	  0.117595196	5.322400E+01	  0.117595196	-6.790000E-01
489	  0.117795594	-2.979400E+01	  0.117795594	-1.173600E+01	  0.117795594	5.326900E+01	  0.117795594	-7.020000E-01
490	  0.117995992	-2.958600E+01	  0.117995992	-1.175100E+01	  0.117995992	5.335000E+01	  0.117995992	-7.210000E-01
491	  0.118196398	-2.953200E+01	  0.118196398	-1.153900E+01	  0.118196398	5.337500E+01	  0.118196398	-7.130000E-01
492	  0.118396796	-2.938900E+01	  0.118396796	-1.146900E+01	  0.118396796	5.343400E+01	  0.118396796	-7.210000E-01
493	  0.118597202	-2.930600E+01	  0.118597202	-1.099700E+01	  0.118597202	5.347400E+01	  0.118597202	-6.990000E-01
494	  0.118797600	-2.927900E+01	  0.118797600	-1.023900E+01	  0.118797600	5.349500E+01	  0.118797600	-6.540000E-01
495	  0.118997999	-2.927200E+01	  0.118997999	-1.008100E+01	  0.118997999	5.350000E+01	  0.118997999	-6.440000E-01
496	  0.119198404	-2.920100E+01	  0.119198404	-9.347000E+00	  0.119198404	5.353800E+01	  0.119198404	-6.030000E-01
497	  0.119398803	-2.922400E+01	  0.119398803	-8.808000E+00	  0.119398803	5.353400E+01	  0.119398803	-5.670000E-01
498	  0.119599201	-2.924100E+01	  0.119599201	-8.376000E+00	  0.119599201	5.353100E+01	  0.119599201	-5.380000E-01
499	  0.119799607	-2.933000E+01	  0.119799607	-7.623000E+00	  0.119799607	5.350100E+01	  0.119799607	-4.850000E-01
500	  0.120000005	-2.939300E+01	  0.120000005	-7.460000E+00	  0.120000005	5.347700E+01	  0.120000005	-4.710000E-01
