! Anritsu VNA Master:             	Model: MS2036C/10/77
! SN:             	1601066
! /card0/usr/18may27.balun/252b.m8_1.txt
! Existing Calibration Information:
! TYPE:             	Current Settings	Active Cal Settings
! TIME:             	05/27/2018 01:32:14 PM	05/27/2018 01:14:08 PM
! INTERNAL TEMP:    	51.8 C	52.0 C
! # POINTS:         	500	500
! START FREQ:       	20.000 MHz	20.000 MHz
! STOP FREQ:        	120.000 MHz	120.000 MHz
! SOURCE POWER:     	High	High
! IFBW:             	50 Hz	50 Hz
! AVG FACTOR:       	  1 	  1 
! REF PLANE 1:      	0 mm	0 mm
! REF PLANE 2:      	0 mm	0 mm
! CAL TYPE:         	Full S11	Full S11
! CAL METHOD:       	SOLT	SOLT
! CAL LINE TYPE:    	Coax	Coax
! DUT PORT 1:       	K-Conn(M)	K-Conn(M)
! DUT PORT 2:       	K-Conn(M)	K-Conn(M)
! CAL STATUS:       	OK: Accuracy High	--
! PROP-V:       	0.700
! CABLE LOSS:       	0.000 dB/m
! REF IMPEDANCE:       	50.0
! Trace Specific Parameters:	TR1	TR2	TR3	TR4
! TRACE.#.Y (GRAPH TYPE)	LOG MAG	PHASE	REAL IMPEDANCE	IMAGINARY IMPEDANCE
! TRACE.#.X 	FREQ.GHZ	FREQ.GHZ	FREQ.GHZ	FREQ.GHZ
! S-PARAMETER	S11	S11	S11	S11
! SMOOTH/APERTURE %	0	0	0	0
! WINDOW	NSL	NSL	NSL	NSL
! GATING	OFF	OFF	OFF	OFF
! FGTD	OFF	OFF	OFF	OFF
Marker Information per Trace:	TR1	TR2	TR3	TR4
!MK1	--	--	--	"MK1 TR4:  70.100 200 MHz,Z:(16.304 ohm, -0.968 ohm)"
!MK2	--	--	--	--
!MK3	--	--	--	--
!MK4	--	--	--	--
!MK5	--	--	--	--
!MK6	--	--	--	--
!MK7	--	--	--	--
!MK8	--	--	--	--
PNT	TR1.FREQ.GHZ	TR1.LOG MAG.dB	TR2.FREQ.GHZ	TR2.PHASE.deg	TR3.FREQ.GHZ	TR3.REAL IMPEDANCE.ohm	TR4.FREQ.GHZ	TR4.IMAGINARY IMPEDANCE.ohm
1	  0.020000000	-6.250000E-01	  0.020000000	-1.257010E+02	  0.020000000	2.272000E+00	  0.020000000	-2.559800E+01
2	  0.020200402	-6.220000E-01	  0.020200402	-1.271900E+02	  0.020200402	2.230000E+00	  0.020200402	-2.478500E+01
3	  0.020400802	-6.210000E-01	  0.020400802	-1.286440E+02	  0.020400802	2.202000E+00	  0.020400802	-2.400100E+01
4	  0.020601204	-6.230000E-01	  0.020601204	-1.300760E+02	  0.020601204	2.183000E+00	  0.020601204	-2.323800E+01
5	  0.020801604	-6.250000E-01	  0.020801604	-1.315330E+02	  0.020801604	2.163000E+00	  0.020801604	-2.247000E+01
6	  0.021002004	-6.320000E-01	  0.021002004	-1.330300E+02	  0.021002004	2.164000E+00	  0.021002004	-2.169000E+01
7	  0.021202406	-6.400000E-01	  0.021202406	-1.345350E+02	  0.021202406	2.167000E+00	  0.021202406	-2.091400E+01
8	  0.021402806	-6.460000E-01	  0.021402806	-1.360330E+02	  0.021402806	2.163000E+00	  0.021402806	-2.015200E+01
9	  0.021603208	-6.540000E-01	  0.021603208	-1.375240E+02	  0.021603208	2.165000E+00	  0.021603208	-1.939900E+01
10	  0.021803608	-6.590000E-01	  0.021803608	-1.390160E+02	  0.021803608	2.162000E+00	  0.021803608	-1.865500E+01
11	  0.022004008	-6.660000E-01	  0.022004008	-1.405410E+02	  0.022004008	2.164000E+00	  0.022004008	-1.790100E+01
12	  0.022204408	-6.700000E-01	  0.022204408	-1.420780E+02	  0.022204408	2.157000E+00	  0.022204408	-1.714900E+01
13	  0.022404809	-6.730000E-01	  0.022404809	-1.436190E+02	  0.022404809	2.146000E+00	  0.022404809	-1.640200E+01
14	  0.022605211	-6.760000E-01	  0.022605211	-1.451490E+02	  0.022605211	2.136000E+00	  0.022605211	-1.566600E+01
15	  0.022805611	-6.770000E-01	  0.022805611	-1.466810E+02	  0.022805611	2.124000E+00	  0.022805611	-1.493700E+01
16	  0.023006011	-6.810000E-01	  0.023006011	-1.482090E+02	  0.023006011	2.119000E+00	  0.023006011	-1.421400E+01
17	  0.023206413	-6.890000E-01	  0.023206413	-1.497680E+02	  0.023206413	2.127000E+00	  0.023206413	-1.348300E+01
18	  0.023406813	-6.980000E-01	  0.023406813	-1.513530E+02	  0.023406813	2.138000E+00	  0.023406813	-1.274400E+01
19	  0.023607215	-7.050000E-01	  0.023607215	-1.529390E+02	  0.023607215	2.146000E+00	  0.023607215	-1.201100E+01
20	  0.023807615	-7.130000E-01	  0.023807615	-1.545370E+02	  0.023807615	2.158000E+00	  0.023807615	-1.127600E+01
21	  0.024008015	-7.220000E-01	  0.024008015	-1.561250E+02	  0.024008015	2.171000E+00	  0.024008015	-1.055100E+01
22	  0.024208417	-7.300000E-01	  0.024208417	-1.577220E+02	  0.024208417	2.184000E+00	  0.024208417	-9.826000E+00
23	  0.024408817	-7.430000E-01	  0.024408817	-1.593460E+02	  0.024408817	2.210000E+00	  0.024408817	-9.093000E+00
24	  0.024609219	-7.540000E-01	  0.024609219	-1.609980E+02	  0.024609219	2.231000E+00	  0.024609219	-8.351000E+00
25	  0.024809619	-7.610000E-01	  0.024809619	-1.626720E+02	  0.024809619	2.239000E+00	  0.024809619	-7.603000E+00
26	  0.025010020	-7.660000E-01	  0.025010020	-1.643340E+02	  0.025010020	2.246000E+00	  0.025010020	-6.864000E+00
27	  0.025210422	-7.720000E-01	  0.025210422	-1.659930E+02	  0.025210422	2.254000E+00	  0.025210422	-6.129000E+00
28	  0.025410822	-7.830000E-01	  0.025410822	-1.676610E+02	  0.025410822	2.278000E+00	  0.025410822	-5.393000E+00
29	  0.025611224	-7.910000E-01	  0.025611224	-1.693240E+02	  0.025611224	2.296000E+00	  0.025611224	-4.661000E+00
30	  0.025811624	-8.000000E-01	  0.025811624	-1.710280E+02	  0.025811624	2.316000E+00	  0.025811624	-3.914000E+00
31	  0.026012026	-8.100000E-01	  0.026012026	-1.727220E+02	  0.026012026	2.341000E+00	  0.026012026	-3.172000E+00
32	  0.026212426	-8.240000E-01	  0.026212426	-1.744320E+02	  0.026212426	2.377000E+00	  0.026212426	-2.425000E+00
33	  0.026412826	-8.410000E-01	  0.026412826	-1.761490E+02	  0.026412826	2.423000E+00	  0.026412826	-1.676000E+00
34	  0.026613226	-8.580000E-01	  0.026613226	-1.778820E+02	  0.026613226	2.470000E+00	  0.026613226	-9.210000E-01
35	  0.026813626	-8.740000E-01	  0.026813626	-1.796130E+02	  0.026813626	2.513000E+00	  0.026813626	-1.680000E-01
36	  0.027014028	-8.900000E-01	  0.027014028	1.786450E+02	  0.027014028	2.560000E+00	  0.027014028	5.890000E-01
37	  0.027214428	-9.040000E-01	  0.027214428	1.769160E+02	  0.027214428	2.604000E+00	  0.027214428	1.342000E+00
38	  0.027414829	-9.200000E-01	  0.027414829	1.751610E+02	  0.027414829	2.651000E+00	  0.027414829	2.106000E+00
39	  0.027615231	-9.380000E-01	  0.027615231	1.734110E+02	  0.027615231	2.707000E+00	  0.027615231	2.869000E+00
40	  0.027815631	-9.590000E-01	  0.027815631	1.716220E+02	  0.027815631	2.773000E+00	  0.027815631	3.650000E+00
41	  0.028016033	-9.800000E-01	  0.028016033	1.698210E+02	  0.028016033	2.840000E+00	  0.028016033	4.438000E+00
42	  0.028216433	-9.990000E-01	  0.028216433	1.680050E+02	  0.028216433	2.906000E+00	  0.028216433	5.235000E+00
43	  0.028416833	-1.022000E+00	  0.028416833	1.661930E+02	  0.028416833	2.981000E+00	  0.028416833	6.032000E+00
44	  0.028617235	-1.046000E+00	  0.028617235	1.643810E+02	  0.028617235	3.064000E+00	  0.028617235	6.832000E+00
45	  0.028817635	-1.071000E+00	  0.028817635	1.625450E+02	  0.028817635	3.153000E+00	  0.028817635	7.645000E+00
46	  0.029018037	-1.098000E+00	  0.029018037	1.606760E+02	  0.029018037	3.249000E+00	  0.029018037	8.477000E+00
47	  0.029218437	-1.123000E+00	  0.029218437	1.588020E+02	  0.029218437	3.343000E+00	  0.029218437	9.315000E+00
48	  0.029418837	-1.147000E+00	  0.029418837	1.569290E+02	  0.029418837	3.433000E+00	  0.029418837	1.015800E+01
49	  0.029619239	-1.170000E+00	  0.029619239	1.550930E+02	  0.029619239	3.526000E+00	  0.029619239	1.098900E+01
50	  0.029819639	-1.194000E+00	  0.029819639	1.532430E+02	  0.029819639	3.626000E+00	  0.029819639	1.183200E+01
51	  0.030020041	-1.220000E+00	  0.030020041	1.514110E+02	  0.030020041	3.734000E+00	  0.030020041	1.267200E+01
52	  0.030220442	-1.251000E+00	  0.030220442	1.495610E+02	  0.030220442	3.861000E+00	  0.030220442	1.352600E+01
53	  0.030420844	-1.289000E+00	  0.030420844	1.477040E+02	  0.030420844	4.012000E+00	  0.030420844	1.439000E+01
54	  0.030621244	-1.328000E+00	  0.030621244	1.458150E+02	  0.030621244	4.174000E+00	  0.030621244	1.527600E+01
55	  0.030821644	-1.364000E+00	  0.030821644	1.438820E+02	  0.030821644	4.334000E+00	  0.030821644	1.619200E+01
56	  0.031022044	-1.398000E+00	  0.031022044	1.419310E+02	  0.031022044	4.490000E+00	  0.031022044	1.712500E+01
57	  0.031222444	-1.423000E+00	  0.031222444	1.399620E+02	  0.031222444	4.625000E+00	  0.031222444	1.807900E+01
58	  0.031422846	-1.452000E+00	  0.031422846	1.380110E+02	  0.031422846	4.779000E+00	  0.031422846	1.903400E+01
59	  0.031623244	-1.480000E+00	  0.031623244	1.360400E+02	  0.031623244	4.939000E+00	  0.031623244	2.001100E+01
60	  0.031823646	-1.499000E+00	  0.031823646	1.341160E+02	  0.031823646	5.071000E+00	  0.031823646	2.097800E+01
61	  0.032024048	-1.524000E+00	  0.032024048	1.321870E+02	  0.032024048	5.229000E+00	  0.032024048	2.196000E+01
62	  0.032224450	-1.551000E+00	  0.032224450	1.302650E+02	  0.032224450	5.400000E+00	  0.032224450	2.295100E+01
63	  0.032424849	-1.580000E+00	  0.032424849	1.283380E+02	  0.032424849	5.587000E+00	  0.032424849	2.395800E+01
64	  0.032625251	-1.615000E+00	  0.032625251	1.264090E+02	  0.032625251	5.806000E+00	  0.032625251	2.497900E+01
65	  0.032825653	-1.655000E+00	  0.032825653	1.244470E+02	  0.032825653	6.054000E+00	  0.032825653	2.603200E+01
66	  0.033026051	-1.698000E+00	  0.033026051	1.225040E+02	  0.033026051	6.322000E+00	  0.033026051	2.709000E+01
67	  0.033226453	-1.742000E+00	  0.033226453	1.204930E+02	  0.033226453	6.610000E+00	  0.033226453	2.820300E+01
68	  0.033426855	-1.788000E+00	  0.033426855	1.184750E+02	  0.033426855	6.919000E+00	  0.033426855	2.933900E+01
69	  0.033627257	-1.833000E+00	  0.033627257	1.164190E+02	  0.033627257	7.247000E+00	  0.033627257	3.051600E+01
70	  0.033827655	-1.877000E+00	  0.033827655	1.143370E+02	  0.033827655	7.585000E+00	  0.033827655	3.173400E+01
71	  0.034028057	-1.925000E+00	  0.034028057	1.122350E+02	  0.034028057	7.964000E+00	  0.034028057	3.298500E+01
72	  0.034228459	-1.970000E+00	  0.034228459	1.101430E+02	  0.034228459	8.349000E+00	  0.034228459	3.425800E+01
73	  0.034428857	-2.014000E+00	  0.034428857	1.080460E+02	  0.034428857	8.752000E+00	  0.034428857	3.556200E+01
74	  0.034629259	-2.051000E+00	  0.034629259	1.059700E+02	  0.034629259	9.144000E+00	  0.034629259	3.688700E+01
75	  0.034829661	-2.086000E+00	  0.034829661	1.039000E+02	  0.034829661	9.552000E+00	  0.034829661	3.824000E+01
76	  0.035030060	-2.126000E+00	  0.035030060	1.018540E+02	  0.035030060	1.000700E+01	  0.035030060	3.960400E+01
77	  0.035230462	-2.170000E+00	  0.035230462	9.984900E+01	  0.035230462	1.049800E+01	  0.035230462	4.096900E+01
78	  0.035430863	-2.224000E+00	  0.035430863	9.784000E+01	  0.035430863	1.107100E+01	  0.035430863	4.235700E+01
79	  0.035631265	-2.283000E+00	  0.035631265	9.584000E+01	  0.035631265	1.169900E+01	  0.035631265	4.376500E+01
80	  0.035831664	-2.344000E+00	  0.035831664	9.378200E+01	  0.035831664	1.239000E+01	  0.035831664	4.524700E+01
81	  0.036032066	-2.404000E+00	  0.036032066	9.166900E+01	  0.036032066	1.313000E+01	  0.036032066	4.681000E+01
82	  0.036232468	-2.467000E+00	  0.036232468	8.949100E+01	  0.036232468	1.395200E+01	  0.036232468	4.845900E+01
83	  0.036432866	-2.524000E+00	  0.036432866	8.731600E+01	  0.036432866	1.480100E+01	  0.036432866	5.016000E+01
84	  0.036633268	-2.576000E+00	  0.036633268	8.512500E+01	  0.036633268	1.568900E+01	  0.036633268	5.193000E+01
85	  0.036833670	-2.628000E+00	  0.036833670	8.297300E+01	  0.036833670	1.662700E+01	  0.036833670	5.371700E+01
86	  0.037034072	-2.677000E+00	  0.037034072	8.080100E+01	  0.037034072	1.763300E+01	  0.037034072	5.557900E+01
87	  0.037234470	-2.724000E+00	  0.037234470	7.865700E+01	  0.037234470	1.868800E+01	  0.037234470	5.747700E+01
88	  0.037434869	-2.769000E+00	  0.037434869	7.654900E+01	  0.037434869	1.980500E+01	  0.037434869	5.940000E+01
89	  0.037635271	-2.821000E+00	  0.037635271	7.447300E+01	  0.037635271	2.104000E+01	  0.037635271	6.132800E+01
90	  0.037835669	-2.876000E+00	  0.037835669	7.238700E+01	  0.037835669	2.239800E+01	  0.037835669	6.331000E+01
91	  0.038036071	-2.933000E+00	  0.038036071	7.032200E+01	  0.038036071	2.387300E+01	  0.038036071	6.531200E+01
92	  0.038236473	-2.990000E+00	  0.038236473	6.825800E+01	  0.038236473	2.546300E+01	  0.038236473	6.736500E+01
93	  0.038436871	-3.047000E+00	  0.038436871	6.618200E+01	  0.038436871	2.719400E+01	  0.038436871	6.947900E+01
94	  0.038637273	-3.112000E+00	  0.038637273	6.404900E+01	  0.038637273	2.917700E+01	  0.038637273	7.167000E+01
95	  0.038837675	-3.178000E+00	  0.038837675	6.186700E+01	  0.038837675	3.137900E+01	  0.038837675	7.395700E+01
96	  0.039038073	-3.240000E+00	  0.039038073	5.966300E+01	  0.039038073	3.376300E+01	  0.039038073	7.633700E+01
97	  0.039238475	-3.298000E+00	  0.039238475	5.745500E+01	  0.039238475	3.635000E+01	  0.039238475	7.877700E+01
98	  0.039438877	-3.350000E+00	  0.039438877	5.527900E+01	  0.039438877	3.908400E+01	  0.039438877	8.126100E+01
99	  0.039639279	-3.399000E+00	  0.039639279	5.313700E+01	  0.039639279	4.201700E+01	  0.039639279	8.375000E+01
100	  0.039839678	-3.443000E+00	  0.039839678	5.102800E+01	  0.039839678	4.514000E+01	  0.039839678	8.625500E+01
101	  0.040040080	-3.491000E+00	  0.040040080	4.898600E+01	  0.040040080	4.850000E+01	  0.040040080	8.863700E+01
102	  0.040240481	-3.547000E+00	  0.040240481	4.693600E+01	  0.040240481	5.225200E+01	  0.040240481	9.092600E+01
103	  0.040440880	-3.605000E+00	  0.040440880	4.489200E+01	  0.040440880	5.635300E+01	  0.040440880	9.311800E+01
104	  0.040641282	-3.669000E+00	  0.040641282	4.283000E+01	  0.040641282	6.091000E+01	  0.040641282	9.515600E+01
105	  0.040841684	-3.733000E+00	  0.040841684	4.074800E+01	  0.040841684	6.590400E+01	  0.040841684	9.707300E+01
106	  0.041042086	-3.798000E+00	  0.041042086	3.866900E+01	  0.041042086	7.133400E+01	  0.041042086	9.874000E+01
107	  0.041242484	-3.860000E+00	  0.041242484	3.657900E+01	  0.041242484	7.721400E+01	  0.041242484	1.002000E+02
108	  0.041442886	-3.921000E+00	  0.041442886	3.447100E+01	  0.041442886	8.361100E+01	  0.041442886	1.013460E+02
109	  0.041643288	-3.978000E+00	  0.041643288	3.237400E+01	  0.041643288	9.043900E+01	  0.041643288	1.021070E+02
110	  0.041843686	-4.038000E+00	  0.041843686	3.024100E+01	  0.041843686	9.788900E+01	  0.041843686	1.023020E+02
111	  0.042044088	-4.093000E+00	  0.042044088	2.815100E+01	  0.042044088	1.056350E+02	  0.042044088	1.019420E+02
112	  0.042244490	-4.148000E+00	  0.042244490	2.606300E+01	  0.042244490	1.137900E+02	  0.042244490	1.008060E+02
113	  0.042444889	-4.200000E+00	  0.042444889	2.399600E+01	  0.042444889	1.222060E+02	  0.042444889	9.886400E+01
114	  0.042645290	-4.255000E+00	  0.042645290	2.194000E+01	  0.042645290	1.308000E+02	  0.042645290	9.586600E+01
115	  0.042845692	-4.307000E+00	  0.042845692	1.986100E+01	  0.042845692	1.396050E+02	  0.042845692	9.183600E+01
116	  0.043046094	-4.361000E+00	  0.043046094	1.779700E+01	  0.043046094	1.482180E+02	  0.043046094	8.654200E+01
117	  0.043246493	-4.411000E+00	  0.043246493	1.573300E+01	  0.043246493	1.565810E+02	  0.043246493	8.010500E+01
118	  0.043446895	-4.464000E+00	  0.043446895	1.367900E+01	  0.043446895	1.643060E+02	  0.043446895	7.236800E+01
119	  0.043647297	-4.518000E+00	  0.043647297	1.161400E+01	  0.043647297	1.712230E+02	  0.043647297	6.337600E+01
120	  0.043847695	-4.569000E+00	  0.043847695	9.558000E+00	  0.043847695	1.770980E+02	  0.043847695	5.340600E+01
121	  0.044048097	-4.621000E+00	  0.044048097	7.510000E+00	  0.044048097	1.816040E+02	  0.044048097	4.257600E+01
122	  0.044248499	-4.668000E+00	  0.044248499	5.463000E+00	  0.044248499	1.848400E+02	  0.044248499	3.121800E+01
123	  0.044448901	-4.711000E+00	  0.044448901	3.437000E+00	  0.044448901	1.866080E+02	  0.044448901	1.964900E+01
124	  0.044649299	-4.753000E+00	  0.044649299	1.417000E+00	  0.044649299	1.868830E+02	  0.044649299	8.041000E+00
125	  0.044849701	-4.796000E+00	  0.044849701	-5.640000E-01	  0.044849701	1.855950E+02	  0.044849701	-3.150000E+00
126	  0.045050103	-4.837000E+00	  0.045050103	-2.534000E+00	  0.045050103	1.830350E+02	  0.045050103	-1.380800E+01
127	  0.045250501	-4.880000E+00	  0.045250501	-4.515000E+00	  0.045250501	1.791960E+02	  0.045250501	-2.383300E+01
128	  0.045450903	-4.921000E+00	  0.045450903	-6.467000E+00	  0.045450903	1.744650E+02	  0.045450903	-3.290000E+01
129	  0.045651305	-4.959000E+00	  0.045651305	-8.436000E+00	  0.045651305	1.689470E+02	  0.045651305	-4.113600E+01
130	  0.045851704	-4.997000E+00	  0.045851704	-1.036500E+01	  0.045851704	1.629310E+02	  0.045851704	-4.824000E+01
131	  0.046052106	-5.030000E+00	  0.046052106	-1.228100E+01	  0.046052106	1.566780E+02	  0.046052106	-5.445300E+01
132	  0.046252504	-5.064000E+00	  0.046252504	-1.420100E+01	  0.046252504	1.501100E+02	  0.046252504	-5.972200E+01
133	  0.046452906	-5.099000E+00	  0.046452906	-1.609200E+01	  0.046452906	1.434920E+02	  0.046452906	-6.400900E+01
134	  0.046653304	-5.134000E+00	  0.046653304	-1.793600E+01	  0.046653304	1.370390E+02	  0.046653304	-6.740600E+01
135	  0.046853706	-5.164000E+00	  0.046853706	-1.981200E+01	  0.046853706	1.306290E+02	  0.046853706	-7.025100E+01
136	  0.047054108	-5.199000E+00	  0.047054108	-2.165600E+01	  0.047054108	1.244290E+02	  0.047054108	-7.231300E+01
137	  0.047254506	-5.229000E+00	  0.047254506	-2.351000E+01	  0.047254506	1.184430E+02	  0.047254506	-7.393600E+01
138	  0.047454908	-5.259000E+00	  0.047454908	-2.536100E+01	  0.047454908	1.126930E+02	  0.047454908	-7.503700E+01
139	  0.047655310	-5.288000E+00	  0.047655310	-2.718200E+01	  0.047655310	1.072900E+02	  0.047655310	-7.572700E+01
140	  0.047855709	-5.318000E+00	  0.047855709	-2.899200E+01	  0.047855709	1.021780E+02	  0.047855709	-7.604500E+01
141	  0.048056111	-5.350000E+00	  0.048056111	-3.081600E+01	  0.048056111	9.728700E+01	  0.048056111	-7.600200E+01
142	  0.048256513	-5.376000E+00	  0.048256513	-3.264100E+01	  0.048256513	9.267300E+01	  0.048256513	-7.582100E+01
143	  0.048456915	-5.400000E+00	  0.048456915	-3.446200E+01	  0.048456915	8.832300E+01	  0.048456915	-7.543000E+01
144	  0.048657313	-5.421000E+00	  0.048657313	-3.627600E+01	  0.048657313	8.423400E+01	  0.048657313	-7.488700E+01
145	  0.048857715	-5.444000E+00	  0.048857715	-3.807700E+01	  0.048857715	8.041100E+01	  0.048857715	-7.415700E+01
146	  0.049058117	-5.466000E+00	  0.049058117	-3.984600E+01	  0.049058117	7.687400E+01	  0.049058117	-7.332600E+01
147	  0.049258515	-5.485000E+00	  0.049258515	-4.159700E+01	  0.049258515	7.357000E+01	  0.049258515	-7.243200E+01
148	  0.049458917	-5.509000E+00	  0.049458917	-4.329800E+01	  0.049458917	7.056100E+01	  0.049458917	-7.140600E+01
149	  0.049659319	-5.533000E+00	  0.049659319	-4.505400E+01	  0.049659319	6.763700E+01	  0.049659319	-7.029000E+01
150	  0.049859721	-5.556000E+00	  0.049859721	-4.679300E+01	  0.049859721	6.491200E+01	  0.049859721	-6.914100E+01
151	  0.050060119	-5.583000E+00	  0.050060119	-4.855100E+01	  0.050060119	6.233300E+01	  0.050060119	-6.791000E+01
152	  0.050260521	-5.603000E+00	  0.050260521	-5.031300E+01	  0.050260521	5.988000E+01	  0.050260521	-6.670600E+01
153	  0.050460923	-5.628000E+00	  0.050460923	-5.205000E+01	  0.050460923	5.762300E+01	  0.050460923	-6.544900E+01
154	  0.050661322	-5.646000E+00	  0.050661322	-5.380200E+01	  0.050661322	5.545700E+01	  0.050661322	-6.422100E+01
155	  0.050861724	-5.663000E+00	  0.050861724	-5.557000E+01	  0.050861724	5.339200E+01	  0.050861724	-6.297700E+01
156	  0.051062126	-5.672000E+00	  0.051062126	-5.730700E+01	  0.051062126	5.144400E+01	  0.051062126	-6.181000E+01
157	  0.051262524	-5.678000E+00	  0.051262524	-5.899400E+01	  0.051262524	4.964700E+01	  0.051262524	-6.067700E+01
158	  0.051462926	-5.688000E+00	  0.051462926	-6.065300E+01	  0.051462926	4.799300E+01	  0.051462926	-5.952700E+01
159	  0.051663328	-5.697000E+00	  0.051663328	-6.229700E+01	  0.051663328	4.643400E+01	  0.051663328	-5.839600E+01
160	  0.051863730	-5.715000E+00	  0.051863730	-6.392600E+01	  0.051863730	4.501000E+01	  0.051863730	-5.721700E+01
161	  0.052064128	-5.726000E+00	  0.052064128	-6.552800E+01	  0.052064128	4.365000E+01	  0.052064128	-5.610900E+01
162	  0.052264530	-5.737000E+00	  0.052264530	-6.713800E+01	  0.052264530	4.235700E+01	  0.052264530	-5.499700E+01
163	  0.052464932	-5.747000E+00	  0.052464932	-6.874900E+01	  0.052464932	4.112300E+01	  0.052464932	-5.389600E+01
164	  0.052665330	-5.756000E+00	  0.052665330	-7.034500E+01	  0.052665330	3.995600E+01	  0.052665330	-5.282000E+01
165	  0.052865732	-5.768000E+00	  0.052865732	-7.190400E+01	  0.052865732	3.888500E+01	  0.052865732	-5.176100E+01
166	  0.053066134	-5.784000E+00	  0.053066134	-7.347800E+01	  0.053066134	3.786900E+01	  0.053066134	-5.068900E+01
167	  0.053266536	-5.788000E+00	  0.053266536	-7.506100E+01	  0.053266536	3.685200E+01	  0.053266536	-4.966800E+01
168	  0.053466935	-5.801000E+00	  0.053466935	-7.661000E+01	  0.053466935	3.593700E+01	  0.053466935	-4.864600E+01
169	  0.053667337	-5.804000E+00	  0.053667337	-7.819100E+01	  0.053667337	3.500800E+01	  0.053667337	-4.765100E+01
170	  0.053867739	-5.805000E+00	  0.053867739	-7.970700E+01	  0.053867739	3.414700E+01	  0.053867739	-4.671400E+01
171	  0.054068137	-5.812000E+00	  0.054068137	-8.119800E+01	  0.054068137	3.336400E+01	  0.054068137	-4.577700E+01
172	  0.054268539	-5.820000E+00	  0.054268539	-8.267000E+01	  0.054268539	3.262700E+01	  0.054268539	-4.485900E+01
173	  0.054468941	-5.829000E+00	  0.054468941	-8.410000E+01	  0.054468941	3.194800E+01	  0.054468941	-4.397300E+01
174	  0.054669339	-5.837000E+00	  0.054669339	-8.554600E+01	  0.054669339	3.128500E+01	  0.054669339	-4.309000E+01
175	  0.054869737	-5.846000E+00	  0.054869737	-8.699800E+01	  0.054869737	3.065100E+01	  0.054869737	-4.221200E+01
176	  0.055070139	-5.861000E+00	  0.055070139	-8.848900E+01	  0.055070139	3.004700E+01	  0.055070139	-4.130400E+01
177	  0.055270538	-5.874000E+00	  0.055270538	-8.994300E+01	  0.055270538	2.947800E+01	  0.055270538	-4.043400E+01
178	  0.055470940	-5.882000E+00	  0.055470940	-9.142400E+01	  0.055470940	2.890600E+01	  0.055470940	-3.957300E+01
179	  0.055671342	-5.891000E+00	  0.055671342	-9.290200E+01	  0.055671342	2.836100E+01	  0.055671342	-3.872100E+01
180	  0.055871744	-5.898000E+00	  0.055871744	-9.435500E+01	  0.055871744	2.783900E+01	  0.055871744	-3.789800E+01
181	  0.056072142	-5.902000E+00	  0.056072142	-9.584800E+01	  0.056072142	2.731600E+01	  0.056072142	-3.706800E+01
182	  0.056272544	-5.900000E+00	  0.056272544	-9.730600E+01	  0.056272544	2.680400E+01	  0.056272544	-3.628100E+01
183	  0.056472946	-5.897000E+00	  0.056472946	-9.872400E+01	  0.056472946	2.632200E+01	  0.056472946	-3.552300E+01
184	  0.056673344	-5.899000E+00	  0.056673344	-1.001260E+02	  0.056673344	2.587900E+01	  0.056673344	-3.477300E+01
185	  0.056873746	-5.901000E+00	  0.056873746	-1.014960E+02	  0.056873746	2.546200E+01	  0.056873746	-3.404600E+01
186	  0.057074148	-5.898000E+00	  0.057074148	-1.028450E+02	  0.057074148	2.505200E+01	  0.057074148	-3.334500E+01
187	  0.057274550	-5.897000E+00	  0.057274550	-1.041910E+02	  0.057274550	2.466500E+01	  0.057274550	-3.264900E+01
188	  0.057474948	-5.902000E+00	  0.057474948	-1.055230E+02	  0.057474948	2.431100E+01	  0.057474948	-3.195700E+01
189	  0.057675350	-5.904000E+00	  0.057675350	-1.068490E+02	  0.057675350	2.396700E+01	  0.057675350	-3.127700E+01
190	  0.057875752	-5.911000E+00	  0.057875752	-1.081920E+02	  0.057875752	2.364300E+01	  0.057875752	-3.058900E+01
191	  0.058076151	-5.913000E+00	  0.058076151	-1.095180E+02	  0.058076151	2.332300E+01	  0.058076151	-2.992100E+01
192	  0.058276553	-5.911000E+00	  0.058276553	-1.108400E+02	  0.058276553	2.300000E+01	  0.058276553	-2.927000E+01
193	  0.058476955	-5.913000E+00	  0.058476955	-1.121500E+02	  0.058476955	2.270300E+01	  0.058476955	-2.862300E+01
194	  0.058677353	-5.911000E+00	  0.058677353	-1.134690E+02	  0.058677353	2.240400E+01	  0.058677353	-2.798200E+01
195	  0.058877755	-5.908000E+00	  0.058877755	-1.147280E+02	  0.058877755	2.212200E+01	  0.058877755	-2.737900E+01
196	  0.059078157	-5.908000E+00	  0.059078157	-1.160320E+02	  0.059078157	2.185300E+01	  0.059078157	-2.675300E+01
197	  0.059278559	-5.910000E+00	  0.059278559	-1.172720E+02	  0.059278559	2.160900E+01	  0.059278559	-2.616000E+01
198	  0.059478957	-5.906000E+00	  0.059478957	-1.185030E+02	  0.059478957	2.135800E+01	  0.059478957	-2.558400E+01
199	  0.059679359	-5.909000E+00	  0.059679359	-1.197420E+02	  0.059679359	2.113500E+01	  0.059679359	-2.499800E+01
200	  0.059879761	-5.914000E+00	  0.059879761	-1.209890E+02	  0.059879761	2.092500E+01	  0.059879761	-2.441100E+01
201	  0.060080159	-5.920000E+00	  0.060080159	-1.222290E+02	  0.060080159	2.072500E+01	  0.060080159	-2.383100E+01
202	  0.060280561	-5.923000E+00	  0.060280561	-1.234890E+02	  0.060280561	2.052000E+01	  0.060280561	-2.325000E+01
203	  0.060480963	-5.925000E+00	  0.060480963	-1.247630E+02	  0.060480963	2.031900E+01	  0.060480963	-2.266700E+01
204	  0.060681365	-5.929000E+00	  0.060681365	-1.260280E+02	  0.060681365	2.012900E+01	  0.060681365	-2.209100E+01
205	  0.060881764	-5.931000E+00	  0.060881764	-1.272860E+02	  0.060881764	1.994300E+01	  0.060881764	-2.152400E+01
206	  0.061082166	-5.926000E+00	  0.061082166	-1.285480E+02	  0.061082166	1.974400E+01	  0.061082166	-2.096500E+01
207	  0.061282568	-5.926000E+00	  0.061282568	-1.298190E+02	  0.061282568	1.956200E+01	  0.061282568	-2.040200E+01
208	  0.061482966	-5.920000E+00	  0.061482966	-1.310610E+02	  0.061482966	1.937500E+01	  0.061482966	-1.986000E+01
209	  0.061683368	-5.913000E+00	  0.061683368	-1.323020E+02	  0.061683368	1.919100E+01	  0.061683368	-1.932200E+01
210	  0.061883770	-5.911000E+00	  0.061883770	-1.335320E+02	  0.061883770	1.902900E+01	  0.061883770	-1.878700E+01
211	  0.062084168	-5.904000E+00	  0.062084168	-1.347310E+02	  0.062084168	1.886300E+01	  0.062084168	-1.827300E+01
212	  0.062284570	-5.899000E+00	  0.062284570	-1.359030E+02	  0.062284570	1.870900E+01	  0.062284570	-1.777100E+01
213	  0.062484972	-5.885000E+00	  0.062484972	-1.370510E+02	  0.062484972	1.854000E+01	  0.062484972	-1.728900E+01
214	  0.062685370	-5.881000E+00	  0.062685370	-1.381630E+02	  0.062685370	1.840700E+01	  0.062685370	-1.681600E+01
215	  0.062885776	-5.877000E+00	  0.062885776	-1.393490E+02	  0.062885776	1.827000E+01	  0.062885776	-1.631400E+01
216	  0.063086174	-5.878000E+00	  0.063086174	-1.405080E+02	  0.063086174	1.815400E+01	  0.063086174	-1.582300E+01
217	  0.063286573	-5.875000E+00	  0.063286573	-1.416700E+02	  0.063286573	1.803200E+01	  0.063286573	-1.533400E+01
218	  0.063486971	-5.870000E+00	  0.063486971	-1.427890E+02	  0.063486971	1.791200E+01	  0.063486971	-1.486800E+01
219	  0.063687377	-5.869000E+00	  0.063687377	-1.439380E+02	  0.063687377	1.780400E+01	  0.063687377	-1.438800E+01
220	  0.063887775	-5.857000E+00	  0.063887775	-1.450550E+02	  0.063887775	1.767300E+01	  0.063887775	-1.393000E+01
221	  0.064088173	-5.860000E+00	  0.064088173	-1.461570E+02	  0.064088173	1.758800E+01	  0.064088173	-1.347100E+01
222	  0.064288579	-5.859000E+00	  0.064288579	-1.472620E+02	  0.064288579	1.749400E+01	  0.064288579	-1.301500E+01
223	  0.064488977	-5.859000E+00	  0.064488977	-1.483490E+02	  0.064488977	1.741100E+01	  0.064488977	-1.256700E+01
224	  0.064689375	-5.858000E+00	  0.064689375	-1.494440E+02	  0.064689375	1.732500E+01	  0.064689375	-1.211900E+01
225	  0.064889781	-5.854000E+00	  0.064889781	-1.505310E+02	  0.064889781	1.723700E+01	  0.064889781	-1.167600E+01
226	  0.065090179	-5.854000E+00	  0.065090179	-1.516200E+02	  0.065090179	1.716100E+01	  0.065090179	-1.123300E+01
227	  0.065290578	-5.862000E+00	  0.065290578	-1.526980E+02	  0.065290578	1.711200E+01	  0.065290578	-1.079100E+01
228	  0.065490983	-5.860000E+00	  0.065490983	-1.538100E+02	  0.065490983	1.703900E+01	  0.065490983	-1.034100E+01
229	  0.065691382	-5.863000E+00	  0.065691382	-1.548910E+02	  0.065691382	1.698100E+01	  0.065691382	-9.904000E+00
230	  0.065891780	-5.861000E+00	  0.065891780	-1.559880E+02	  0.065891780	1.691300E+01	  0.065891780	-9.463000E+00
231	  0.066092186	-5.866000E+00	  0.066092186	-1.570440E+02	  0.066092186	1.686700E+01	  0.066092186	-9.037000E+00
232	  0.066292584	-5.863000E+00	  0.066292584	-1.581450E+02	  0.066292584	1.680400E+01	  0.066292584	-8.597000E+00
233	  0.066492982	-5.867000E+00	  0.066492982	-1.592340E+02	  0.066492982	1.676000E+01	  0.066492982	-8.161000E+00
234	  0.066693388	-5.862000E+00	  0.066693388	-1.603020E+02	  0.066693388	1.669700E+01	  0.066693388	-7.737000E+00
235	  0.066893786	-5.861000E+00	  0.066893786	-1.614040E+02	  0.066893786	1.664700E+01	  0.066893786	-7.299000E+00
236	  0.067094192	-5.861000E+00	  0.067094192	-1.624770E+02	  0.067094192	1.660300E+01	  0.067094192	-6.873000E+00
237	  0.067294590	-5.864000E+00	  0.067294590	-1.634970E+02	  0.067294590	1.657000E+01	  0.067294590	-6.469000E+00
238	  0.067494988	-5.857000E+00	  0.067494988	-1.645310E+02	  0.067494988	1.651500E+01	  0.067494988	-6.061000E+00
239	  0.067695394	-5.856000E+00	  0.067695394	-1.655510E+02	  0.067695394	1.647800E+01	  0.067695394	-5.659000E+00
240	  0.067895792	-5.855000E+00	  0.067895792	-1.665720E+02	  0.067895792	1.644300E+01	  0.067895792	-5.256000E+00
241	  0.068096191	-5.856000E+00	  0.068096191	-1.676120E+02	  0.068096191	1.641600E+01	  0.068096191	-4.847000E+00
242	  0.068296596	-5.858000E+00	  0.068296596	-1.685820E+02	  0.068296596	1.639500E+01	  0.068296596	-4.465000E+00
243	  0.068496995	-5.858000E+00	  0.068496995	-1.696080E+02	  0.068496995	1.637000E+01	  0.068496995	-4.062000E+00
244	  0.068697393	-5.855000E+00	  0.068697393	-1.706120E+02	  0.068697393	1.634100E+01	  0.068697393	-3.669000E+00
245	  0.068897791	-5.854000E+00	  0.068897791	-1.716180E+02	  0.068897791	1.631700E+01	  0.068897791	-3.275000E+00
246	  0.069098189	-5.857000E+00	  0.069098189	-1.725940E+02	  0.069098189	1.630900E+01	  0.069098189	-2.892000E+00
247	  0.069298595	-5.858000E+00	  0.069298595	-1.735710E+02	  0.069298595	1.629500E+01	  0.069298595	-2.510000E+00
248	  0.069498993	-5.867000E+00	  0.069498993	-1.745770E+02	  0.069498993	1.630500E+01	  0.069498993	-2.116000E+00
249	  0.069699399	-5.870000E+00	  0.069699399	-1.755170E+02	  0.069699399	1.630400E+01	  0.069699399	-1.748000E+00
250	  0.069899797	-5.874000E+00	  0.069899797	-1.765160E+02	  0.069899797	1.630500E+01	  0.069899797	-1.358000E+00
251	  0.070100196	-5.876000E+00	  0.070100196	-1.775180E+02	  0.070100196	1.630400E+01	  0.070100196	-9.670000E-01
252	  0.070300601	-5.883000E+00	  0.070300601	-1.784790E+02	  0.070300601	1.631700E+01	  0.070300601	-5.920000E-01
253	  0.070501000	-5.887000E+00	  0.070501000	-1.794830E+02	  0.070501000	1.632600E+01	  0.070501000	-2.010000E-01
254	  0.070701398	-5.894000E+00	  0.070701398	1.795370E+02	  0.070701398	1.634400E+01	  0.070701398	1.800000E-01
255	  0.070901804	-5.899000E+00	  0.070901804	1.785750E+02	  0.070901804	1.635800E+01	  0.070901804	5.550000E-01
256	  0.071102202	-5.905000E+00	  0.071102202	1.775760E+02	  0.071102202	1.637700E+01	  0.071102202	9.440000E-01
257	  0.071302600	-5.906000E+00	  0.071302600	1.766060E+02	  0.071302600	1.638700E+01	  0.071302600	1.322000E+00
258	  0.071503006	-5.906000E+00	  0.071503006	1.756250E+02	  0.071503006	1.639400E+01	  0.071503006	1.704000E+00
259	  0.071703404	-5.908000E+00	  0.071703404	1.746180E+02	  0.071703404	1.641000E+01	  0.071703404	2.097000E+00
260	  0.071903802	-5.909000E+00	  0.071903802	1.736370E+02	  0.071903802	1.642600E+01	  0.071903802	2.479000E+00
261	  0.072104208	-5.914000E+00	  0.072104208	1.727220E+02	  0.072104208	1.645400E+01	  0.072104208	2.836000E+00
262	  0.072304606	-5.916000E+00	  0.072304606	1.717680E+02	  0.072304606	1.647600E+01	  0.072304606	3.209000E+00
263	  0.072505005	-5.918000E+00	  0.072505005	1.708330E+02	  0.072505005	1.649700E+01	  0.072505005	3.574000E+00
264	  0.072705410	-5.922000E+00	  0.072705410	1.699070E+02	  0.072705410	1.652800E+01	  0.072705410	3.936000E+00
265	  0.072905809	-5.919000E+00	  0.072905809	1.689760E+02	  0.072905809	1.654400E+01	  0.072905809	4.300000E+00
266	  0.073106214	-5.922000E+00	  0.073106214	1.680700E+02	  0.073106214	1.657400E+01	  0.073106214	4.655000E+00
267	  0.073306613	-5.931000E+00	  0.073306613	1.671400E+02	  0.073306613	1.662300E+01	  0.073306613	5.018000E+00
268	  0.073507011	-5.934000E+00	  0.073507011	1.662460E+02	  0.073507011	1.665800E+01	  0.073507011	5.369000E+00
269	  0.073707417	-5.936000E+00	  0.073707417	1.653590E+02	  0.073707417	1.669300E+01	  0.073707417	5.717000E+00
270	  0.073907815	-5.937000E+00	  0.073907815	1.644650E+02	  0.073907815	1.672700E+01	  0.073907815	6.069000E+00
271	  0.074108213	-5.939000E+00	  0.074108213	1.636350E+02	  0.074108213	1.676100E+01	  0.074108213	6.395000E+00
272	  0.074308619	-5.948000E+00	  0.074308619	1.627380E+02	  0.074308619	1.681900E+01	  0.074308619	6.747000E+00
273	  0.074509017	-5.959000E+00	  0.074509017	1.618610E+02	  0.074509017	1.688300E+01	  0.074509017	7.091000E+00
274	  0.074709415	-5.965000E+00	  0.074709415	1.609930E+02	  0.074709415	1.693700E+01	  0.074709415	7.432000E+00
275	  0.074909821	-5.975000E+00	  0.074909821	1.600780E+02	  0.074909821	1.700400E+01	  0.074909821	7.792000E+00
276	  0.075110219	-5.982000E+00	  0.075110219	1.592140E+02	  0.075110219	1.706200E+01	  0.075110219	8.133000E+00
277	  0.075310618	-5.995000E+00	  0.075310618	1.583190E+02	  0.075310618	1.714100E+01	  0.075310618	8.484000E+00
278	  0.075511023	-6.006000E+00	  0.075511023	1.574670E+02	  0.075511023	1.721500E+01	  0.075511023	8.819000E+00
279	  0.075711422	-6.014000E+00	  0.075711422	1.565600E+02	  0.075711422	1.728600E+01	  0.075711422	9.178000E+00
280	  0.075911827	-6.025000E+00	  0.075911827	1.556700E+02	  0.075911827	1.736300E+01	  0.075911827	9.529000E+00
281	  0.076112226	-6.034000E+00	  0.076112226	1.547860E+02	  0.076112226	1.744000E+01	  0.076112226	9.879000E+00
282	  0.076312624	-6.042000E+00	  0.076312624	1.538660E+02	  0.076312624	1.751700E+01	  0.076312624	1.024500E+01
283	  0.076513030	-6.046000E+00	  0.076513030	1.529930E+02	  0.076513030	1.758400E+01	  0.076513030	1.059300E+01
284	  0.076713428	-6.057000E+00	  0.076713428	1.521430E+02	  0.076713428	1.766900E+01	  0.076713428	1.093100E+01
285	  0.076913826	-6.065000E+00	  0.076913826	1.512480E+02	  0.076913826	1.775100E+01	  0.076913826	1.128800E+01
286	  0.077114232	-6.069000E+00	  0.077114232	1.503740E+02	  0.077114232	1.782600E+01	  0.077114232	1.163900E+01
287	  0.077314630	-6.081000E+00	  0.077314630	1.494880E+02	  0.077314630	1.792100E+01	  0.077314630	1.199200E+01
288	  0.077515028	-6.088000E+00	  0.077515028	1.486490E+02	  0.077515028	1.800600E+01	  0.077515028	1.232800E+01
289	  0.077715434	-6.097000E+00	  0.077715434	1.478190E+02	  0.077715434	1.809500E+01	  0.077715434	1.266200E+01
290	  0.077915832	-6.105000E+00	  0.077915832	1.469700E+02	  0.077915832	1.818600E+01	  0.077915832	1.300300E+01
291	  0.078116231	-6.121000E+00	  0.078116231	1.461290E+02	  0.078116231	1.830000E+01	  0.078116231	1.333800E+01
292	  0.078316636	-6.131000E+00	  0.078316636	1.452860E+02	  0.078316636	1.839900E+01	  0.078316636	1.367800E+01
293	  0.078517035	-6.142000E+00	  0.078517035	1.444270E+02	  0.078517035	1.850400E+01	  0.078517035	1.402400E+01
294	  0.078717433	-6.149000E+00	  0.078717433	1.435710E+02	  0.078717433	1.860200E+01	  0.078717433	1.437200E+01
295	  0.078917839	-6.156000E+00	  0.078917839	1.427930E+02	  0.078917839	1.869500E+01	  0.078917839	1.468800E+01
296	  0.079118237	-6.165000E+00	  0.079118237	1.419810E+02	  0.079118237	1.880000E+01	  0.079118237	1.501800E+01
297	  0.079318643	-6.175000E+00	  0.079318643	1.411660E+02	  0.079318643	1.890900E+01	  0.079318643	1.534900E+01
298	  0.079519041	-6.188000E+00	  0.079519041	1.403570E+02	  0.079519041	1.902700E+01	  0.079519041	1.567700E+01
299	  0.079719439	-6.204000E+00	  0.079719439	1.395610E+02	  0.079719439	1.915500E+01	  0.079719439	1.599700E+01
300	  0.079919845	-6.220000E+00	  0.079919845	1.387140E+02	  0.079919845	1.928900E+01	  0.079919845	1.634000E+01
301	  0.080120243	-6.235000E+00	  0.080120243	1.379070E+02	  0.080120243	1.942100E+01	  0.080120243	1.666600E+01
302	  0.080320641	-6.249000E+00	  0.080320641	1.371090E+02	  0.080320641	1.955200E+01	  0.080320641	1.699000E+01
303	  0.080521047	-6.266000E+00	  0.080521047	1.362930E+02	  0.080521047	1.969600E+01	  0.080521047	1.732000E+01
304	  0.080721445	-6.288000E+00	  0.080721445	1.354810E+02	  0.080721445	1.985300E+01	  0.080721445	1.764500E+01
305	  0.080921844	-6.304000E+00	  0.080921844	1.346200E+02	  0.080921844	2.000400E+01	  0.080921844	1.799600E+01
306	  0.081122249	-6.316000E+00	  0.081122249	1.337830E+02	  0.081122249	2.014500E+01	  0.081122249	1.834000E+01
307	  0.081322648	-6.331000E+00	  0.081322648	1.329290E+02	  0.081322648	2.030000E+01	  0.081322648	1.869000E+01
308	  0.081523046	-6.347000E+00	  0.081523046	1.321040E+02	  0.081523046	2.045400E+01	  0.081523046	1.902700E+01
309	  0.081723452	-6.361000E+00	  0.081723452	1.312970E+02	  0.081723452	2.060400E+01	  0.081723452	1.936000E+01
310	  0.081923850	-6.372000E+00	  0.081923850	1.304830E+02	  0.081923850	2.075200E+01	  0.081923850	1.969700E+01
311	  0.082124248	-6.381000E+00	  0.082124248	1.296690E+02	  0.082124248	2.089500E+01	  0.082124248	2.003800E+01
312	  0.082324654	-6.392000E+00	  0.082324654	1.288580E+02	  0.082324654	2.104500E+01	  0.082324654	2.037700E+01
313	  0.082525052	-6.408000E+00	  0.082525052	1.280600E+02	  0.082525052	2.121300E+01	  0.082525052	2.070500E+01
314	  0.082725458	-6.419000E+00	  0.082725458	1.272870E+02	  0.082725458	2.136400E+01	  0.082725458	2.102900E+01
315	  0.082925856	-6.433000E+00	  0.082925856	1.265340E+02	  0.082925856	2.152300E+01	  0.082925856	2.134200E+01
316	  0.083126254	-6.452000E+00	  0.083126254	1.257920E+02	  0.083126254	2.169700E+01	  0.083126254	2.164500E+01
317	  0.083326660	-6.468000E+00	  0.083326660	1.250080E+02	  0.083326660	2.187200E+01	  0.083326660	2.197000E+01
318	  0.083527058	-6.486000E+00	  0.083527058	1.242520E+02	  0.083527058	2.205200E+01	  0.083527058	2.228100E+01
319	  0.083727457	-6.497000E+00	  0.083727457	1.235190E+02	  0.083727457	2.221200E+01	  0.083727457	2.258900E+01
320	  0.083927862	-6.513000E+00	  0.083927862	1.227230E+02	  0.083927862	2.240000E+01	  0.083927862	2.292100E+01
321	  0.084128261	-6.528000E+00	  0.084128261	1.219890E+02	  0.084128261	2.257700E+01	  0.084128261	2.322600E+01
322	  0.084328659	-6.544000E+00	  0.084328659	1.212590E+02	  0.084328659	2.275800E+01	  0.084328659	2.352900E+01
323	  0.084529065	-6.562000E+00	  0.084529065	1.205640E+02	  0.084529065	2.294200E+01	  0.084529065	2.381500E+01
324	  0.084729463	-6.584000E+00	  0.084729463	1.198230E+02	  0.084729463	2.314900E+01	  0.084729463	2.411600E+01
325	  0.084929861	-6.604000E+00	  0.084929861	1.191080E+02	  0.084929861	2.335000E+01	  0.084929861	2.440700E+01
326	  0.085130267	-6.621000E+00	  0.085130267	1.184260E+02	  0.085130267	2.353600E+01	  0.085130267	2.468900E+01
327	  0.085330658	-6.644000E+00	  0.085330658	1.177040E+02	  0.085330658	2.375200E+01	  0.085330658	2.498000E+01
328	  0.085531056	-6.669000E+00	  0.085531056	1.170120E+02	  0.085531056	2.397000E+01	  0.085531056	2.525600E+01
329	  0.085731462	-6.698000E+00	  0.085731462	1.162800E+02	  0.085731462	2.421100E+01	  0.085731462	2.554300E+01
330	  0.085931860	-6.724000E+00	  0.085931860	1.155690E+02	  0.085931860	2.444300E+01	  0.085931860	2.582400E+01
331	  0.086132258	-6.747000E+00	  0.086132258	1.148310E+02	  0.086132258	2.467600E+01	  0.086132258	2.612200E+01
332	  0.086332664	-6.769000E+00	  0.086332664	1.141120E+02	  0.086332664	2.490500E+01	  0.086332664	2.641100E+01
333	  0.086533062	-6.793000E+00	  0.086533062	1.133570E+02	  0.086533062	2.515000E+01	  0.086533062	2.671500E+01
334	  0.086733460	-6.812000E+00	  0.086733460	1.126480E+02	  0.086733460	2.537500E+01	  0.086733460	2.700500E+01
335	  0.086933866	-6.836000E+00	  0.086933866	1.119090E+02	  0.086933866	2.562700E+01	  0.086933866	2.729900E+01
336	  0.087134264	-6.862000E+00	  0.087134264	1.112010E+02	  0.087134264	2.587700E+01	  0.087134264	2.757800E+01
337	  0.087334670	-6.878000E+00	  0.087334670	1.105350E+02	  0.087334670	2.609400E+01	  0.087334670	2.785200E+01
338	  0.087535068	-6.899000E+00	  0.087535068	1.098380E+02	  0.087535068	2.633600E+01	  0.087535068	2.813200E+01
339	  0.087735467	-6.921000E+00	  0.087735467	1.091580E+02	  0.087735467	2.657700E+01	  0.087735467	2.840400E+01
340	  0.087935872	-6.943000E+00	  0.087935872	1.084650E+02	  0.087935872	2.682800E+01	  0.087935872	2.867900E+01
341	  0.088136271	-6.970000E+00	  0.088136271	1.078050E+02	  0.088136271	2.708800E+01	  0.088136271	2.893100E+01
342	  0.088336669	-6.997000E+00	  0.088336669	1.071530E+02	  0.088336669	2.734800E+01	  0.088336669	2.917800E+01
343	  0.088537075	-7.028000E+00	  0.088537075	1.064780E+02	  0.088537075	2.763300E+01	  0.088537075	2.942600E+01
344	  0.088737473	-7.050000E+00	  0.088737473	1.057980E+02	  0.088737473	2.789400E+01	  0.088737473	2.969400E+01
345	  0.088937871	-7.080000E+00	  0.088937871	1.051270E+02	  0.088937871	2.818000E+01	  0.088937871	2.994000E+01
346	  0.089138277	-7.105000E+00	  0.089138277	1.044140E+02	  0.089138277	2.846400E+01	  0.089138277	3.021700E+01
347	  0.089338675	-7.133000E+00	  0.089338675	1.037840E+02	  0.089338675	2.874100E+01	  0.089338675	3.044500E+01
348	  0.089539073	-7.160000E+00	  0.089539073	1.030790E+02	  0.089539073	2.903700E+01	  0.089539073	3.071200E+01
349	  0.089739479	-7.190000E+00	  0.089739479	1.024390E+02	  0.089739479	2.932900E+01	  0.089739479	3.093900E+01
350	  0.089939877	-7.212000E+00	  0.089939877	1.017980E+02	  0.089939877	2.959900E+01	  0.089939877	3.118400E+01
351	  0.090140276	-7.241000E+00	  0.090140276	1.011610E+02	  0.090140276	2.989200E+01	  0.090140276	3.141100E+01
352	  0.090340681	-7.268000E+00	  0.090340681	1.004880E+02	  0.090340681	3.019600E+01	  0.090340681	3.165600E+01
353	  0.090541080	-7.297000E+00	  0.090541080	9.985700E+01	  0.090541080	3.049400E+01	  0.090541080	3.187700E+01
354	  0.090741485	-7.327000E+00	  0.090741485	9.924000E+01	  0.090741485	3.079600E+01	  0.090741485	3.208600E+01
355	  0.090941884	-7.361000E+00	  0.090941884	9.862100E+01	  0.090941884	3.111000E+01	  0.090941884	3.228800E+01
356	  0.091142282	-7.386000E+00	  0.091142282	9.798900E+01	  0.091142282	3.141000E+01	  0.091142282	3.251200E+01
357	  0.091342688	-7.416000E+00	  0.091342688	9.735000E+01	  0.091342688	3.172900E+01	  0.091342688	3.272700E+01
358	  0.091543086	-7.447000E+00	  0.091543086	9.670800E+01	  0.091543086	3.205300E+01	  0.091543086	3.294100E+01
359	  0.091743484	-7.473000E+00	  0.091743484	9.607900E+01	  0.091743484	3.236300E+01	  0.091743484	3.315800E+01
360	  0.091943890	-7.503000E+00	  0.091943890	9.545200E+01	  0.091943890	3.268700E+01	  0.091943890	3.336200E+01
361	  0.092144288	-7.528000E+00	  0.092144288	9.483900E+01	  0.092144288	3.299600E+01	  0.092144288	3.357100E+01
362	  0.092344686	-7.551000E+00	  0.092344686	9.426500E+01	  0.092344686	3.328700E+01	  0.092344686	3.376500E+01
363	  0.092545092	-7.575000E+00	  0.092545092	9.372500E+01	  0.092545092	3.357200E+01	  0.092545092	3.393900E+01
364	  0.092745490	-7.598000E+00	  0.092745490	9.317400E+01	  0.092745490	3.385800E+01	  0.092745490	3.412200E+01
365	  0.092945889	-7.623000E+00	  0.092945889	9.259400E+01	  0.092945889	3.416500E+01	  0.092945889	3.431100E+01
366	  0.093146294	-7.649000E+00	  0.093146294	9.208300E+01	  0.093146294	3.445000E+01	  0.093146294	3.446300E+01
367	  0.093346693	-7.681000E+00	  0.093346693	9.159100E+01	  0.093346693	3.474800E+01	  0.093346693	3.459000E+01
368	  0.093547091	-7.711000E+00	  0.093547091	9.109600E+01	  0.093547091	3.504300E+01	  0.093547091	3.472000E+01
369	  0.093747497	-7.739000E+00	  0.093747497	9.062200E+01	  0.093747497	3.532600E+01	  0.093747497	3.484400E+01
370	  0.093947895	-7.773000E+00	  0.093947895	9.009900E+01	  0.093947895	3.564800E+01	  0.093947895	3.497300E+01
371	  0.094148301	-7.804000E+00	  0.094148301	8.959600E+01	  0.094148301	3.595500E+01	  0.094148301	3.509800E+01
372	  0.094348699	-7.832000E+00	  0.094348699	8.908500E+01	  0.094348699	3.626200E+01	  0.094348699	3.523100E+01
373	  0.094549097	-7.864000E+00	  0.094549097	8.859400E+01	  0.094549097	3.657100E+01	  0.094549097	3.534400E+01
374	  0.094749503	-7.899000E+00	  0.094749503	8.811100E+01	  0.094749503	3.688700E+01	  0.094749503	3.544300E+01
375	  0.094949901	-7.927000E+00	  0.094949901	8.761900E+01	  0.094949901	3.718900E+01	  0.094949901	3.556400E+01
376	  0.095150299	-7.951000E+00	  0.095150299	8.714300E+01	  0.095150299	3.747500E+01	  0.095150299	3.568700E+01
377	  0.095350705	-7.986000E+00	  0.095350705	8.663200E+01	  0.095350705	3.781000E+01	  0.095350705	3.579000E+01
378	  0.095551103	-8.016000E+00	  0.095551103	8.615600E+01	  0.095551103	3.811800E+01	  0.095551103	3.589000E+01
379	  0.095751502	-8.043000E+00	  0.095751502	8.571600E+01	  0.095751502	3.840200E+01	  0.095751502	3.598200E+01
380	  0.095951907	-8.078000E+00	  0.095951907	8.521500E+01	  0.095951907	3.873600E+01	  0.095951907	3.607500E+01
381	  0.096152306	-8.110000E+00	  0.096152306	8.475200E+01	  0.096152306	3.904800E+01	  0.096152306	3.615600E+01
382	  0.096352704	-8.141000E+00	  0.096352704	8.429800E+01	  0.096352704	3.935600E+01	  0.096352704	3.623300E+01
383	  0.096553110	-8.168000E+00	  0.096553110	8.380800E+01	  0.096553110	3.966900E+01	  0.096553110	3.633800E+01
384	  0.096753508	-8.195000E+00	  0.096753508	8.331700E+01	  0.096753508	3.998800E+01	  0.096753508	3.643900E+01
385	  0.096953906	-8.224000E+00	  0.096953906	8.280600E+01	  0.096953906	4.032300E+01	  0.096953906	3.653900E+01
386	  0.097154312	-8.249000E+00	  0.097154312	8.234500E+01	  0.097154312	4.062500E+01	  0.097154312	3.663100E+01
387	  0.097354710	-8.277000E+00	  0.097354710	8.191200E+01	  0.097354710	4.092200E+01	  0.097354710	3.669900E+01
388	  0.097555116	-8.291000E+00	  0.097555116	8.143100E+01	  0.097555116	4.121000E+01	  0.097555116	3.683300E+01
389	  0.097755514	-8.308000E+00	  0.097755514	8.098200E+01	  0.097755514	4.149000E+01	  0.097755514	3.694200E+01
390	  0.097955912	-8.326000E+00	  0.097955912	8.054900E+01	  0.097955912	4.176800E+01	  0.097955912	3.703900E+01
391	  0.098156318	-8.346000E+00	  0.098156318	8.015000E+01	  0.098156318	4.203200E+01	  0.098156318	3.711700E+01
392	  0.098356716	-8.361000E+00	  0.098356716	7.971700E+01	  0.098356716	4.230600E+01	  0.098356716	3.722000E+01
393	  0.098557115	-8.379000E+00	  0.098557115	7.931500E+01	  0.098557115	4.257100E+01	  0.098557115	3.730200E+01
394	  0.098757520	-8.394000E+00	  0.098757520	7.894900E+01	  0.098757520	4.281100E+01	  0.098757520	3.737800E+01
395	  0.098957919	-8.406000E+00	  0.098957919	7.860000E+01	  0.098957919	4.303400E+01	  0.098957919	3.746100E+01
396	  0.099158317	-8.421000E+00	  0.099158317	7.815400E+01	  0.099158317	4.332200E+01	  0.099158317	3.756400E+01
397	  0.099358723	-8.440000E+00	  0.099358723	7.778600E+01	  0.099358723	4.357700E+01	  0.099358723	3.762100E+01
398	  0.099559121	-8.453000E+00	  0.099559121	7.740500E+01	  0.099559121	4.382600E+01	  0.099559121	3.770500E+01
399	  0.099759519	-8.467000E+00	  0.099759519	7.702800E+01	  0.099759519	4.407500E+01	  0.099759519	3.778300E+01
400	  0.099959925	-8.478000E+00	  0.099959925	7.662000E+01	  0.099959925	4.433900E+01	  0.099959925	3.788200E+01
401	  0.100160323	-8.488000E+00	  0.100160323	7.624700E+01	  0.100160323	4.458000E+01	  0.100160323	3.797200E+01
402	  0.100360721	-8.496000E+00	  0.100360721	7.590900E+01	  0.100360721	4.480000E+01	  0.100360721	3.805400E+01
403	  0.100561127	-8.511000E+00	  0.100561127	7.550200E+01	  0.100561127	4.507500E+01	  0.100561127	3.813400E+01
404	  0.100761525	-8.505000E+00	  0.100761525	7.505800E+01	  0.100761525	4.533000E+01	  0.100761525	3.830600E+01
405	  0.100961931	-8.519000E+00	  0.100961931	7.477800E+01	  0.100961931	4.553100E+01	  0.100961931	3.834200E+01
406	  0.101162329	-8.536000E+00	  0.101162329	7.437100E+01	  0.101162329	4.581700E+01	  0.101162329	3.840600E+01
407	  0.101362728	-8.533000E+00	  0.101362728	7.401400E+01	  0.101362728	4.603200E+01	  0.101362728	3.853500E+01
408	  0.101563133	-8.546000E+00	  0.101563133	7.355800E+01	  0.101563133	4.634400E+01	  0.101563133	3.862900E+01
409	  0.101763532	-8.546000E+00	  0.101763532	7.314800E+01	  0.101763532	4.659900E+01	  0.101763532	3.876400E+01
410	  0.101963930	-8.557000E+00	  0.101963930	7.281500E+01	  0.101963930	4.683300E+01	  0.101963930	3.882200E+01
411	  0.102164336	-8.544000E+00	  0.102164336	7.235800E+01	  0.102164336	4.709700E+01	  0.102164336	3.902300E+01
412	  0.102364734	-8.554000E+00	  0.102364734	7.193300E+01	  0.102364734	4.739400E+01	  0.102364734	3.910900E+01
413	  0.102565132	-8.550000E+00	  0.102565132	7.156800E+01	  0.102565132	4.762200E+01	  0.102565132	3.924100E+01
414	  0.102765530	-8.542000E+00	  0.102765530	7.108900E+01	  0.102765530	4.792100E+01	  0.102765530	3.942200E+01
415	  0.102965929	-8.541000E+00	  0.102965929	7.060300E+01	  0.102965929	4.824000E+01	  0.102965929	3.957500E+01
416	  0.103166327	-8.530000E+00	  0.103166327	7.022000E+01	  0.103166327	4.847500E+01	  0.103166327	3.974000E+01
417	  0.103366733	-8.522000E+00	  0.103366733	6.983700E+01	  0.103366733	4.871600E+01	  0.103366733	3.989400E+01
418	  0.103567131	-8.513000E+00	  0.103567131	6.940600E+01	  0.103567131	4.899200E+01	  0.103567131	4.006300E+01
419	  0.103767529	-8.508000E+00	  0.103767529	6.897800E+01	  0.103767529	4.927800E+01	  0.103767529	4.021200E+01
420	  0.103967935	-8.498000E+00	  0.103967935	6.853800E+01	  0.103967935	4.956400E+01	  0.103967935	4.038700E+01
421	  0.104168333	-8.496000E+00	  0.104168333	6.810600E+01	  0.104168333	4.986300E+01	  0.104168333	4.052100E+01
422	  0.104368731	-8.487000E+00	  0.104368731	6.765400E+01	  0.104368731	5.016800E+01	  0.104368731	4.069200E+01
423	  0.104569137	-8.480000E+00	  0.104569137	6.720100E+01	  0.104569137	5.047900E+01	  0.104569137	4.085300E+01
424	  0.104769535	-8.467000E+00	  0.104769535	6.683300E+01	  0.104769535	5.072100E+01	  0.104769535	4.102000E+01
425	  0.104969934	-8.469000E+00	  0.104969934	6.639500E+01	  0.104969934	5.104500E+01	  0.104969934	4.113100E+01
426	  0.105170339	-8.457000E+00	  0.105170339	6.590400E+01	  0.105170339	5.138300E+01	  0.105170339	4.132700E+01
427	  0.105370738	-8.459000E+00	  0.105370738	6.550000E+01	  0.105370738	5.168800E+01	  0.105370738	4.142600E+01
428	  0.105571143	-8.452000E+00	  0.105571143	6.498100E+01	  0.105571143	5.206600E+01	  0.105571143	4.159800E+01
429	  0.105771542	-8.440000E+00	  0.105771542	6.456000E+01	  0.105771542	5.236500E+01	  0.105771542	4.177100E+01
430	  0.105971940	-8.430000E+00	  0.105971940	6.407800E+01	  0.105971940	5.271800E+01	  0.105971940	4.194500E+01
431	  0.106172346	-8.424000E+00	  0.106172346	6.360600E+01	  0.106172346	5.307400E+01	  0.106172346	4.209900E+01
432	  0.106372744	-8.421000E+00	  0.106372744	6.311100E+01	  0.106372744	5.345700E+01	  0.106372744	4.223800E+01
433	  0.106573142	-8.420000E+00	  0.106573142	6.261800E+01	  0.106573142	5.384600E+01	  0.106573142	4.236600E+01
434	  0.106773548	-8.412000E+00	  0.106773548	6.216000E+01	  0.106773548	5.420000E+01	  0.106773548	4.251800E+01
435	  0.106973946	-8.399000E+00	  0.106973946	6.158700E+01	  0.106973946	5.464400E+01	  0.106973946	4.272200E+01
436	  0.107174344	-8.395000E+00	  0.107174344	6.110400E+01	  0.107174344	5.503200E+01	  0.107174344	4.285800E+01
437	  0.107374750	-8.383000E+00	  0.107374750	6.057500E+01	  0.107374750	5.545300E+01	  0.107374750	4.304300E+01
438	  0.107575148	-8.379000E+00	  0.107575148	6.007100E+01	  0.107575148	5.586900E+01	  0.107575148	4.317500E+01
439	  0.107775547	-8.370000E+00	  0.107775547	5.952800E+01	  0.107775547	5.631600E+01	  0.107775547	4.334200E+01
440	  0.107975952	-8.368000E+00	  0.107975952	5.898500E+01	  0.107975952	5.678000E+01	  0.107975952	4.346200E+01
441	  0.108176351	-8.363000E+00	  0.108176351	5.847100E+01	  0.108176351	5.721800E+01	  0.108176351	4.359600E+01
442	  0.108376749	-8.357000E+00	  0.108376749	5.786600E+01	  0.108376749	5.774100E+01	  0.108376749	4.374500E+01
443	  0.108577155	-8.337000E+00	  0.108577155	5.738600E+01	  0.108577155	5.814100E+01	  0.108577155	4.395600E+01
444	  0.108777553	-8.328000E+00	  0.108777553	5.680000E+01	  0.108777553	5.865700E+01	  0.108777553	4.411200E+01
445	  0.108977959	-8.316000E+00	  0.108977959	5.629800E+01	  0.108977959	5.909800E+01	  0.108977959	4.427200E+01
446	  0.109178357	-8.311000E+00	  0.109178357	5.570100E+01	  0.109178357	5.964200E+01	  0.109178357	4.440100E+01
447	  0.109378755	-8.298000E+00	  0.109378755	5.512600E+01	  0.109378755	6.016400E+01	  0.109378755	4.456400E+01
448	  0.109579161	-8.287000E+00	  0.109579161	5.455000E+01	  0.109579161	6.069600E+01	  0.109579161	4.471800E+01
449	  0.109779559	-8.276000E+00	  0.109779559	5.396800E+01	  0.109779559	6.124100E+01	  0.109779559	4.486800E+01
450	  0.109979957	-8.264000E+00	  0.109979957	5.345300E+01	  0.109979957	6.172700E+01	  0.109979957	4.501000E+01
451	  0.110180363	-8.264000E+00	  0.110180363	5.279400E+01	  0.110180363	6.237000E+01	  0.110180363	4.509300E+01
452	  0.110380761	-8.240000E+00	  0.110380761	5.225600E+01	  0.110380761	6.288400E+01	  0.110380761	4.530500E+01
453	  0.110581160	-8.229000E+00	  0.110581160	5.156800E+01	  0.110581160	6.356600E+01	  0.110581160	4.544500E+01
454	  0.110781565	-8.226000E+00	  0.110781565	5.096600E+01	  0.110781565	6.417500E+01	  0.110781565	4.551900E+01
455	  0.110981964	-8.207000E+00	  0.110981964	5.033400E+01	  0.110981964	6.481500E+01	  0.110981964	4.569000E+01
456	  0.111182362	-8.193000E+00	  0.111182362	4.978400E+01	  0.111182362	6.538100E+01	  0.111182362	4.582300E+01
457	  0.111382768	-8.185000E+00	  0.111382768	4.907400E+01	  0.111382768	6.612600E+01	  0.111382768	4.591100E+01
458	  0.111583166	-8.164000E+00	  0.111583166	4.846500E+01	  0.111583166	6.677000E+01	  0.111583166	4.607900E+01
459	  0.111783572	-8.156000E+00	  0.111783572	4.783000E+01	  0.111783572	6.745600E+01	  0.111783572	4.615400E+01
460	  0.111983970	-8.144000E+00	  0.111983970	4.712500E+01	  0.111983970	6.822700E+01	  0.111983970	4.624000E+01
461	  0.112184368	-8.138000E+00	  0.112184368	4.647000E+01	  0.112184368	6.895300E+01	  0.112184368	4.628100E+01
462	  0.112384774	-8.127000E+00	  0.112384774	4.585000E+01	  0.112384774	6.964900E+01	  0.112384774	4.634400E+01
463	  0.112585172	-8.122000E+00	  0.112585172	4.515900E+01	  0.112585172	7.043300E+01	  0.112585172	4.635200E+01
464	  0.112785570	-8.111000E+00	  0.112785570	4.450200E+01	  0.112785570	7.119100E+01	  0.112785570	4.639100E+01
465	  0.112985976	-8.109000E+00	  0.112985976	4.378000E+01	  0.112985976	7.203000E+01	  0.112985976	4.634800E+01
466	  0.113186374	-8.094000E+00	  0.113186374	4.304700E+01	  0.113186374	7.289800E+01	  0.113186374	4.638300E+01
467	  0.113386773	-8.091000E+00	  0.113386773	4.231900E+01	  0.113386773	7.376500E+01	  0.113386773	4.631500E+01
468	  0.113587178	-8.087000E+00	  0.113587178	4.163400E+01	  0.113587178	7.459000E+01	  0.113587178	4.624800E+01
469	  0.113787577	-8.090000E+00	  0.113787577	4.083900E+01	  0.113787577	7.554900E+01	  0.113787577	4.608400E+01
470	  0.113987975	-8.088000E+00	  0.113987975	4.008600E+01	  0.113987975	7.647000E+01	  0.113987975	4.594400E+01
471	  0.114188381	-8.098000E+00	  0.114188381	3.934600E+01	  0.114188381	7.736700E+01	  0.114188381	4.569600E+01
472	  0.114388779	-8.101000E+00	  0.114388779	3.852900E+01	  0.114388779	7.837300E+01	  0.114388779	4.546000E+01
473	  0.114589177	-8.097000E+00	  0.114589177	3.772300E+01	  0.114589177	7.938600E+01	  0.114589177	4.525300E+01
474	  0.114789583	-8.112000E+00	  0.114789583	3.685800E+01	  0.114789583	8.044400E+01	  0.114789583	4.485500E+01
475	  0.114989981	-8.118000E+00	  0.114989981	3.606200E+01	  0.114989981	8.143400E+01	  0.114989981	4.451900E+01
476	  0.115190387	-8.125000E+00	  0.115190387	3.520800E+01	  0.115190387	8.249800E+01	  0.115190387	4.412100E+01
477	  0.115390785	-8.140000E+00	  0.115390785	3.435300E+01	  0.115390785	8.354200E+01	  0.115390785	4.362700E+01
478	  0.115591183	-8.150000E+00	  0.115591183	3.343100E+01	  0.115591183	8.468600E+01	  0.115591183	4.311000E+01
479	  0.115791589	-8.163000E+00	  0.115791589	3.253300E+01	  0.115791589	8.578600E+01	  0.115791589	4.254100E+01
480	  0.115991987	-8.173000E+00	  0.115991987	3.162300E+01	  0.115991987	8.690800E+01	  0.115991987	4.195200E+01
481	  0.116192386	-8.195000E+00	  0.116192386	3.069100E+01	  0.116192386	8.800400E+01	  0.116192386	4.121200E+01
482	  0.116392791	-8.204000E+00	  0.116392791	2.974700E+01	  0.116392791	8.916000E+01	  0.116392791	4.053400E+01
483	  0.116593190	-8.220000E+00	  0.116593190	2.883500E+01	  0.116593190	9.023400E+01	  0.116593190	3.977400E+01
484	  0.116793588	-8.245000E+00	  0.116793588	2.783000E+01	  0.116793588	9.136300E+01	  0.116793588	3.882800E+01
485	  0.116993994	-8.262000E+00	  0.116993994	2.690600E+01	  0.116993994	9.241800E+01	  0.116993994	3.797600E+01
486	  0.117194392	-8.281000E+00	  0.117194392	2.591200E+01	  0.117194392	9.352400E+01	  0.117194392	3.700000E+01
487	  0.117394790	-8.297000E+00	  0.117394790	2.490600E+01	  0.117394790	9.463700E+01	  0.117394790	3.599200E+01
488	  0.117595196	-8.329000E+00	  0.117595196	2.398000E+01	  0.117595196	9.553000E+01	  0.117595196	3.488800E+01
489	  0.117795594	-8.361000E+00	  0.117795594	2.291800E+01	  0.117795594	9.654700E+01	  0.117795594	3.362000E+01
490	  0.117995992	-8.388000E+00	  0.117995992	2.191400E+01	  0.117995992	9.748300E+01	  0.117995992	3.239500E+01
491	  0.118196398	-8.425000E+00	  0.118196398	2.092800E+01	  0.118196398	9.830100E+01	  0.118196398	3.109000E+01
492	  0.118396796	-8.463000E+00	  0.118396796	1.987900E+01	  0.118396796	9.912000E+01	  0.118396796	2.966900E+01
493	  0.118597202	-8.508000E+00	  0.118597202	1.885300E+01	  0.118597202	9.980900E+01	  0.118597202	2.819500E+01
494	  0.118797600	-8.551000E+00	  0.118797600	1.783400E+01	  0.118797600	1.004530E+02	  0.118797600	2.671800E+01
495	  0.118997999	-8.600000E+00	  0.118997999	1.670500E+01	  0.118997999	1.010890E+02	  0.118997999	2.505000E+01
496	  0.119198404	-8.653000E+00	  0.119198404	1.563800E+01	  0.119198404	1.015620E+02	  0.119198404	2.341100E+01
497	  0.119398803	-8.715000E+00	  0.119398803	1.451800E+01	  0.119398803	1.019380E+02	  0.119398803	2.164800E+01
498	  0.119599201	-8.775000E+00	  0.119599201	1.336700E+01	  0.119599201	1.022650E+02	  0.119599201	1.984700E+01
499	  0.119799607	-8.841000E+00	  0.119799607	1.226200E+01	  0.119799607	1.024360E+02	  0.119799607	1.808400E+01
500	  0.120000005	-8.912000E+00	  0.120000005	1.104400E+01	  0.120000005	1.025560E+02	  0.120000005	1.615900E+01
