! Anritsu VNA Master:             	Model: MS2036C/10/77
! SN:             	1601066
! /card0/usr/18may27.balun/252b.r20.5.txt
! Existing Calibration Information:
! TYPE:             	Current Settings	Active Cal Settings
! TIME:             	05/27/2018 01:24:30 PM	05/27/2018 01:14:08 PM
! INTERNAL TEMP:    	52.0 C	52.0 C
! # POINTS:         	500	500
! START FREQ:       	20.000 MHz	20.000 MHz
! STOP FREQ:        	120.000 MHz	120.000 MHz
! SOURCE POWER:     	High	High
! IFBW:             	50 Hz	50 Hz
! AVG FACTOR:       	  1 	  1 
! REF PLANE 1:      	0 mm	0 mm
! REF PLANE 2:      	0 mm	0 mm
! CAL TYPE:         	Full S11	Full S11
! CAL METHOD:       	SOLT	SOLT
! CAL LINE TYPE:    	Coax	Coax
! DUT PORT 1:       	K-Conn(M)	K-Conn(M)
! DUT PORT 2:       	K-Conn(M)	K-Conn(M)
! CAL STATUS:       	OK: Accuracy High	--
! PROP-V:       	0.700
! CABLE LOSS:       	0.000 dB/m
! REF IMPEDANCE:       	50.0
! Trace Specific Parameters:	TR1	TR2	TR3	TR4
! TRACE.#.Y (GRAPH TYPE)	LOG MAG	PHASE	REAL IMPEDANCE	IMAGINARY IMPEDANCE
! TRACE.#.X 	FREQ.GHZ	FREQ.GHZ	FREQ.GHZ	FREQ.GHZ
! S-PARAMETER	S11	S11	S11	S11
! SMOOTH/APERTURE %	0	0	0	0
! WINDOW	NSL	NSL	NSL	NSL
! GATING	OFF	OFF	OFF	OFF
! FGTD	OFF	OFF	OFF	OFF
Marker Information per Trace:	TR1	TR2	TR3	TR4
!MK1	--	--	--	"MK1 TR4:  70.100 200 MHz,Z:(32.574 ohm, 35.040 ohm)"
!MK2	--	--	--	--
!MK3	--	--	--	--
!MK4	--	--	--	--
!MK5	--	--	--	--
!MK6	--	--	--	--
!MK7	--	--	--	--
!MK8	--	--	--	--
PNT	TR1.FREQ.GHZ	TR1.LOG MAG.dB	TR2.FREQ.GHZ	TR2.PHASE.deg	TR3.FREQ.GHZ	TR3.REAL IMPEDANCE.ohm	TR4.FREQ.GHZ	TR4.IMAGINARY IMPEDANCE.ohm
1	  0.020000000	-7.288000E+00	  0.020000000	1.545550E+02	  0.020000000	2.067200E+01	  0.020000000	9.437000E+00
2	  0.020200402	-7.290000E+00	  0.020200402	1.543120E+02	  0.020200402	2.069400E+01	  0.020200402	9.528000E+00
3	  0.020400802	-7.287000E+00	  0.020400802	1.540790E+02	  0.020400802	2.070200E+01	  0.020400802	9.617000E+00
4	  0.020601204	-7.286000E+00	  0.020601204	1.538370E+02	  0.020601204	2.071600E+01	  0.020601204	9.709000E+00
5	  0.020801604	-7.284000E+00	  0.020801604	1.535550E+02	  0.020801604	2.073100E+01	  0.020801604	9.817000E+00
6	  0.021002004	-7.280000E+00	  0.021002004	1.533040E+02	  0.021002004	2.073900E+01	  0.021002004	9.913000E+00
7	  0.021202406	-7.279000E+00	  0.021202406	1.530610E+02	  0.021202406	2.075400E+01	  0.021202406	1.000600E+01
8	  0.021402806	-7.284000E+00	  0.021402806	1.528100E+02	  0.021402806	2.078500E+01	  0.021402806	1.009900E+01
9	  0.021603208	-7.284000E+00	  0.021603208	1.525890E+02	  0.021603208	2.080200E+01	  0.021603208	1.018200E+01
10	  0.021803608	-7.288000E+00	  0.021803608	1.523320E+02	  0.021803608	2.083100E+01	  0.021803608	1.027800E+01
11	  0.022004008	-7.291000E+00	  0.022004008	1.521100E+02	  0.022004008	2.085400E+01	  0.022004008	1.036100E+01
12	  0.022204408	-7.292000E+00	  0.022204408	1.518720E+02	  0.022204408	2.087600E+01	  0.022204408	1.045000E+01
13	  0.022404809	-7.292000E+00	  0.022404809	1.516260E+02	  0.022404809	2.089400E+01	  0.022404809	1.054300E+01
14	  0.022605211	-7.297000E+00	  0.022605211	1.513810E+02	  0.022605211	2.092700E+01	  0.022605211	1.063400E+01
15	  0.022805611	-7.297000E+00	  0.022805611	1.511260E+02	  0.022805611	2.094600E+01	  0.022805611	1.073100E+01
16	  0.023006011	-7.295000E+00	  0.023006011	1.508810E+02	  0.023006011	2.096000E+01	  0.023006011	1.082500E+01
17	  0.023206413	-7.294000E+00	  0.023206413	1.506050E+02	  0.023206413	2.097900E+01	  0.023206413	1.093100E+01
18	  0.023406813	-7.296000E+00	  0.023406813	1.503390E+02	  0.023406813	2.100700E+01	  0.023406813	1.103000E+01
19	  0.023607215	-7.295000E+00	  0.023607215	1.500630E+02	  0.023607215	2.102600E+01	  0.023607215	1.113600E+01
20	  0.023807615	-7.294000E+00	  0.023807615	1.497880E+02	  0.023807615	2.104700E+01	  0.023807615	1.124100E+01
21	  0.024008015	-7.296000E+00	  0.024008015	1.495320E+02	  0.024008015	2.107300E+01	  0.024008015	1.133800E+01
22	  0.024208417	-7.295000E+00	  0.024208417	1.493100E+02	  0.024208417	2.108900E+01	  0.024208417	1.142300E+01
23	  0.024408817	-7.299000E+00	  0.024408817	1.490650E+02	  0.024408817	2.112000E+01	  0.024408817	1.151400E+01
24	  0.024609219	-7.303000E+00	  0.024609219	1.488420E+02	  0.024609219	2.115000E+01	  0.024609219	1.159700E+01
25	  0.024809619	-7.303000E+00	  0.024809619	1.485850E+02	  0.024809619	2.117100E+01	  0.024809619	1.169500E+01
26	  0.025010020	-7.304000E+00	  0.025010020	1.483490E+02	  0.025010020	2.119400E+01	  0.025010020	1.178500E+01
27	  0.025210422	-7.306000E+00	  0.025210422	1.480950E+02	  0.025210422	2.122100E+01	  0.025210422	1.188100E+01
28	  0.025410822	-7.313000E+00	  0.025410822	1.478150E+02	  0.025410822	2.126300E+01	  0.025410822	1.198400E+01
29	  0.025611224	-7.312000E+00	  0.025611224	1.475330E+02	  0.025611224	2.128600E+01	  0.025611224	1.209200E+01
30	  0.025811624	-7.307000E+00	  0.025811624	1.472330E+02	  0.025811624	2.130000E+01	  0.025811624	1.221000E+01
31	  0.026012026	-7.302000E+00	  0.026012026	1.469760E+02	  0.026012026	2.131200E+01	  0.026012026	1.231200E+01
32	  0.026212426	-7.297000E+00	  0.026212426	1.466970E+02	  0.026212426	2.132400E+01	  0.026212426	1.242200E+01
33	  0.026412826	-7.294000E+00	  0.026412826	1.464260E+02	  0.026412826	2.134300E+01	  0.026412826	1.252800E+01
34	  0.026613226	-7.295000E+00	  0.026613226	1.462050E+02	  0.026613226	2.136500E+01	  0.026613226	1.261200E+01
35	  0.026813626	-7.289000E+00	  0.026813626	1.459860E+02	  0.026813626	2.137000E+01	  0.026813626	1.270000E+01
36	  0.027014028	-7.287000E+00	  0.027014028	1.457750E+02	  0.027014028	2.138700E+01	  0.027014028	1.278200E+01
37	  0.027214428	-7.294000E+00	  0.027214428	1.455860E+02	  0.027214428	2.142000E+01	  0.027214428	1.285100E+01
38	  0.027414829	-7.291000E+00	  0.027414829	1.453740E+02	  0.027414829	2.143300E+01	  0.027414829	1.293500E+01
39	  0.027615231	-7.292000E+00	  0.027615231	1.451590E+02	  0.027615231	2.145700E+01	  0.027615231	1.301700E+01
40	  0.027815631	-7.298000E+00	  0.027815631	1.449170E+02	  0.027815631	2.149700E+01	  0.027815631	1.310600E+01
41	  0.028016033	-7.301000E+00	  0.028016033	1.446630E+02	  0.028016033	2.152900E+01	  0.028016033	1.320200E+01
42	  0.028216433	-7.303000E+00	  0.028216433	1.443910E+02	  0.028216433	2.156200E+01	  0.028216433	1.330600E+01
43	  0.028416833	-7.303000E+00	  0.028416833	1.441190E+02	  0.028416833	2.158900E+01	  0.028416833	1.341100E+01
44	  0.028617235	-7.303000E+00	  0.028617235	1.438640E+02	  0.028617235	2.161600E+01	  0.028617235	1.350900E+01
45	  0.028817635	-7.303000E+00	  0.028817635	1.435700E+02	  0.028817635	2.164400E+01	  0.028817635	1.362400E+01
46	  0.029018037	-7.306000E+00	  0.029018037	1.433000E+02	  0.029018037	2.168000E+01	  0.029018037	1.372600E+01
47	  0.029218437	-7.301000E+00	  0.029218437	1.430300E+02	  0.029218437	2.169600E+01	  0.029218437	1.383400E+01
48	  0.029418837	-7.297000E+00	  0.029418837	1.427950E+02	  0.029418837	2.171100E+01	  0.029418837	1.392700E+01
49	  0.029619239	-7.295000E+00	  0.029619239	1.425900E+02	  0.029619239	2.172800E+01	  0.029619239	1.400800E+01
50	  0.029819639	-7.292000E+00	  0.029819639	1.423890E+02	  0.029819639	2.174000E+01	  0.029819639	1.408900E+01
51	  0.030020041	-7.291000E+00	  0.030020041	1.422050E+02	  0.030020041	2.175800E+01	  0.030020041	1.416100E+01
52	  0.030220442	-7.295000E+00	  0.030220442	1.419920E+02	  0.030220442	2.179100E+01	  0.030220442	1.424100E+01
53	  0.030420844	-7.304000E+00	  0.030420844	1.417680E+02	  0.030420844	2.183800E+01	  0.030420844	1.432200E+01
54	  0.030621244	-7.311000E+00	  0.030621244	1.415150E+02	  0.030621244	2.188400E+01	  0.030621244	1.441500E+01
55	  0.030821644	-7.316000E+00	  0.030821644	1.412170E+02	  0.030821644	2.193100E+01	  0.030821644	1.452700E+01
56	  0.031022044	-7.318000E+00	  0.031022044	1.409160E+02	  0.031022044	2.196900E+01	  0.031022044	1.464300E+01
57	  0.031222444	-7.307000E+00	  0.031222444	1.406530E+02	  0.031222444	2.197100E+01	  0.031222444	1.475300E+01
58	  0.031422846	-7.308000E+00	  0.031422846	1.403680E+02	  0.031422846	2.200400E+01	  0.031422846	1.486400E+01
59	  0.031623244	-7.309000E+00	  0.031623244	1.400650E+02	  0.031623244	2.204200E+01	  0.031623244	1.498200E+01
60	  0.031823646	-7.298000E+00	  0.031823646	1.398150E+02	  0.031823646	2.204200E+01	  0.031823646	1.508800E+01
61	  0.032024048	-7.293000E+00	  0.032024048	1.395780E+02	  0.032024048	2.205900E+01	  0.032024048	1.518400E+01
62	  0.032224450	-7.288000E+00	  0.032224450	1.393280E+02	  0.032224450	2.207300E+01	  0.032224450	1.528600E+01
63	  0.032424849	-7.277000E+00	  0.032424849	1.390960E+02	  0.032424849	2.207300E+01	  0.032424849	1.538600E+01
64	  0.032625251	-7.273000E+00	  0.032625251	1.389040E+02	  0.032625251	2.208700E+01	  0.032625251	1.546400E+01
65	  0.032825653	-7.275000E+00	  0.032825653	1.386470E+02	  0.032825653	2.212200E+01	  0.032825653	1.556300E+01
66	  0.033026051	-7.274000E+00	  0.033026051	1.384660E+02	  0.033026051	2.214000E+01	  0.033026051	1.563600E+01
67	  0.033226453	-7.276000E+00	  0.033226453	1.382360E+02	  0.033226453	2.217300E+01	  0.033226453	1.572500E+01
68	  0.033426855	-7.282000E+00	  0.033426855	1.379840E+02	  0.033426855	2.222100E+01	  0.033426855	1.581900E+01
69	  0.033627257	-7.284000E+00	  0.033627257	1.377310E+02	  0.033627257	2.225700E+01	  0.033627257	1.591700E+01
70	  0.033827655	-7.287000E+00	  0.033827655	1.374530E+02	  0.033827655	2.230000E+01	  0.033827655	1.602400E+01
71	  0.034028057	-7.295000E+00	  0.034028057	1.371840E+02	  0.034028057	2.235300E+01	  0.034028057	1.612400E+01
72	  0.034228459	-7.298000E+00	  0.034228459	1.369270E+02	  0.034228459	2.239400E+01	  0.034228459	1.622300E+01
73	  0.034428857	-7.302000E+00	  0.034428857	1.366530E+02	  0.034428857	2.243800E+01	  0.034428857	1.632800E+01
74	  0.034629259	-7.299000E+00	  0.034629259	1.363870E+02	  0.034629259	2.246400E+01	  0.034629259	1.643500E+01
75	  0.034829661	-7.292000E+00	  0.034829661	1.361260E+02	  0.034829661	2.248100E+01	  0.034829661	1.654400E+01
76	  0.035030060	-7.288000E+00	  0.035030060	1.358560E+02	  0.035030060	2.250700E+01	  0.035030060	1.665400E+01
77	  0.035230462	-7.282000E+00	  0.035230462	1.356030E+02	  0.035230462	2.252400E+01	  0.035230462	1.676000E+01
78	  0.035430863	-7.273000E+00	  0.035430863	1.353830E+02	  0.035430863	2.252800E+01	  0.035430863	1.685500E+01
79	  0.035631265	-7.271000E+00	  0.035631265	1.351970E+02	  0.035631265	2.254700E+01	  0.035631265	1.693200E+01
80	  0.035831664	-7.272000E+00	  0.035831664	1.350310E+02	  0.035831664	2.257200E+01	  0.035831664	1.699700E+01
81	  0.036032066	-7.274000E+00	  0.036032066	1.347860E+02	  0.036032066	2.261000E+01	  0.036032066	1.709200E+01
82	  0.036232468	-7.288000E+00	  0.036232468	1.345620E+02	  0.036232468	2.267800E+01	  0.036232468	1.716900E+01
83	  0.036432866	-7.292000E+00	  0.036432866	1.343090E+02	  0.036432866	2.272200E+01	  0.036432866	1.726600E+01
84	  0.036633268	-7.301000E+00	  0.036633268	1.339910E+02	  0.036633268	2.279100E+01	  0.036633268	1.738400E+01
85	  0.036833670	-7.305000E+00	  0.036833670	1.337320E+02	  0.036833670	2.283600E+01	  0.036833670	1.748400E+01
86	  0.037034072	-7.307000E+00	  0.037034072	1.334460E+02	  0.037034072	2.288300E+01	  0.037034072	1.759600E+01
87	  0.037234470	-7.306000E+00	  0.037234470	1.331550E+02	  0.037234470	2.292000E+01	  0.037234470	1.771400E+01
88	  0.037434869	-7.299000E+00	  0.037434869	1.328890E+02	  0.037434869	2.293900E+01	  0.037434869	1.782600E+01
89	  0.037635271	-7.291000E+00	  0.037635271	1.326400E+02	  0.037635271	2.295500E+01	  0.037635271	1.793300E+01
90	  0.037835669	-7.285000E+00	  0.037835669	1.323670E+02	  0.037835669	2.297700E+01	  0.037835669	1.804900E+01
91	  0.038036071	-7.275000E+00	  0.038036071	1.321550E+02	  0.038036071	2.298300E+01	  0.038036071	1.814300E+01
92	  0.038236473	-7.275000E+00	  0.038236473	1.319430E+02	  0.038236473	2.301400E+01	  0.038236473	1.822800E+01
93	  0.038436871	-7.270000E+00	  0.038436871	1.317470E+02	  0.038436871	2.302900E+01	  0.038436871	1.831200E+01
94	  0.038637273	-7.279000E+00	  0.038637273	1.315300E+02	  0.038637273	2.308400E+01	  0.038637273	1.839100E+01
95	  0.038837675	-7.283000E+00	  0.038837675	1.312970E+02	  0.038837675	2.313000E+01	  0.038837675	1.848000E+01
96	  0.039038073	-7.286000E+00	  0.039038073	1.310140E+02	  0.039038073	2.318200E+01	  0.039038073	1.859100E+01
97	  0.039238475	-7.293000E+00	  0.039238475	1.307490E+02	  0.039238475	2.324000E+01	  0.039238475	1.869100E+01
98	  0.039438877	-7.296000E+00	  0.039438877	1.304740E+02	  0.039438877	2.328900E+01	  0.039438877	1.879900E+01
99	  0.039639279	-7.297000E+00	  0.039639279	1.302300E+02	  0.039639279	2.332900E+01	  0.039639279	1.889700E+01
100	  0.039839678	-7.295000E+00	  0.039839678	1.299560E+02	  0.039839678	2.336700E+01	  0.039839678	1.900900E+01
101	  0.040040080	-7.294000E+00	  0.040040080	1.296860E+02	  0.040040080	2.340600E+01	  0.040040080	1.911900E+01
102	  0.040240481	-7.292000E+00	  0.040240481	1.294110E+02	  0.040240481	2.344300E+01	  0.040240481	1.923300E+01
103	  0.040440880	-7.282000E+00	  0.040440880	1.291130E+02	  0.040440880	2.346300E+01	  0.040440880	1.936400E+01
104	  0.040641282	-7.276000E+00	  0.040641282	1.288520E+02	  0.040641282	2.348900E+01	  0.040641282	1.947600E+01
105	  0.040841684	-7.262000E+00	  0.040841684	1.286320E+02	  0.040841684	2.348800E+01	  0.040841684	1.958000E+01
106	  0.041042086	-7.261000E+00	  0.041042086	1.284580E+02	  0.041042086	2.351100E+01	  0.041042086	1.965300E+01
107	  0.041242484	-7.262000E+00	  0.041242484	1.282660E+02	  0.041242484	2.354500E+01	  0.041242484	1.973000E+01
108	  0.041442886	-7.266000E+00	  0.041442886	1.280750E+02	  0.041442886	2.358800E+01	  0.041442886	1.980300E+01
109	  0.041643288	-7.268000E+00	  0.041643288	1.278460E+02	  0.041643288	2.362900E+01	  0.041643288	1.989500E+01
110	  0.041843686	-7.277000E+00	  0.041843686	1.275870E+02	  0.041843686	2.369600E+01	  0.041843686	1.999100E+01
111	  0.042044088	-7.280000E+00	  0.042044088	1.273490E+02	  0.042044088	2.374500E+01	  0.042044088	2.008400E+01
112	  0.042244490	-7.283000E+00	  0.042244490	1.271180E+02	  0.042244490	2.379100E+01	  0.042244490	2.017600E+01
113	  0.042444889	-7.282000E+00	  0.042444889	1.268380E+02	  0.042444889	2.383600E+01	  0.042444889	2.029100E+01
114	  0.042645290	-7.275000E+00	  0.042645290	1.265690E+02	  0.042645290	2.386300E+01	  0.042645290	2.040800E+01
115	  0.042845692	-7.274000E+00	  0.042845692	1.263150E+02	  0.042845692	2.390400E+01	  0.042845692	2.051400E+01
116	  0.043046094	-7.266000E+00	  0.043046094	1.260540E+02	  0.043046094	2.392500E+01	  0.043046094	2.063000E+01
117	  0.043246493	-7.255000E+00	  0.043246493	1.258400E+02	  0.043246493	2.393300E+01	  0.043246493	2.073100E+01
118	  0.043446895	-7.248000E+00	  0.043446895	1.256380E+02	  0.043446895	2.395000E+01	  0.043446895	2.082100E+01
119	  0.043647297	-7.252000E+00	  0.043647297	1.254500E+02	  0.043647297	2.399200E+01	  0.043647297	2.089500E+01
120	  0.043847695	-7.250000E+00	  0.043847695	1.252560E+02	  0.043847695	2.402200E+01	  0.043847695	2.097700E+01
121	  0.044048097	-7.256000E+00	  0.044048097	1.250630E+02	  0.044048097	2.407200E+01	  0.044048097	2.104900E+01
122	  0.044248499	-7.263000E+00	  0.044248499	1.248170E+02	  0.044248499	2.413400E+01	  0.044248499	2.114300E+01
123	  0.044448901	-7.269000E+00	  0.044448901	1.246110E+02	  0.044448901	2.418800E+01	  0.044448901	2.122000E+01
124	  0.044649299	-7.276000E+00	  0.044649299	1.243650E+02	  0.044649299	2.425200E+01	  0.044649299	2.131300E+01
125	  0.044849701	-7.278000E+00	  0.044849701	1.241250E+02	  0.044849701	2.430100E+01	  0.044849701	2.141000E+01
126	  0.045050103	-7.284000E+00	  0.045050103	1.238820E+02	  0.045050103	2.436100E+01	  0.045050103	2.150400E+01
127	  0.045250501	-7.292000E+00	  0.045250501	1.236040E+02	  0.045250501	2.443300E+01	  0.045250501	2.160900E+01
128	  0.045450903	-7.292000E+00	  0.045450903	1.233380E+02	  0.045450903	2.448400E+01	  0.045450903	2.171900E+01
129	  0.045651305	-7.289000E+00	  0.045651305	1.230400E+02	  0.045651305	2.453000E+01	  0.045651305	2.184600E+01
130	  0.045851704	-7.285000E+00	  0.045851704	1.227550E+02	  0.045851704	2.457300E+01	  0.045851704	2.197000E+01
131	  0.046052106	-7.283000E+00	  0.046052106	1.224720E+02	  0.046052106	2.462200E+01	  0.046052106	2.208900E+01
132	  0.046252504	-7.283000E+00	  0.046252504	1.222120E+02	  0.046252504	2.467000E+01	  0.046252504	2.219800E+01
133	  0.046452906	-7.282000E+00	  0.046452906	1.220080E+02	  0.046452906	2.470700E+01	  0.046452906	2.228400E+01
134	  0.046653304	-7.283000E+00	  0.046653304	1.217760E+02	  0.046653304	2.475400E+01	  0.046653304	2.237900E+01
135	  0.046853706	-7.290000E+00	  0.046853706	1.215220E+02	  0.046853706	2.482300E+01	  0.046853706	2.247600E+01
136	  0.047054108	-7.297000E+00	  0.047054108	1.212450E+02	  0.047054108	2.489800E+01	  0.047054108	2.258200E+01
137	  0.047254506	-7.302000E+00	  0.047254506	1.209620E+02	  0.047254506	2.496500E+01	  0.047254506	2.269500E+01
138	  0.047454908	-7.303000E+00	  0.047454908	1.206770E+02	  0.047454908	2.502500E+01	  0.047454908	2.281200E+01
139	  0.047655310	-7.311000E+00	  0.047655310	1.203830E+02	  0.047655310	2.510500E+01	  0.047655310	2.292500E+01
140	  0.047855709	-7.307000E+00	  0.047855709	1.200720E+02	  0.047855709	2.515900E+01	  0.047855709	2.305900E+01
141	  0.048056111	-7.299000E+00	  0.048056111	1.197910E+02	  0.048056111	2.519300E+01	  0.048056111	2.318800E+01
142	  0.048256513	-7.287000E+00	  0.048256513	1.194800E+02	  0.048256513	2.522400E+01	  0.048256513	2.333400E+01
143	  0.048456915	-7.283000E+00	  0.048456915	1.191940E+02	  0.048456915	2.527200E+01	  0.048456915	2.346000E+01
144	  0.048657313	-7.270000E+00	  0.048657313	1.189730E+02	  0.048657313	2.527900E+01	  0.048657313	2.357200E+01
145	  0.048857715	-7.261000E+00	  0.048857715	1.187320E+02	  0.048857715	2.530600E+01	  0.048857715	2.368600E+01
146	  0.049058117	-7.254000E+00	  0.049058117	1.185380E+02	  0.049058117	2.532600E+01	  0.049058117	2.377800E+01
147	  0.049258515	-7.255000E+00	  0.049258515	1.183430E+02	  0.049258515	2.537200E+01	  0.049258515	2.385800E+01
148	  0.049458917	-7.251000E+00	  0.049458917	1.181240E+02	  0.049458917	2.540700E+01	  0.049458917	2.395700E+01
149	  0.049659319	-7.248000E+00	  0.049659319	1.179120E+02	  0.049659319	2.544300E+01	  0.049659319	2.405100E+01
150	  0.049859721	-7.251000E+00	  0.049859721	1.177220E+02	  0.049859721	2.549100E+01	  0.049859721	2.412800E+01
151	  0.050060119	-7.251000E+00	  0.050060119	1.175160E+02	  0.050060119	2.553500E+01	  0.050060119	2.421600E+01
152	  0.050260521	-7.253000E+00	  0.050260521	1.173090E+02	  0.050260521	2.558600E+01	  0.050260521	2.430100E+01
153	  0.050460923	-7.250000E+00	  0.050460923	1.170910E+02	  0.050460923	2.562600E+01	  0.050460923	2.439700E+01
154	  0.050661322	-7.252000E+00	  0.050661322	1.168600E+02	  0.050661322	2.568200E+01	  0.050661322	2.449300E+01
155	  0.050861724	-7.246000E+00	  0.050861724	1.166300E+02	  0.050861724	2.571700E+01	  0.050861724	2.459900E+01
156	  0.051062126	-7.246000E+00	  0.051062126	1.163700E+02	  0.051062126	2.577200E+01	  0.051062126	2.471100E+01
157	  0.051262524	-7.245000E+00	  0.051262524	1.161090E+02	  0.051262524	2.583000E+01	  0.051262524	2.482300E+01
158	  0.051462926	-7.240000E+00	  0.051462926	1.159210E+02	  0.051462926	2.585800E+01	  0.051462926	2.491100E+01
159	  0.051663328	-7.245000E+00	  0.051663328	1.157280E+02	  0.051663328	2.591300E+01	  0.051663328	2.498700E+01
160	  0.051863730	-7.240000E+00	  0.051863730	1.155340E+02	  0.051863730	2.594500E+01	  0.051863730	2.507700E+01
161	  0.052064128	-7.248000E+00	  0.052064128	1.153270E+02	  0.052064128	2.601500E+01	  0.052064128	2.515300E+01
162	  0.052264530	-7.256000E+00	  0.052264530	1.151010E+02	  0.052264530	2.608800E+01	  0.052264530	2.523900E+01
163	  0.052464932	-7.263000E+00	  0.052464932	1.148760E+02	  0.052464932	2.616000E+01	  0.052464932	2.532400E+01
164	  0.052665330	-7.274000E+00	  0.052665330	1.146180E+02	  0.052665330	2.625000E+01	  0.052665330	2.541900E+01
165	  0.052865732	-7.281000E+00	  0.052865732	1.143300E+02	  0.052865732	2.633800E+01	  0.052865732	2.553100E+01
166	  0.053066134	-7.282000E+00	  0.053066134	1.140560E+02	  0.053066134	2.640600E+01	  0.053066134	2.564600E+01
167	  0.053266536	-7.290000E+00	  0.053266536	1.137560E+02	  0.053266536	2.649900E+01	  0.053266536	2.576400E+01
168	  0.053466935	-7.283000E+00	  0.053466935	1.134230E+02	  0.053466935	2.656100E+01	  0.053466935	2.591600E+01
169	  0.053667337	-7.278000E+00	  0.053667337	1.131140E+02	  0.053667337	2.661900E+01	  0.053667337	2.605900E+01
170	  0.053867739	-7.274000E+00	  0.053867739	1.128380E+02	  0.053867739	2.667600E+01	  0.053867739	2.618400E+01
171	  0.054068137	-7.271000E+00	  0.054068137	1.125560E+02	  0.054068137	2.673700E+01	  0.054068137	2.631000E+01
172	  0.054268539	-7.263000E+00	  0.054268539	1.123150E+02	  0.054268539	2.677200E+01	  0.054268539	2.642800E+01
173	  0.054468941	-7.262000E+00	  0.054468941	1.120790E+02	  0.054468941	2.682800E+01	  0.054468941	2.653200E+01
174	  0.054669339	-7.258000E+00	  0.054669339	1.118320E+02	  0.054669339	2.687800E+01	  0.054669339	2.664600E+01
175	  0.054869737	-7.256000E+00	  0.054869737	1.115910E+02	  0.054869737	2.693200E+01	  0.054869737	2.675400E+01
176	  0.055070139	-7.254000E+00	  0.055070139	1.113700E+02	  0.055070139	2.698200E+01	  0.055070139	2.685400E+01
177	  0.055270538	-7.252000E+00	  0.055270538	1.111270E+02	  0.055270538	2.703800E+01	  0.055270538	2.696200E+01
178	  0.055470940	-7.254000E+00	  0.055470940	1.108790E+02	  0.055470940	2.710700E+01	  0.055470940	2.706700E+01
179	  0.055671342	-7.254000E+00	  0.055671342	1.106920E+02	  0.055671342	2.715700E+01	  0.055671342	2.714800E+01
180	  0.055871744	-7.250000E+00	  0.055871744	1.104510E+02	  0.055871744	2.720700E+01	  0.055871744	2.726000E+01
181	  0.056072142	-7.246000E+00	  0.056072142	1.101810E+02	  0.056072142	2.726600E+01	  0.056072142	2.738400E+01
182	  0.056272544	-7.244000E+00	  0.056272544	1.099480E+02	  0.056272544	2.732000E+01	  0.056272544	2.749100E+01
183	  0.056472946	-7.242000E+00	  0.056472946	1.096690E+02	  0.056472946	2.738800E+01	  0.056472946	2.761600E+01
184	  0.056673344	-7.238000E+00	  0.056673344	1.094530E+02	  0.056673344	2.743300E+01	  0.056673344	2.771900E+01
185	  0.056873746	-7.231000E+00	  0.056873746	1.092280E+02	  0.056873746	2.747400E+01	  0.056873746	2.782900E+01
186	  0.057074148	-7.232000E+00	  0.057074148	1.090370E+02	  0.057074148	2.752700E+01	  0.057074148	2.791200E+01
187	  0.057274550	-7.231000E+00	  0.057274550	1.088270E+02	  0.057274550	2.758200E+01	  0.057274550	2.800500E+01
188	  0.057474948	-7.234000E+00	  0.057474948	1.086340E+02	  0.057474948	2.764000E+01	  0.057474948	2.808700E+01
189	  0.057675350	-7.241000E+00	  0.057675350	1.084030E+02	  0.057675350	2.772500E+01	  0.057675350	2.817500E+01
190	  0.057875752	-7.244000E+00	  0.057875752	1.081850E+02	  0.057875752	2.779300E+01	  0.057875752	2.826500E+01
191	  0.058076151	-7.249000E+00	  0.058076151	1.079180E+02	  0.058076151	2.788200E+01	  0.058076151	2.837400E+01
192	  0.058276553	-7.254000E+00	  0.058276553	1.076660E+02	  0.058276553	2.796600E+01	  0.058276553	2.847600E+01
193	  0.058476955	-7.256000E+00	  0.058476955	1.073790E+02	  0.058476955	2.805200E+01	  0.058476955	2.859900E+01
194	  0.058677353	-7.256000E+00	  0.058677353	1.070800E+02	  0.058677353	2.813500E+01	  0.058677353	2.873200E+01
195	  0.058877755	-7.258000E+00	  0.058877755	1.067950E+02	  0.058877755	2.822300E+01	  0.058877755	2.885400E+01
196	  0.059078157	-7.255000E+00	  0.059078157	1.065070E+02	  0.059078157	2.829600E+01	  0.059078157	2.898700E+01
197	  0.059278559	-7.248000E+00	  0.059278559	1.062090E+02	  0.059278559	2.836100E+01	  0.059278559	2.913200E+01
198	  0.059478957	-7.247000E+00	  0.059478957	1.059630E+02	  0.059478957	2.842900E+01	  0.059478957	2.924300E+01
199	  0.059679359	-7.245000E+00	  0.059679359	1.057110E+02	  0.059679359	2.849700E+01	  0.059679359	2.936000E+01
200	  0.059879761	-7.238000E+00	  0.059879761	1.054720E+02	  0.059879761	2.854600E+01	  0.059879761	2.947900E+01
201	  0.060080159	-7.230000E+00	  0.060080159	1.052380E+02	  0.060080159	2.859300E+01	  0.060080159	2.959900E+01
202	  0.060280561	-7.229000E+00	  0.060280561	1.050200E+02	  0.060280561	2.865200E+01	  0.060280561	2.970000E+01
203	  0.060480963	-7.227000E+00	  0.060480963	1.047830E+02	  0.060480963	2.871800E+01	  0.060480963	2.980900E+01
204	  0.060681365	-7.224000E+00	  0.060681365	1.045630E+02	  0.060681365	2.877500E+01	  0.060681365	2.991300E+01
205	  0.060881764	-7.221000E+00	  0.060881764	1.043410E+02	  0.060881764	2.883200E+01	  0.060881764	3.001900E+01
206	  0.061082166	-7.220000E+00	  0.061082166	1.041210E+02	  0.061082166	2.889700E+01	  0.061082166	3.011900E+01
207	  0.061282568	-7.214000E+00	  0.061282568	1.039070E+02	  0.061282568	2.894500E+01	  0.061282568	3.022700E+01
208	  0.061482966	-7.216000E+00	  0.061482966	1.036520E+02	  0.061482966	2.902700E+01	  0.061482966	3.033900E+01
209	  0.061683368	-7.212000E+00	  0.061683368	1.034170E+02	  0.061683368	2.908900E+01	  0.061683368	3.045200E+01
210	  0.061883770	-7.205000E+00	  0.061883770	1.031910E+02	  0.061883770	2.913600E+01	  0.061883770	3.056900E+01
211	  0.062084168	-7.204000E+00	  0.062084168	1.029900E+02	  0.062084168	2.919800E+01	  0.062084168	3.066100E+01
212	  0.062284570	-7.198000E+00	  0.062284570	1.027680E+02	  0.062284570	2.925000E+01	  0.062284570	3.077400E+01
213	  0.062484972	-7.185000E+00	  0.062484972	1.026330E+02	  0.062484972	2.925400E+01	  0.062484972	3.086100E+01
214	  0.062685370	-7.195000E+00	  0.062685370	1.024400E+02	  0.062685370	2.934200E+01	  0.062685370	3.093000E+01
215	  0.062885776	-7.194000E+00	  0.062885776	1.022530E+02	  0.062885776	2.940000E+01	  0.062885776	3.101500E+01
216	  0.063086174	-7.198000E+00	  0.063086174	1.020680E+02	  0.063086174	2.947000E+01	  0.063086174	3.109200E+01
217	  0.063286573	-7.201000E+00	  0.063286573	1.018520E+02	  0.063286573	2.954800E+01	  0.063286573	3.118400E+01
218	  0.063486971	-7.207000E+00	  0.063486971	1.016560E+02	  0.063486971	2.963200E+01	  0.063486971	3.125800E+01
219	  0.063687377	-7.215000E+00	  0.063687377	1.013460E+02	  0.063687377	2.975500E+01	  0.063687377	3.138200E+01
220	  0.063887775	-7.222000E+00	  0.063887775	1.011360E+02	  0.063887775	2.984500E+01	  0.063887775	3.146200E+01
221	  0.064088173	-7.222000E+00	  0.064088173	1.008580E+02	  0.064088173	2.993500E+01	  0.064088173	3.158900E+01
222	  0.064288579	-7.231000E+00	  0.064288579	1.005660E+02	  0.064288579	3.006000E+01	  0.064288579	3.170100E+01
223	  0.064488977	-7.229000E+00	  0.064488977	1.002450E+02	  0.064488977	3.016100E+01	  0.064488977	3.185200E+01
224	  0.064689375	-7.224000E+00	  0.064689375	9.998300E+01	  0.064689375	3.023500E+01	  0.064689375	3.198200E+01
225	  0.064889781	-7.227000E+00	  0.064889781	9.972900E+01	  0.064889781	3.033000E+01	  0.064889781	3.209000E+01
226	  0.065090179	-7.226000E+00	  0.065090179	9.945200E+01	  0.065090179	3.042100E+01	  0.065090179	3.221900E+01
227	  0.065290578	-7.221000E+00	  0.065290578	9.917800E+01	  0.065290578	3.050000E+01	  0.065290578	3.235600E+01
228	  0.065490983	-7.219000E+00	  0.065490983	9.895400E+01	  0.065490983	3.057200E+01	  0.065490983	3.246300E+01
229	  0.065691382	-7.218000E+00	  0.065691382	9.870400E+01	  0.065691382	3.065500E+01	  0.065691382	3.257900E+01
230	  0.065891780	-7.216000E+00	  0.065891780	9.845400E+01	  0.065891780	3.073500E+01	  0.065891780	3.270000E+01
231	  0.066092186	-7.218000E+00	  0.066092186	9.821500E+01	  0.066092186	3.082700E+01	  0.066092186	3.280300E+01
232	  0.066292584	-7.207000E+00	  0.066292584	9.793400E+01	  0.066292584	3.089100E+01	  0.066292584	3.295900E+01
233	  0.066492982	-7.211000E+00	  0.066492982	9.770800E+01	  0.066492982	3.098500E+01	  0.066492982	3.305200E+01
234	  0.066693388	-7.205000E+00	  0.066693388	9.747800E+01	  0.066693388	3.105000E+01	  0.066693388	3.317200E+01
235	  0.066893786	-7.206000E+00	  0.066893786	9.721400E+01	  0.066893786	3.114700E+01	  0.066893786	3.329300E+01
236	  0.067094192	-7.202000E+00	  0.067094192	9.697800E+01	  0.067094192	3.122000E+01	  0.067094192	3.341100E+01
237	  0.067294590	-7.198000E+00	  0.067294590	9.671800E+01	  0.067294590	3.130500E+01	  0.067294590	3.353800E+01
238	  0.067494988	-7.198000E+00	  0.067494988	9.650900E+01	  0.067494988	3.138000E+01	  0.067494988	3.363600E+01
239	  0.067695394	-7.192000E+00	  0.067695394	9.628600E+01	  0.067695394	3.144400E+01	  0.067695394	3.375400E+01
240	  0.067895792	-7.188000E+00	  0.067895792	9.607700E+01	  0.067895792	3.151100E+01	  0.067895792	3.385900E+01
241	  0.068096191	-7.185000E+00	  0.068096191	9.586500E+01	  0.068096191	3.158000E+01	  0.068096191	3.396600E+01
242	  0.068296596	-7.187000E+00	  0.068296596	9.566400E+01	  0.068296596	3.166300E+01	  0.068296596	3.405300E+01
243	  0.068496995	-7.187000E+00	  0.068496995	9.547700E+01	  0.068496995	3.173100E+01	  0.068496995	3.414200E+01
244	  0.068697393	-7.188000E+00	  0.068697393	9.525200E+01	  0.068697393	3.182100E+01	  0.068697393	3.424300E+01
245	  0.068897791	-7.188000E+00	  0.068897791	9.505000E+01	  0.068897791	3.189900E+01	  0.068897791	3.433600E+01
246	  0.069098189	-7.192000E+00	  0.069098189	9.480400E+01	  0.069098189	3.200400E+01	  0.069098189	3.444100E+01
247	  0.069298595	-7.198000E+00	  0.069298595	9.451900E+01	  0.069298595	3.213400E+01	  0.069298595	3.455700E+01
248	  0.069498993	-7.199000E+00	  0.069498993	9.423400E+01	  0.069498993	3.224700E+01	  0.069498993	3.468800E+01
249	  0.069699399	-7.209000E+00	  0.069699399	9.396400E+01	  0.069699399	3.238200E+01	  0.069699399	3.478800E+01
250	  0.069899797	-7.208000E+00	  0.069899797	9.369100E+01	  0.069899797	3.248900E+01	  0.069899797	3.491600E+01
251	  0.070100196	-7.204000E+00	  0.070100196	9.344800E+01	  0.070100196	3.257300E+01	  0.070100196	3.504000E+01
252	  0.070300601	-7.201000E+00	  0.070300601	9.317500E+01	  0.070300601	3.267100E+01	  0.070300601	3.517600E+01
253	  0.070501000	-7.199000E+00	  0.070501000	9.290000E+01	  0.070501000	3.277800E+01	  0.070501000	3.530800E+01
254	  0.070701398	-7.195000E+00	  0.070701398	9.263500E+01	  0.070701398	3.287300E+01	  0.070701398	3.544300E+01
255	  0.070901804	-7.198000E+00	  0.070901804	9.240400E+01	  0.070901804	3.297600E+01	  0.070901804	3.554300E+01
256	  0.071102202	-7.187000E+00	  0.071102202	9.218300E+01	  0.071102202	3.303100E+01	  0.071102202	3.567700E+01
257	  0.071302600	-7.188000E+00	  0.071302600	9.197100E+01	  0.071302600	3.312200E+01	  0.071302600	3.577400E+01
258	  0.071503006	-7.186000E+00	  0.071503006	9.171900E+01	  0.071503006	3.322100E+01	  0.071503006	3.589600E+01
259	  0.071703404	-7.180000E+00	  0.071703404	9.145900E+01	  0.071703404	3.331200E+01	  0.071703404	3.603400E+01
260	  0.071903802	-7.177000E+00	  0.071903802	9.124300E+01	  0.071903802	3.339200E+01	  0.071903802	3.614500E+01
261	  0.072104208	-7.180000E+00	  0.072104208	9.097800E+01	  0.072104208	3.351300E+01	  0.072104208	3.626100E+01
262	  0.072304606	-7.171000E+00	  0.072304606	9.075300E+01	  0.072304606	3.358300E+01	  0.072304606	3.639000E+01
263	  0.072505005	-7.172000E+00	  0.072505005	9.052300E+01	  0.072505005	3.368300E+01	  0.072505005	3.649700E+01
264	  0.072705410	-7.166000E+00	  0.072705410	9.030700E+01	  0.072705410	3.375600E+01	  0.072705410	3.661700E+01
265	  0.072905809	-7.161000E+00	  0.072905809	9.009400E+01	  0.072905809	3.383500E+01	  0.072905809	3.673000E+01
266	  0.073106214	-7.158000E+00	  0.073106214	8.987500E+01	  0.073106214	3.392100E+01	  0.073106214	3.684200E+01
267	  0.073306613	-7.159000E+00	  0.073306613	8.965900E+01	  0.073306613	3.401600E+01	  0.073306613	3.694300E+01
268	  0.073507011	-7.159000E+00	  0.073507011	8.945300E+01	  0.073507011	3.410900E+01	  0.073507011	3.703800E+01
269	  0.073707417	-7.155000E+00	  0.073707417	8.928200E+01	  0.073707417	3.417100E+01	  0.073707417	3.713200E+01
270	  0.073907815	-7.155000E+00	  0.073907815	8.908900E+01	  0.073907815	3.425600E+01	  0.073907815	3.722400E+01
271	  0.074108213	-7.156000E+00	  0.074108213	8.891300E+01	  0.074108213	3.433900E+01	  0.074108213	3.730300E+01
272	  0.074308619	-7.159000E+00	  0.074308619	8.868700E+01	  0.074308619	3.445000E+01	  0.074308619	3.740100E+01
273	  0.074509017	-7.168000E+00	  0.074509017	8.841500E+01	  0.074509017	3.460000E+01	  0.074509017	3.750300E+01
274	  0.074709415	-7.173000E+00	  0.074709415	8.821100E+01	  0.074709415	3.471000E+01	  0.074709415	3.758400E+01
275	  0.074909821	-7.176000E+00	  0.074909821	8.793400E+01	  0.074909821	3.484300E+01	  0.074909821	3.770800E+01
276	  0.075110219	-7.181000E+00	  0.075110219	8.767700E+01	  0.075110219	3.497700E+01	  0.075110219	3.781400E+01
277	  0.075310618	-7.182000E+00	  0.075310618	8.740200E+01	  0.075310618	3.511000E+01	  0.075310618	3.793800E+01
278	  0.075511023	-7.186000E+00	  0.075511023	8.713700E+01	  0.075511023	3.524500E+01	  0.075511023	3.805200E+01
279	  0.075711422	-7.186000E+00	  0.075711422	8.686600E+01	  0.075711422	3.537300E+01	  0.075711422	3.818000E+01
280	  0.075911827	-7.184000E+00	  0.075911827	8.657800E+01	  0.075911827	3.550100E+01	  0.075911827	3.832400E+01
281	  0.076112226	-7.184000E+00	  0.076112226	8.633200E+01	  0.076112226	3.561800E+01	  0.076112226	3.844000E+01
282	  0.076312624	-7.182000E+00	  0.076312624	8.606000E+01	  0.076312624	3.574300E+01	  0.076312624	3.857400E+01
283	  0.076513030	-7.175000E+00	  0.076513030	8.584300E+01	  0.076513030	3.582600E+01	  0.076513030	3.870000E+01
284	  0.076713428	-7.174000E+00	  0.076713428	8.562500E+01	  0.076713428	3.592800E+01	  0.076713428	3.880700E+01
285	  0.076913826	-7.176000E+00	  0.076913826	8.536200E+01	  0.076913826	3.606200E+01	  0.076913826	3.892500E+01
286	  0.077114232	-7.170000E+00	  0.077114232	8.508000E+01	  0.077114232	3.618500E+01	  0.077114232	3.907600E+01
287	  0.077314630	-7.167000E+00	  0.077314630	8.478900E+01	  0.077314630	3.631900E+01	  0.077314630	3.922400E+01
288	  0.077515028	-7.169000E+00	  0.077515028	8.456000E+01	  0.077515028	3.644000E+01	  0.077515028	3.932600E+01
289	  0.077715434	-7.168000E+00	  0.077715434	8.431900E+01	  0.077715434	3.655700E+01	  0.077715434	3.944400E+01
290	  0.077915832	-7.165000E+00	  0.077915832	8.406300E+01	  0.077915832	3.667600E+01	  0.077915832	3.957700E+01
291	  0.078116231	-7.159000E+00	  0.078116231	8.380100E+01	  0.078116231	3.679000E+01	  0.078116231	3.972200E+01
292	  0.078316636	-7.155000E+00	  0.078316636	8.354600E+01	  0.078316636	3.691000E+01	  0.078316636	3.985400E+01
293	  0.078517035	-7.150000E+00	  0.078517035	8.332900E+01	  0.078517035	3.700400E+01	  0.078517035	3.997700E+01
294	  0.078717433	-7.142000E+00	  0.078717433	8.311600E+01	  0.078717433	3.709200E+01	  0.078717433	4.010400E+01
295	  0.078917839	-7.143000E+00	  0.078917839	8.290600E+01	  0.078917839	3.720200E+01	  0.078917839	4.020200E+01
296	  0.079118237	-7.138000E+00	  0.079118237	8.271700E+01	  0.079118237	3.728500E+01	  0.079118237	4.031000E+01
297	  0.079318643	-7.133000E+00	  0.079318643	8.250900E+01	  0.079318643	3.737900E+01	  0.079318643	4.042500E+01
298	  0.079519041	-7.132000E+00	  0.079519041	8.231200E+01	  0.079519041	3.748000E+01	  0.079519041	4.052400E+01
299	  0.079719439	-7.137000E+00	  0.079719439	8.207700E+01	  0.079719439	3.762300E+01	  0.079719439	4.061700E+01
300	  0.079919845	-7.139000E+00	  0.079919845	8.184900E+01	  0.079919845	3.775000E+01	  0.079919845	4.071900E+01
301	  0.080120243	-7.145000E+00	  0.080120243	8.160400E+01	  0.080120243	3.789900E+01	  0.080120243	4.081600E+01
302	  0.080320641	-7.147000E+00	  0.080320641	8.135500E+01	  0.080320641	3.804000E+01	  0.080320641	4.092800E+01
303	  0.080521047	-7.145000E+00	  0.080521047	8.112200E+01	  0.080521047	3.816100E+01	  0.080521047	4.104600E+01
304	  0.080721445	-7.152000E+00	  0.080721445	8.090700E+01	  0.080721445	3.830300E+01	  0.080721445	4.112000E+01
305	  0.080921844	-7.152000E+00	  0.080921844	8.058800E+01	  0.080921844	3.847900E+01	  0.080921844	4.127200E+01
306	  0.081122249	-7.149000E+00	  0.081122249	8.035000E+01	  0.081122249	3.860100E+01	  0.081122249	4.139800E+01
307	  0.081322648	-7.145000E+00	  0.081322648	8.009100E+01	  0.081322648	3.873300E+01	  0.081322648	4.153500E+01
308	  0.081523046	-7.141000E+00	  0.081523046	7.988900E+01	  0.081523046	3.883600E+01	  0.081523046	4.164500E+01
309	  0.081723452	-7.134000E+00	  0.081723452	7.965400E+01	  0.081723452	3.894600E+01	  0.081723452	4.178400E+01
310	  0.081923850	-7.133000E+00	  0.081923850	7.944300E+01	  0.081923850	3.906300E+01	  0.081923850	4.188800E+01
311	  0.082124248	-7.136000E+00	  0.082124248	7.919000E+01	  0.082124248	3.921700E+01	  0.082124248	4.199800E+01
312	  0.082324654	-7.130000E+00	  0.082324654	7.896800E+01	  0.082324654	3.932700E+01	  0.082324654	4.212600E+01
313	  0.082525052	-7.133000E+00	  0.082525052	7.870800E+01	  0.082525052	3.948800E+01	  0.082525052	4.223700E+01
314	  0.082725458	-7.129000E+00	  0.082725458	7.847300E+01	  0.082725458	3.961000E+01	  0.082725458	4.236700E+01
315	  0.082925856	-7.131000E+00	  0.082925856	7.826000E+01	  0.082925856	3.974400E+01	  0.082925856	4.245800E+01
316	  0.083126254	-7.128000E+00	  0.083126254	7.802100E+01	  0.083126254	3.987500E+01	  0.083126254	4.258400E+01
317	  0.083326660	-7.127000E+00	  0.083326660	7.775800E+01	  0.083326660	4.002900E+01	  0.083326660	4.271200E+01
318	  0.083527058	-7.126000E+00	  0.083527058	7.752700E+01	  0.083527058	4.016400E+01	  0.083527058	4.282600E+01
319	  0.083727457	-7.127000E+00	  0.083727457	7.732500E+01	  0.083727457	4.028800E+01	  0.083727457	4.291900E+01
320	  0.083927862	-7.120000E+00	  0.083927862	7.703400E+01	  0.083927862	4.044100E+01	  0.083927862	4.308600E+01
321	  0.084128261	-7.116000E+00	  0.084128261	7.682000E+01	  0.084128261	4.056100E+01	  0.084128261	4.320100E+01
322	  0.084328659	-7.113000E+00	  0.084328659	7.659000E+01	  0.084328659	4.069200E+01	  0.084328659	4.332400E+01
323	  0.084529065	-7.107000E+00	  0.084529065	7.641600E+01	  0.084529065	4.077900E+01	  0.084529065	4.343300E+01
324	  0.084729463	-7.109000E+00	  0.084729463	7.617600E+01	  0.084729463	4.093700E+01	  0.084729463	4.353600E+01
325	  0.084929861	-7.111000E+00	  0.084929861	7.595900E+01	  0.084929861	4.107700E+01	  0.084929861	4.363300E+01
326	  0.085130267	-7.113000E+00	  0.085130267	7.576800E+01	  0.085130267	4.120400E+01	  0.085130267	4.371300E+01
327	  0.085330658	-7.116000E+00	  0.085330658	7.550500E+01	  0.085330658	4.137800E+01	  0.085330658	4.382500E+01
328	  0.085531056	-7.118000E+00	  0.085531056	7.530900E+01	  0.085531056	4.150800E+01	  0.085531056	4.391100E+01
329	  0.085731462	-7.122000E+00	  0.085731462	7.505900E+01	  0.085731462	4.168000E+01	  0.085731462	4.401300E+01
330	  0.085931860	-7.125000E+00	  0.085931860	7.483100E+01	  0.085931860	4.183700E+01	  0.085931860	4.410600E+01
331	  0.086132258	-7.123000E+00	  0.086132258	7.455500E+01	  0.086132258	4.201000E+01	  0.086132258	4.424300E+01
332	  0.086332664	-7.129000E+00	  0.086332664	7.430200E+01	  0.086332664	4.219400E+01	  0.086332664	4.433600E+01
333	  0.086533062	-7.125000E+00	  0.086533062	7.405200E+01	  0.086533062	4.234400E+01	  0.086533062	4.447100E+01
334	  0.086733460	-7.120000E+00	  0.086733460	7.384600E+01	  0.086733460	4.246300E+01	  0.086733460	4.459100E+01
335	  0.086933866	-7.118000E+00	  0.086933866	7.359000E+01	  0.086933866	4.262900E+01	  0.086933866	4.471700E+01
336	  0.087134264	-7.116000E+00	  0.087134264	7.335500E+01	  0.087134264	4.277800E+01	  0.087134264	4.483800E+01
337	  0.087334670	-7.113000E+00	  0.087334670	7.311900E+01	  0.087334670	4.292800E+01	  0.087334670	4.496000E+01
338	  0.087535068	-7.114000E+00	  0.087535068	7.291700E+01	  0.087535068	4.306700E+01	  0.087535068	4.505200E+01
339	  0.087735467	-7.114000E+00	  0.087735467	7.270200E+01	  0.087735467	4.321300E+01	  0.087735467	4.515200E+01
340	  0.087935872	-7.111000E+00	  0.087935872	7.245700E+01	  0.087935872	4.337300E+01	  0.087935872	4.527700E+01
341	  0.088136271	-7.115000E+00	  0.088136271	7.221900E+01	  0.088136271	4.354900E+01	  0.088136271	4.536900E+01
342	  0.088336669	-7.115000E+00	  0.088336669	7.197100E+01	  0.088336669	4.371800E+01	  0.088336669	4.548700E+01
343	  0.088537075	-7.120000E+00	  0.088537075	7.174300E+01	  0.088537075	4.389400E+01	  0.088537075	4.556800E+01
344	  0.088737473	-7.118000E+00	  0.088737473	7.147500E+01	  0.088737473	4.407400E+01	  0.088737473	4.570400E+01
345	  0.088937871	-7.122000E+00	  0.088937871	7.123300E+01	  0.088937871	4.425700E+01	  0.088937871	4.579500E+01
346	  0.089138277	-7.118000E+00	  0.089138277	7.097500E+01	  0.089138277	4.442900E+01	  0.089138277	4.593200E+01
347	  0.089338675	-7.117000E+00	  0.089338675	7.072000E+01	  0.089338675	4.460900E+01	  0.089338675	4.605300E+01
348	  0.089539073	-7.110000E+00	  0.089539073	7.045700E+01	  0.089539073	4.477700E+01	  0.089539073	4.620800E+01
349	  0.089739479	-7.113000E+00	  0.089739479	7.023500E+01	  0.089739479	4.494700E+01	  0.089739479	4.629400E+01
350	  0.089939877	-7.111000E+00	  0.089939877	6.997700E+01	  0.089939877	4.512900E+01	  0.089939877	4.642200E+01
351	  0.090140276	-7.111000E+00	  0.090140276	6.974300E+01	  0.090140276	4.530000E+01	  0.090140276	4.652900E+01
352	  0.090340681	-7.110000E+00	  0.090340681	6.949500E+01	  0.090340681	4.547800E+01	  0.090340681	4.665000E+01
353	  0.090541080	-7.109000E+00	  0.090541080	6.925400E+01	  0.090541080	4.565700E+01	  0.090541080	4.676100E+01
354	  0.090741485	-7.109000E+00	  0.090741485	6.899600E+01	  0.090741485	4.584900E+01	  0.090741485	4.687900E+01
355	  0.090941884	-7.111000E+00	  0.090941884	6.876500E+01	  0.090941884	4.602900E+01	  0.090941884	4.697300E+01
356	  0.091142282	-7.108000E+00	  0.091142282	6.852600E+01	  0.091142282	4.620000E+01	  0.091142282	4.709800E+01
357	  0.091342688	-7.110000E+00	  0.091342688	6.824700E+01	  0.091342688	4.642000E+01	  0.091342688	4.721200E+01
358	  0.091543086	-7.111000E+00	  0.091543086	6.799800E+01	  0.091543086	4.661300E+01	  0.091543086	4.732000E+01
359	  0.091743484	-7.103000E+00	  0.091743484	6.774600E+01	  0.091743484	4.678300E+01	  0.091743484	4.747500E+01
360	  0.091943890	-7.096000E+00	  0.091943890	6.750400E+01	  0.091943890	4.695200E+01	  0.091943890	4.761700E+01
361	  0.092144288	-7.086000E+00	  0.092144288	6.725800E+01	  0.092144288	4.711400E+01	  0.092144288	4.778100E+01
362	  0.092344686	-7.081000E+00	  0.092344686	6.705700E+01	  0.092344686	4.725800E+01	  0.092344686	4.789600E+01
363	  0.092545092	-7.081000E+00	  0.092545092	6.682800E+01	  0.092545092	4.744100E+01	  0.092545092	4.799500E+01
364	  0.092745490	-7.073000E+00	  0.092745490	6.667600E+01	  0.092745490	4.753700E+01	  0.092745490	4.810700E+01
365	  0.092945889	-7.067000E+00	  0.092945889	6.642300E+01	  0.092945889	4.772200E+01	  0.092945889	4.825100E+01
366	  0.093146294	-7.066000E+00	  0.093146294	6.624400E+01	  0.093146294	4.786500E+01	  0.093146294	4.833500E+01
367	  0.093346693	-7.060000E+00	  0.093346693	6.605900E+01	  0.093346693	4.799700E+01	  0.093346693	4.844900E+01
368	  0.093547091	-7.062000E+00	  0.093547091	6.588400E+01	  0.093547091	4.814500E+01	  0.093547091	4.851600E+01
369	  0.093747497	-7.064000E+00	  0.093747497	6.567900E+01	  0.093747497	4.831700E+01	  0.093747497	4.859900E+01
370	  0.093947895	-7.067000E+00	  0.093947895	6.546500E+01	  0.093947895	4.850200E+01	  0.093947895	4.867600E+01
371	  0.094148301	-7.069000E+00	  0.094148301	6.528900E+01	  0.094148301	4.865300E+01	  0.094148301	4.874100E+01
372	  0.094348699	-7.066000E+00	  0.094348699	6.505700E+01	  0.094348699	4.883800E+01	  0.094348699	4.885700E+01
373	  0.094549097	-7.066000E+00	  0.094549097	6.484100E+01	  0.094549097	4.901800E+01	  0.094549097	4.895100E+01
374	  0.094749503	-7.073000E+00	  0.094749503	6.464400E+01	  0.094749503	4.920200E+01	  0.094749503	4.900300E+01
375	  0.094949901	-7.070000E+00	  0.094949901	6.445400E+01	  0.094949901	4.935500E+01	  0.094949901	4.909900E+01
376	  0.095150299	-7.071000E+00	  0.095150299	6.421100E+01	  0.095150299	4.956300E+01	  0.095150299	4.920000E+01
377	  0.095350705	-7.076000E+00	  0.095350705	6.398900E+01	  0.095350705	4.976700E+01	  0.095350705	4.926600E+01
378	  0.095551103	-7.083000E+00	  0.095551103	6.378400E+01	  0.095551103	4.996100E+01	  0.095551103	4.931500E+01
379	  0.095751502	-7.084000E+00	  0.095751502	6.354900E+01	  0.095751502	5.016900E+01	  0.095751502	4.940600E+01
380	  0.095951907	-7.090000E+00	  0.095951907	6.328500E+01	  0.095951907	5.041400E+01	  0.095951907	4.948300E+01
381	  0.096152306	-7.098000E+00	  0.096152306	6.302900E+01	  0.096152306	5.066100E+01	  0.096152306	4.954400E+01
382	  0.096352704	-7.104000E+00	  0.096352704	6.277200E+01	  0.096352704	5.090100E+01	  0.096352704	4.961900E+01
383	  0.096553110	-7.108000E+00	  0.096553110	6.250000E+01	  0.096553110	5.115400E+01	  0.096553110	4.970500E+01
384	  0.096753508	-7.111000E+00	  0.096753508	6.222500E+01	  0.096753508	5.140700E+01	  0.096753508	4.980000E+01
385	  0.096953906	-7.113000E+00	  0.096953906	6.192400E+01	  0.096953906	5.168300E+01	  0.096953906	4.991000E+01
386	  0.097154312	-7.111000E+00	  0.097154312	6.162900E+01	  0.097154312	5.194300E+01	  0.097154312	5.004500E+01
387	  0.097354710	-7.113000E+00	  0.097354710	6.137600E+01	  0.097354710	5.217900E+01	  0.097354710	5.013300E+01
388	  0.097555116	-7.108000E+00	  0.097555116	6.105100E+01	  0.097555116	5.246500E+01	  0.097555116	5.029000E+01
389	  0.097755514	-7.101000E+00	  0.097755514	6.079600E+01	  0.097755514	5.268100E+01	  0.097755514	5.043500E+01
390	  0.097955912	-7.095000E+00	  0.097955912	6.053900E+01	  0.097955912	5.290600E+01	  0.097955912	5.057100E+01
391	  0.098156318	-7.091000E+00	  0.098156318	6.028500E+01	  0.098156318	5.313400E+01	  0.098156318	5.069600E+01
392	  0.098356716	-7.086000E+00	  0.098356716	6.001000E+01	  0.098356716	5.337900E+01	  0.098356716	5.083800E+01
393	  0.098557115	-7.082000E+00	  0.098557115	5.977800E+01	  0.098557115	5.359000E+01	  0.098557115	5.095200E+01
394	  0.098757520	-7.075000E+00	  0.098757520	5.954200E+01	  0.098757520	5.379800E+01	  0.098757520	5.108600E+01
395	  0.098957919	-7.072000E+00	  0.098957919	5.932800E+01	  0.098957919	5.399500E+01	  0.098957919	5.119200E+01
396	  0.099158317	-7.066000E+00	  0.099158317	5.908700E+01	  0.099158317	5.421500E+01	  0.099158317	5.131900E+01
397	  0.099358723	-7.067000E+00	  0.099358723	5.887000E+01	  0.099358723	5.442700E+01	  0.099358723	5.139700E+01
398	  0.099559121	-7.058000E+00	  0.099559121	5.867300E+01	  0.099559121	5.459800E+01	  0.099559121	5.153000E+01
399	  0.099759519	-7.053000E+00	  0.099759519	5.842800E+01	  0.099759519	5.482700E+01	  0.099759519	5.165500E+01
400	  0.099959925	-7.045000E+00	  0.099959925	5.825100E+01	  0.099959925	5.498300E+01	  0.099959925	5.177200E+01
401	  0.100160323	-7.042000E+00	  0.100160323	5.804400E+01	  0.100160323	5.518100E+01	  0.100160323	5.187300E+01
402	  0.100360721	-7.040000E+00	  0.100360721	5.783500E+01	  0.100360721	5.538500E+01	  0.100360721	5.196500E+01
403	  0.100561127	-7.044000E+00	  0.100561127	5.762600E+01	  0.100561127	5.560500E+01	  0.100561127	5.201600E+01
404	  0.100761525	-7.032000E+00	  0.100761525	5.742000E+01	  0.100761525	5.578400E+01	  0.100761525	5.217200E+01
405	  0.100961931	-7.039000E+00	  0.100961931	5.725800E+01	  0.100961931	5.596600E+01	  0.100961931	5.218500E+01
406	  0.101162329	-7.044000E+00	  0.101162329	5.701800E+01	  0.101162329	5.622500E+01	  0.101162329	5.223400E+01
407	  0.101362728	-7.043000E+00	  0.101362728	5.683300E+01	  0.101362728	5.641300E+01	  0.101362728	5.230700E+01
408	  0.101563133	-7.044000E+00	  0.101563133	5.656300E+01	  0.101563133	5.669400E+01	  0.101563133	5.239900E+01
409	  0.101763532	-7.051000E+00	  0.101763532	5.641400E+01	  0.101763532	5.686400E+01	  0.101763532	5.240400E+01
410	  0.101963930	-7.059000E+00	  0.101963930	5.619900E+01	  0.101963930	5.710700E+01	  0.101963930	5.242300E+01
411	  0.102164336	-7.051000E+00	  0.102164336	5.593300E+01	  0.102164336	5.736900E+01	  0.102164336	5.256700E+01
412	  0.102364734	-7.056000E+00	  0.102364734	5.565900E+01	  0.102364734	5.766900E+01	  0.102364734	5.262900E+01
413	  0.102565132	-7.060000E+00	  0.102565132	5.541800E+01	  0.102565132	5.793400E+01	  0.102565132	5.268400E+01
414	  0.102765530	-7.059000E+00	  0.102765530	5.519900E+01	  0.102765530	5.816500E+01	  0.102765530	5.276200E+01
415	  0.102965929	-7.059000E+00	  0.102965929	5.488100E+01	  0.102965929	5.850700E+01	  0.102965929	5.287000E+01
416	  0.103166327	-7.061000E+00	  0.103166327	5.465100E+01	  0.103166327	5.876000E+01	  0.103166327	5.292700E+01
417	  0.103366733	-7.053000E+00	  0.103366733	5.440800E+01	  0.103366733	5.900800E+01	  0.103366733	5.306400E+01
418	  0.103567131	-7.052000E+00	  0.103567131	5.419000E+01	  0.103567131	5.924400E+01	  0.103567131	5.314100E+01
419	  0.103767529	-7.047000E+00	  0.103767529	5.393700E+01	  0.103767529	5.951400E+01	  0.103767529	5.325700E+01
420	  0.103967935	-7.044000E+00	  0.103967935	5.367500E+01	  0.103967935	5.979800E+01	  0.103967935	5.336200E+01
421	  0.104168333	-7.049000E+00	  0.104168333	5.345100E+01	  0.104168333	6.005900E+01	  0.104168333	5.339200E+01
422	  0.104368731	-7.046000E+00	  0.104368731	5.323300E+01	  0.104368731	6.029700E+01	  0.104368731	5.347800E+01
423	  0.104569137	-7.044000E+00	  0.104569137	5.294500E+01	  0.104569137	6.061900E+01	  0.104569137	5.357700E+01
424	  0.104769535	-7.040000E+00	  0.104769535	5.276000E+01	  0.104769535	6.082100E+01	  0.104769535	5.366500E+01
425	  0.104969934	-7.036000E+00	  0.104969934	5.251200E+01	  0.104969934	6.109800E+01	  0.104969934	5.376600E+01
426	  0.105170339	-7.027000E+00	  0.105170339	5.230300E+01	  0.105170339	6.132000E+01	  0.105170339	5.389800E+01
427	  0.105370738	-7.031000E+00	  0.105370738	5.210200E+01	  0.105370738	6.155900E+01	  0.105370738	5.392500E+01
428	  0.105571143	-7.035000E+00	  0.105571143	5.182500E+01	  0.105571143	6.189000E+01	  0.105571143	5.396800E+01
429	  0.105771542	-7.038000E+00	  0.105771542	5.166500E+01	  0.105771542	6.208200E+01	  0.105771542	5.399200E+01
430	  0.105971940	-7.022000E+00	  0.105971940	5.149700E+01	  0.105971940	6.225000E+01	  0.105971940	5.415800E+01
431	  0.106172346	-7.029000E+00	  0.106172346	5.123900E+01	  0.106172346	6.256800E+01	  0.106172346	5.417400E+01
432	  0.106372744	-7.031000E+00	  0.106372744	5.104500E+01	  0.106372744	6.280200E+01	  0.106372744	5.420500E+01
433	  0.106573142	-7.034000E+00	  0.106573142	5.075700E+01	  0.106573142	6.314900E+01	  0.106573142	5.426000E+01
434	  0.106773548	-7.040000E+00	  0.106773548	5.056000E+01	  0.106773548	6.339500E+01	  0.106773548	5.426100E+01
435	  0.106973946	-7.035000E+00	  0.106973946	5.033900E+01	  0.106973946	6.365300E+01	  0.106973946	5.435600E+01
436	  0.107174344	-7.031000E+00	  0.107174344	5.015400E+01	  0.107174344	6.387000E+01	  0.107174344	5.443300E+01
437	  0.107374750	-7.035000E+00	  0.107374750	4.991100E+01	  0.107374750	6.417200E+01	  0.107374750	5.446200E+01
438	  0.107575148	-7.041000E+00	  0.107575148	4.962500E+01	  0.107575148	6.453200E+01	  0.107575148	5.447800E+01
439	  0.107775547	-7.043000E+00	  0.107775547	4.942600E+01	  0.107775547	6.478100E+01	  0.107775547	5.450100E+01
440	  0.107975952	-7.045000E+00	  0.107975952	4.916000E+01	  0.107975952	6.511100E+01	  0.107975952	5.454900E+01
441	  0.108176351	-7.051000E+00	  0.108176351	4.885400E+01	  0.108176351	6.550000E+01	  0.108176351	5.456500E+01
442	  0.108376749	-7.051000E+00	  0.108376749	4.862800E+01	  0.108376749	6.578400E+01	  0.108376749	5.460500E+01
443	  0.108577155	-7.038000E+00	  0.108577155	4.841100E+01	  0.108577155	6.603900E+01	  0.108577155	5.475700E+01
444	  0.108777553	-7.045000E+00	  0.108777553	4.817400E+01	  0.108777553	6.634800E+01	  0.108777553	5.474600E+01
445	  0.108977959	-7.043000E+00	  0.108977959	4.789500E+01	  0.108977959	6.670000E+01	  0.108977959	5.481400E+01
446	  0.109178357	-7.039000E+00	  0.109178357	4.762800E+01	  0.109178357	6.703800E+01	  0.109178357	5.489800E+01
447	  0.109378755	-7.037000E+00	  0.109378755	4.739600E+01	  0.109378755	6.733300E+01	  0.109378755	5.495900E+01
448	  0.109579161	-7.040000E+00	  0.109579161	4.712000E+01	  0.109579161	6.769500E+01	  0.109579161	5.497900E+01
449	  0.109779559	-7.026000E+00	  0.109779559	4.688600E+01	  0.109779559	6.798600E+01	  0.109779559	5.513300E+01
450	  0.109979957	-7.029000E+00	  0.109979957	4.671000E+01	  0.109979957	6.821900E+01	  0.109979957	5.513400E+01
451	  0.110180363	-7.029000E+00	  0.110180363	4.640900E+01	  0.110180363	6.861500E+01	  0.110180363	5.518400E+01
452	  0.110380761	-7.017000E+00	  0.110380761	4.620000E+01	  0.110380761	6.888000E+01	  0.110380761	5.532100E+01
453	  0.110581160	-7.017000E+00	  0.110581160	4.594800E+01	  0.110581160	6.921600E+01	  0.110581160	5.535600E+01
454	  0.110781565	-7.021000E+00	  0.110781565	4.572000E+01	  0.110781565	6.952600E+01	  0.110781565	5.534600E+01
455	  0.110981964	-7.009000E+00	  0.110981964	4.548800E+01	  0.110981964	6.982900E+01	  0.110981964	5.548600E+01
456	  0.111182362	-7.004000E+00	  0.111182362	4.533000E+01	  0.111182362	7.003800E+01	  0.111182362	5.554800E+01
457	  0.111382768	-7.001000E+00	  0.111382768	4.505200E+01	  0.111382768	7.041500E+01	  0.111382768	5.560700E+01
458	  0.111583166	-7.003000E+00	  0.111583166	4.490900E+01	  0.111583166	7.061200E+01	  0.111583166	5.560400E+01
459	  0.111783572	-7.001000E+00	  0.111783572	4.466000E+01	  0.111783572	7.095400E+01	  0.111783572	5.564300E+01
460	  0.111983970	-6.999000E+00	  0.111983970	4.443500E+01	  0.111983970	7.126300E+01	  0.111983970	5.568500E+01
461	  0.112184368	-7.002000E+00	  0.112184368	4.425400E+01	  0.112184368	7.151500E+01	  0.112184368	5.567100E+01
462	  0.112384774	-6.996000E+00	  0.112384774	4.409400E+01	  0.112384774	7.173500E+01	  0.112384774	5.573900E+01
463	  0.112585172	-7.003000E+00	  0.112585172	4.386500E+01	  0.112585172	7.206000E+01	  0.112585172	5.569400E+01
464	  0.112785570	-6.999000E+00	  0.112785570	4.366200E+01	  0.112785570	7.234200E+01	  0.112785570	5.574300E+01
465	  0.112985976	-7.010000E+00	  0.112985976	4.342000E+01	  0.112985976	7.268900E+01	  0.112985976	5.565800E+01
466	  0.113186374	-7.006000E+00	  0.113186374	4.320800E+01	  0.113186374	7.298700E+01	  0.113186374	5.570300E+01
467	  0.113386773	-7.007000E+00	  0.113386773	4.296300E+01	  0.113386773	7.333600E+01	  0.113386773	5.570800E+01
468	  0.113587178	-7.002000E+00	  0.113587178	4.279100E+01	  0.113587178	7.358000E+01	  0.113587178	5.575700E+01
469	  0.113787577	-7.008000E+00	  0.113787577	4.254600E+01	  0.113787577	7.393300E+01	  0.113787577	5.571700E+01
470	  0.113987975	-7.006000E+00	  0.113987975	4.233400E+01	  0.113987975	7.423900E+01	  0.113987975	5.573400E+01
471	  0.114188381	-7.014000E+00	  0.114188381	4.206900E+01	  0.114188381	7.462200E+01	  0.114188381	5.566300E+01
472	  0.114388779	-7.011000E+00	  0.114388779	4.184700E+01	  0.114388779	7.494500E+01	  0.114388779	5.568900E+01
473	  0.114589177	-7.014000E+00	  0.114589177	4.159900E+01	  0.114589177	7.530800E+01	  0.114589177	5.565700E+01
474	  0.114789583	-7.021000E+00	  0.114789583	4.137600E+01	  0.114789583	7.563300E+01	  0.114789583	5.558500E+01
475	  0.114989981	-7.019000E+00	  0.114989981	4.110300E+01	  0.114989981	7.603500E+01	  0.114989981	5.560000E+01
476	  0.115190387	-7.013000E+00	  0.115190387	4.088600E+01	  0.115190387	7.635800E+01	  0.115190387	5.564900E+01
477	  0.115390785	-7.016000E+00	  0.115390785	4.061200E+01	  0.115390785	7.676400E+01	  0.115390785	5.560900E+01
478	  0.115591183	-7.021000E+00	  0.115591183	4.035400E+01	  0.115591183	7.714700E+01	  0.115591183	5.554400E+01
479	  0.115791589	-7.016000E+00	  0.115791589	4.010500E+01	  0.115791589	7.752400E+01	  0.115791589	5.558000E+01
480	  0.115991987	-7.018000E+00	  0.115991987	3.986100E+01	  0.115991987	7.788900E+01	  0.115991987	5.553700E+01
481	  0.116192386	-7.012000E+00	  0.116192386	3.961900E+01	  0.116192386	7.826000E+01	  0.116192386	5.557900E+01
482	  0.116392791	-7.010000E+00	  0.116392791	3.932600E+01	  0.116392791	7.870700E+01	  0.116392791	5.556800E+01
483	  0.116593190	-7.003000E+00	  0.116593190	3.914500E+01	  0.116593190	7.899000E+01	  0.116593190	5.562300E+01
484	  0.116793588	-7.008000E+00	  0.116793588	3.889800E+01	  0.116793588	7.936500E+01	  0.116793588	5.554200E+01
485	  0.116993994	-7.009000E+00	  0.116993994	3.864800E+01	  0.116993994	7.975000E+01	  0.116993994	5.549900E+01
486	  0.117194392	-6.996000E+00	  0.117194392	3.844000E+01	  0.117194392	8.008400E+01	  0.117194392	5.560000E+01
487	  0.117394790	-6.994000E+00	  0.117394790	3.816500E+01	  0.117394790	8.051500E+01	  0.117394790	5.557900E+01
488	  0.117595196	-6.997000E+00	  0.117595196	3.802700E+01	  0.117595196	8.072700E+01	  0.117595196	5.552800E+01
489	  0.117795594	-6.991000E+00	  0.117795594	3.781000E+01	  0.117795594	8.107300E+01	  0.117795594	5.555100E+01
490	  0.117995992	-6.991000E+00	  0.117995992	3.754100E+01	  0.117995992	8.149600E+01	  0.117995992	5.549800E+01
491	  0.118196398	-6.991000E+00	  0.118196398	3.731700E+01	  0.118196398	8.185200E+01	  0.118196398	5.546300E+01
492	  0.118396796	-6.995000E+00	  0.118396796	3.713700E+01	  0.118396796	8.213200E+01	  0.118396796	5.537800E+01
493	  0.118597202	-6.989000E+00	  0.118597202	3.690600E+01	  0.118597202	8.250700E+01	  0.118597202	5.539200E+01
494	  0.118797600	-6.991000E+00	  0.118797600	3.670700E+01	  0.118797600	8.282200E+01	  0.118797600	5.532700E+01
495	  0.118997999	-6.993000E+00	  0.118997999	3.648300E+01	  0.118997999	8.318000E+01	  0.118997999	5.526200E+01
496	  0.119198404	-6.988000E+00	  0.119198404	3.627300E+01	  0.119198404	8.352500E+01	  0.119198404	5.525700E+01
497	  0.119398803	-6.991000E+00	  0.119398803	3.604500E+01	  0.119398803	8.388800E+01	  0.119398803	5.517200E+01
498	  0.119599201	-6.995000E+00	  0.119599201	3.580800E+01	  0.119599201	8.426500E+01	  0.119599201	5.506900E+01
499	  0.119799607	-6.998000E+00	  0.119799607	3.558700E+01	  0.119799607	8.461700E+01	  0.119799607	5.497000E+01
500	  0.120000005	-6.991000E+00	  0.120000005	3.534700E+01	  0.120000005	8.502100E+01	  0.120000005	5.497300E+01
