! Anritsu VNA Master:             	Model: MS2036C/10/77
! SN:             	1601066
! /bd0/18may09/254.ew.m3.txt
! Existing Calibration Information:
! TYPE:             	Current Settings	Active Cal Settings
! TIME:             	05/09/2018 10:15:10 AM	05/09/2018 10:08:40 AM
! INTERNAL TEMP:    	48.5 C	48.0 C
! # POINTS:         	500	500
! START FREQ:       	20.000 MHz	20.000 MHz
! STOP FREQ:        	120.000 MHz	120.000 MHz
! SOURCE POWER:     	High	High
! IFBW:             	50 Hz	50 Hz
! AVG FACTOR:       	  1 	  1 
! REF PLANE 1:      	0 mm	0 mm
! REF PLANE 2:      	0 mm	0 mm
! CAL TYPE:         	Full S11	Full S11
! CAL METHOD:       	SOLT	SOLT
! CAL LINE TYPE:    	Coax	Coax
! DUT PORT 1:       	K-Conn(F)	K-Conn(F)
! DUT PORT 2:       	K-Conn(F)	K-Conn(F)
! CAL STATUS:       	OK: Accuracy High	--
! PROP-V:       	0.700
! CABLE LOSS:       	0.000 dB/m
! REF IMPEDANCE:       	50.0
! Trace Specific Parameters:	TR1	TR2	TR3	TR4
! TRACE.#.Y (GRAPH TYPE)	LOG MAG	PHASE	REAL IMPEDANCE	IMAGINARY IMPEDANCE
! TRACE.#.X 	FREQ.GHZ	FREQ.GHZ	FREQ.GHZ	FREQ.GHZ
! S-PARAMETER	S11	S11	S11	S11
! SMOOTH/APERTURE %	0	0	0	0
! WINDOW	NSL	NSL	NSL	NSL
! GATING	OFF	OFF	OFF	OFF
! FGTD	OFF	OFF	OFF	OFF
Marker Information per Trace:	TR1	TR2	TR3	TR4
!MK1	--	"MK1 TR2:  20.000 MHz,PH:-125.06°"	--	--
!MK2	--	--	"MK2 TR3:  70.100 200 MHz,Z:(15.960 ohm, -3.349 ohm)"	--
!MK3	--	--	--	--
!MK4	--	--	--	--
!MK5	--	--	--	--
!MK6	--	--	--	--
!MK7	--	--	--	--
!MK8	--	--	--	--
PNT	TR1.FREQ.GHZ	TR1.LOG MAG.dB	TR2.FREQ.GHZ	TR2.PHASE.deg	TR3.FREQ.GHZ	TR3.REAL IMPEDANCE.ohm	TR4.FREQ.GHZ	TR4.IMAGINARY IMPEDANCE.ohm
1	  0.020000000	-6.170000E-01	  0.020000000	-1.250610E+02	  0.020000000	2.257000E+00	  0.020000000	-2.595200E+01
2	  0.020200402	-6.140000E-01	  0.020200402	-1.265110E+02	  0.020200402	2.217000E+00	  0.020200402	-2.515500E+01
3	  0.020400802	-6.130000E-01	  0.020400802	-1.279530E+02	  0.020400802	2.186000E+00	  0.020400802	-2.437300E+01
4	  0.020601204	-6.130000E-01	  0.020601204	-1.294240E+02	  0.020601204	2.159000E+00	  0.020601204	-2.358500E+01
5	  0.020801604	-6.170000E-01	  0.020801604	-1.309080E+02	  0.020801604	2.147000E+00	  0.020801604	-2.279900E+01
6	  0.021002004	-6.220000E-01	  0.021002004	-1.324220E+02	  0.021002004	2.138000E+00	  0.021002004	-2.200600E+01
7	  0.021202406	-6.280000E-01	  0.021202406	-1.339490E+02	  0.021202406	2.134000E+00	  0.021202406	-2.121600E+01
8	  0.021402806	-6.320000E-01	  0.021402806	-1.354780E+02	  0.021402806	2.123000E+00	  0.021402806	-2.043500E+01
9	  0.021603208	-6.340000E-01	  0.021603208	-1.370130E+02	  0.021603208	2.107000E+00	  0.021603208	-1.965800E+01
10	  0.021803608	-6.380000E-01	  0.021803608	-1.385430E+02	  0.021803608	2.100000E+00	  0.021803608	-1.889200E+01
11	  0.022004008	-6.430000E-01	  0.022004008	-1.400900E+02	  0.022004008	2.093000E+00	  0.022004008	-1.812500E+01
12	  0.022204408	-6.510000E-01	  0.022204408	-1.416360E+02	  0.022204408	2.101000E+00	  0.022204408	-1.736600E+01
13	  0.022404809	-6.530000E-01	  0.022404809	-1.432000E+02	  0.022404809	2.088000E+00	  0.022404809	-1.660600E+01
14	  0.022605211	-6.550000E-01	  0.022605211	-1.448110E+02	  0.022605211	2.076000E+00	  0.022605211	-1.583000E+01
15	  0.022805611	-6.600000E-01	  0.022805611	-1.463870E+02	  0.022805611	2.073000E+00	  0.022805611	-1.507800E+01
16	  0.023006011	-6.660000E-01	  0.023006011	-1.479760E+02	  0.023006011	2.074000E+00	  0.023006011	-1.432500E+01
17	  0.023206413	-6.660000E-01	  0.023206413	-1.495530E+02	  0.023206413	2.058000E+00	  0.023206413	-1.358500E+01
18	  0.023406813	-6.670000E-01	  0.023406813	-1.511370E+02	  0.023406813	2.048000E+00	  0.023406813	-1.284600E+01
19	  0.023607215	-6.720000E-01	  0.023607215	-1.527390E+02	  0.023607215	2.047000E+00	  0.023607215	-1.210500E+01
20	  0.023807615	-6.770000E-01	  0.023807615	-1.543390E+02	  0.023807615	2.050000E+00	  0.023807615	-1.136900E+01
21	  0.024008015	-6.840000E-01	  0.024008015	-1.559530E+02	  0.024008015	2.059000E+00	  0.024008015	-1.063100E+01
22	  0.024208417	-6.930000E-01	  0.024208417	-1.575930E+02	  0.024208417	2.073000E+00	  0.024208417	-9.886000E+00
23	  0.024408817	-7.010000E-01	  0.024408817	-1.592370E+02	  0.024408817	2.085000E+00	  0.024408817	-9.144000E+00
24	  0.024609219	-7.060000E-01	  0.024609219	-1.608830E+02	  0.024609219	2.089000E+00	  0.024609219	-8.405000E+00
25	  0.024809619	-7.150000E-01	  0.024809619	-1.625420E+02	  0.024809619	2.106000E+00	  0.024809619	-7.663000E+00
26	  0.025010020	-7.230000E-01	  0.025010020	-1.641860E+02	  0.025010020	2.120000E+00	  0.025010020	-6.931000E+00
27	  0.025210422	-7.320000E-01	  0.025210422	-1.658450E+02	  0.025210422	2.140000E+00	  0.025210422	-6.196000E+00
28	  0.025410822	-7.450000E-01	  0.025410822	-1.675150E+02	  0.025410822	2.169000E+00	  0.025410822	-5.458000E+00
29	  0.025611224	-7.570000E-01	  0.025611224	-1.692180E+02	  0.025611224	2.197000E+00	  0.025611224	-4.709000E+00
30	  0.025811624	-7.670000E-01	  0.025811624	-1.709300E+02	  0.025811624	2.221000E+00	  0.025811624	-3.957000E+00
31	  0.026012026	-7.760000E-01	  0.026012026	-1.726570E+02	  0.026012026	2.242000E+00	  0.026012026	-3.201000E+00
32	  0.026212426	-7.850000E-01	  0.026212426	-1.743730E+02	  0.026212426	2.265000E+00	  0.026212426	-2.452000E+00
33	  0.026412826	-7.980000E-01	  0.026412826	-1.760970E+02	  0.026412826	2.298000E+00	  0.026412826	-1.700000E+00
34	  0.026613226	-8.100000E-01	  0.026613226	-1.778350E+02	  0.026613226	2.330000E+00	  0.026613226	-9.420000E-01
35	  0.026813626	-8.220000E-01	  0.026813626	-1.795920E+02	  0.026813626	2.366000E+00	  0.026813626	-1.770000E-01
36	  0.027014028	-8.380000E-01	  0.027014028	1.786500E+02	  0.027014028	2.411000E+00	  0.027014028	5.870000E-01
37	  0.027214428	-8.530000E-01	  0.027214428	1.768770E+02	  0.027214428	2.455000E+00	  0.027214428	1.359000E+00
38	  0.027414829	-8.670000E-01	  0.027414829	1.750840E+02	  0.027414829	2.497000E+00	  0.027414829	2.140000E+00
39	  0.027615231	-8.810000E-01	  0.027615231	1.732870E+02	  0.027615231	2.542000E+00	  0.027615231	2.924000E+00
40	  0.027815631	-9.000000E-01	  0.027815631	1.714950E+02	  0.027815631	2.603000E+00	  0.027815631	3.707000E+00
41	  0.028016033	-9.190000E-01	  0.028016033	1.696590E+02	  0.028016033	2.664000E+00	  0.028016033	4.511000E+00
42	  0.028216433	-9.380000E-01	  0.028216433	1.678350E+02	  0.028216433	2.727000E+00	  0.028216433	5.312000E+00
43	  0.028416833	-9.580000E-01	  0.028416833	1.660040E+02	  0.028416833	2.796000E+00	  0.028416833	6.118000E+00
44	  0.028617235	-9.760000E-01	  0.028617235	1.641660E+02	  0.028617235	2.860000E+00	  0.028617235	6.930000E+00
45	  0.028817635	-9.930000E-01	  0.028817635	1.623370E+02	  0.028817635	2.925000E+00	  0.028817635	7.742000E+00
46	  0.029018037	-1.010000E+00	  0.029018037	1.605050E+02	  0.029018037	2.990000E+00	  0.029018037	8.559000E+00
47	  0.029218437	-1.030000E+00	  0.029218437	1.586780E+02	  0.029218437	3.065000E+00	  0.029218437	9.377000E+00
48	  0.029418837	-1.051000E+00	  0.029418837	1.568490E+02	  0.029418837	3.150000E+00	  0.029418837	1.020100E+01
49	  0.029619239	-1.075000E+00	  0.029619239	1.550050E+02	  0.029619239	3.243000E+00	  0.029619239	1.103700E+01
50	  0.029819639	-1.102000E+00	  0.029819639	1.531320E+02	  0.029819639	3.349000E+00	  0.029819639	1.189200E+01
51	  0.030020041	-1.131000E+00	  0.030020041	1.512310E+02	  0.030020041	3.464000E+00	  0.030020041	1.276500E+01
52	  0.030220442	-1.159000E+00	  0.030220442	1.493080E+02	  0.030220442	3.581000E+00	  0.030220442	1.365600E+01
53	  0.030420844	-1.185000E+00	  0.030420844	1.473820E+02	  0.030420844	3.696000E+00	  0.030420844	1.455500E+01
54	  0.030621244	-1.214000E+00	  0.030621244	1.454730E+02	  0.030621244	3.824000E+00	  0.030621244	1.545500E+01
55	  0.030821644	-1.244000E+00	  0.030821644	1.435650E+02	  0.030821644	3.961000E+00	  0.030821644	1.636200E+01
56	  0.031022044	-1.276000E+00	  0.031022044	1.416460E+02	  0.031022044	4.107000E+00	  0.031022044	1.728400E+01
57	  0.031222444	-1.305000E+00	  0.031222444	1.397170E+02	  0.031222444	4.251000E+00	  0.031222444	1.822100E+01
58	  0.031422846	-1.340000E+00	  0.031422846	1.377400E+02	  0.031422846	4.422000E+00	  0.031422846	1.919100E+01
59	  0.031623244	-1.374000E+00	  0.031623244	1.357610E+02	  0.031623244	4.595000E+00	  0.031623244	2.017500E+01
60	  0.031823646	-1.407000E+00	  0.031823646	1.337680E+02	  0.031823646	4.773000E+00	  0.031823646	2.117800E+01
61	  0.032024048	-1.439000E+00	  0.032024048	1.317680E+02	  0.032024048	4.954000E+00	  0.032024048	2.219900E+01
62	  0.032224450	-1.471000E+00	  0.032224450	1.297820E+02	  0.032224450	5.145000E+00	  0.032224450	2.322700E+01
63	  0.032424849	-1.501000E+00	  0.032424849	1.278020E+02	  0.032424849	5.336000E+00	  0.032424849	2.426700E+01
64	  0.032625251	-1.533000E+00	  0.032625251	1.258370E+02	  0.032625251	5.541000E+00	  0.032625251	2.531600E+01
65	  0.032825653	-1.567000E+00	  0.032825653	1.238640E+02	  0.032825653	5.763000E+00	  0.032825653	2.638500E+01
66	  0.033026051	-1.607000E+00	  0.033026051	1.218850E+02	  0.033026051	6.021000E+00	  0.033026051	2.747200E+01
67	  0.033226453	-1.646000E+00	  0.033226453	1.199000E+02	  0.033226453	6.287000E+00	  0.033226453	2.858100E+01
68	  0.033426855	-1.696000E+00	  0.033426855	1.179300E+02	  0.033426855	6.604000E+00	  0.033426855	2.969700E+01
69	  0.033627257	-1.741000E+00	  0.033627257	1.159170E+02	  0.033627257	6.925000E+00	  0.033627257	3.086000E+01
70	  0.033827655	-1.790000E+00	  0.033827655	1.138710E+02	  0.033827655	7.279000E+00	  0.033827655	3.206300E+01
71	  0.034028057	-1.839000E+00	  0.034028057	1.117950E+02	  0.034028057	7.653000E+00	  0.034028057	3.330800E+01
72	  0.034228459	-1.882000E+00	  0.034228459	1.096780E+02	  0.034228459	8.027000E+00	  0.034228459	3.460900E+01
73	  0.034428857	-1.929000E+00	  0.034428857	1.075680E+02	  0.034428857	8.443000E+00	  0.034428857	3.593100E+01
74	  0.034629259	-1.974000E+00	  0.034629259	1.054220E+02	  0.034629259	8.874000E+00	  0.034629259	3.730900E+01
75	  0.034829661	-2.014000E+00	  0.034829661	1.033140E+02	  0.034829661	9.303000E+00	  0.034829661	3.869800E+01
76	  0.035030060	-2.056000E+00	  0.035030060	1.011780E+02	  0.035030060	9.778000E+00	  0.035030060	4.013900E+01
77	  0.035230462	-2.097000E+00	  0.035230462	9.908700E+01	  0.035230462	1.026800E+01	  0.035230462	4.158600E+01
78	  0.035430863	-2.136000E+00	  0.035430863	9.698900E+01	  0.035430863	1.078300E+01	  0.035430863	4.307600E+01
79	  0.035631265	-2.175000E+00	  0.035631265	9.490900E+01	  0.035631265	1.132800E+01	  0.035631265	4.459400E+01
80	  0.035831664	-2.214000E+00	  0.035831664	9.284100E+01	  0.035831664	1.190600E+01	  0.035831664	4.614300E+01
81	  0.036032066	-2.257000E+00	  0.036032066	9.077400E+01	  0.036032066	1.254500E+01	  0.036032066	4.772900E+01
82	  0.036232468	-2.300000E+00	  0.036232468	8.872900E+01	  0.036232468	1.322300E+01	  0.036232468	4.934100E+01
83	  0.036432866	-2.348000E+00	  0.036432866	8.669900E+01	  0.036432866	1.397400E+01	  0.036432866	5.097700E+01
84	  0.036633268	-2.398000E+00	  0.036633268	8.466100E+01	  0.036633268	1.479100E+01	  0.036633268	5.266200E+01
85	  0.036833670	-2.450000E+00	  0.036833670	8.263700E+01	  0.036833670	1.567300E+01	  0.036833670	5.437700E+01
86	  0.037034072	-2.506000E+00	  0.037034072	8.057900E+01	  0.037034072	1.666000E+01	  0.037034072	5.616200E+01
87	  0.037234470	-2.566000E+00	  0.037234470	7.852800E+01	  0.037234470	1.773700E+01	  0.037234470	5.798300E+01
88	  0.037434869	-2.623000E+00	  0.037434869	7.641300E+01	  0.037434869	1.890300E+01	  0.037434869	5.992300E+01
89	  0.037635271	-2.678000E+00	  0.037635271	7.431100E+01	  0.037635271	2.014400E+01	  0.037635271	6.191100E+01
90	  0.037835669	-2.738000E+00	  0.037835669	7.216900E+01	  0.037835669	2.154000E+01	  0.037835669	6.398500E+01
91	  0.038036071	-2.796000E+00	  0.038036071	7.000700E+01	  0.038036071	2.305600E+01	  0.038036071	6.614200E+01
92	  0.038236473	-2.855000E+00	  0.038236473	6.788400E+01	  0.038236473	2.468300E+01	  0.038236473	6.831300E+01
93	  0.038436871	-2.906000E+00	  0.038436871	6.574000E+01	  0.038436871	2.639700E+01	  0.038436871	7.060400E+01
94	  0.038637273	-2.958000E+00	  0.038637273	6.362100E+01	  0.038637273	2.826700E+01	  0.038637273	7.292000E+01
95	  0.038837675	-3.003000E+00	  0.038837675	6.152800E+01	  0.038837675	3.021700E+01	  0.038837675	7.530400E+01
96	  0.039038073	-3.047000E+00	  0.039038073	5.946800E+01	  0.039038073	3.230800E+01	  0.039038073	7.771600E+01
97	  0.039238475	-3.093000E+00	  0.039238475	5.743300E+01	  0.039238475	3.458400E+01	  0.039238475	8.014100E+01
98	  0.039438877	-3.140000E+00	  0.039438877	5.542000E+01	  0.039438877	3.706000E+01	  0.039438877	8.257400E+01
99	  0.039639279	-3.190000E+00	  0.039639279	5.342800E+01	  0.039639279	3.976100E+01	  0.039639279	8.500100E+01
100	  0.039839678	-3.245000E+00	  0.039839678	5.140900E+01	  0.039839678	4.278300E+01	  0.039839678	8.745700E+01
101	  0.040040080	-3.303000E+00	  0.040040080	4.937100E+01	  0.040040080	4.614800E+01	  0.040040080	8.991500E+01
102	  0.040240481	-3.361000E+00	  0.040240481	4.732700E+01	  0.040240481	4.983400E+01	  0.040240481	9.236700E+01
103	  0.040440880	-3.423000E+00	  0.040440880	4.526800E+01	  0.040440880	5.393400E+01	  0.040440880	9.475000E+01
104	  0.040641282	-3.478000E+00	  0.040641282	4.322100E+01	  0.040641282	5.832900E+01	  0.040641282	9.711900E+01
105	  0.040841684	-3.534000E+00	  0.040841684	4.113700E+01	  0.040841684	6.321200E+01	  0.040841684	9.943800E+01
106	  0.041042086	-3.590000E+00	  0.041042086	3.910800E+01	  0.041042086	6.842800E+01	  0.041042086	1.015160E+02
107	  0.041242484	-3.643000E+00	  0.041242484	3.703900E+01	  0.041242484	7.419500E+01	  0.041242484	1.034700E+02
108	  0.041442886	-3.697000E+00	  0.041442886	3.498000E+01	  0.041442886	8.044600E+01	  0.041442886	1.051450E+02
109	  0.041643288	-3.749000E+00	  0.041643288	3.290000E+01	  0.041643288	8.729300E+01	  0.041643288	1.064980E+02
110	  0.041843686	-3.797000E+00	  0.041843686	3.085900E+01	  0.041843686	9.453600E+01	  0.041843686	1.074430E+02
111	  0.042044088	-3.845000E+00	  0.042044088	2.880200E+01	  0.042044088	1.023900E+02	  0.042044088	1.078560E+02
112	  0.042244490	-3.895000E+00	  0.042244490	2.677700E+01	  0.042244490	1.106600E+02	  0.042244490	1.075310E+02
113	  0.042444889	-3.940000E+00	  0.042444889	2.476600E+01	  0.042444889	1.193390E+02	  0.042444889	1.064980E+02
114	  0.042645290	-3.988000E+00	  0.042645290	2.277000E+01	  0.042645290	1.283530E+02	  0.042645290	1.044600E+02
115	  0.042845692	-4.036000E+00	  0.042845692	2.077500E+01	  0.042845692	1.376390E+02	  0.042845692	1.013750E+02
116	  0.043046094	-4.083000E+00	  0.043046094	1.877600E+01	  0.043046094	1.470760E+02	  0.043046094	9.708100E+01
117	  0.043246493	-4.129000E+00	  0.043246493	1.676900E+01	  0.043246493	1.564970E+02	  0.043246493	9.149000E+01
118	  0.043446895	-4.175000E+00	  0.043446895	1.477700E+01	  0.043446895	1.655310E+02	  0.043446895	8.453500E+01
119	  0.043647297	-4.219000E+00	  0.043647297	1.279300E+01	  0.043647297	1.739990E+02	  0.043647297	7.628900E+01
120	  0.043847695	-4.265000E+00	  0.043847695	1.082500E+01	  0.043847695	1.814570E+02	  0.043847695	6.668800E+01
121	  0.044048097	-4.312000E+00	  0.044048097	8.860000E+00	  0.044048097	1.877190E+02	  0.044048097	5.590800E+01
122	  0.044248499	-4.359000E+00	  0.044248499	6.891000E+00	  0.044248499	1.925820E+02	  0.044248499	4.415900E+01
123	  0.044448901	-4.402000E+00	  0.044448901	4.961000E+00	  0.044448901	1.959010E+02	  0.044448901	3.203700E+01
124	  0.044649299	-4.447000E+00	  0.044649299	3.016000E+00	  0.044649299	1.975160E+02	  0.044649299	1.943800E+01
125	  0.044849701	-4.487000E+00	  0.044849701	1.071000E+00	  0.044849701	1.975980E+02	  0.044849701	6.843000E+00
126	  0.045050103	-4.525000E+00	  0.045050103	-8.460000E-01	  0.045050103	1.960890E+02	  0.045050103	-5.314000E+00
127	  0.045250501	-4.563000E+00	  0.045250501	-2.765000E+00	  0.045250501	1.930850E+02	  0.045250501	-1.694200E+01
128	  0.045450903	-4.605000E+00	  0.045450903	-4.663000E+00	  0.045450903	1.886500E+02	  0.045450903	-2.761300E+01
129	  0.045651305	-4.643000E+00	  0.045651305	-6.539000E+00	  0.045651305	1.833350E+02	  0.045651305	-3.725600E+01
130	  0.045851704	-4.684000E+00	  0.045851704	-8.400000E+00	  0.045851704	1.771290E+02	  0.045851704	-4.572700E+01
131	  0.046052106	-4.721000E+00	  0.046052106	-1.025800E+01	  0.046052106	1.704680E+02	  0.046052106	-5.319000E+01
132	  0.046252504	-4.759000E+00	  0.046252504	-1.210500E+01	  0.046252504	1.634390E+02	  0.046252504	-5.953000E+01
133	  0.046452906	-4.795000E+00	  0.046452906	-1.393700E+01	  0.046452906	1.562720E+02	  0.046452906	-6.483100E+01
134	  0.046653304	-4.828000E+00	  0.046653304	-1.579200E+01	  0.046653304	1.490080E+02	  0.046653304	-6.931800E+01
135	  0.046853706	-4.861000E+00	  0.046853706	-1.761700E+01	  0.046853706	1.419130E+02	  0.046853706	-7.288300E+01
136	  0.047054108	-4.892000E+00	  0.047054108	-1.943900E+01	  0.047054108	1.349700E+02	  0.047054108	-7.568600E+01
137	  0.047254506	-4.922000E+00	  0.047254506	-2.123200E+01	  0.047254506	1.283270E+02	  0.047254506	-7.777000E+01
138	  0.047454908	-4.954000E+00	  0.047454908	-2.302700E+01	  0.047454908	1.219200E+02	  0.047454908	-7.925200E+01
139	  0.047655310	-4.981000E+00	  0.047655310	-2.480500E+01	  0.047655310	1.158680E+02	  0.047655310	-8.028400E+01
140	  0.047855709	-5.011000E+00	  0.047855709	-2.653800E+01	  0.047855709	1.102280E+02	  0.047855709	-8.081000E+01
141	  0.048056111	-5.039000E+00	  0.048056111	-2.827200E+01	  0.048056111	1.048790E+02	  0.048056111	-8.100700E+01
142	  0.048256513	-5.072000E+00	  0.048256513	-2.999900E+01	  0.048256513	9.983200E+01	  0.048256513	-8.079900E+01
143	  0.048456915	-5.100000E+00	  0.048456915	-3.173700E+01	  0.048456915	9.505000E+01	  0.048456915	-8.044400E+01
144	  0.048657313	-5.129000E+00	  0.048657313	-3.345600E+01	  0.048657313	9.059600E+01	  0.048657313	-7.985200E+01
145	  0.048857715	-5.154000E+00	  0.048857715	-3.518100E+01	  0.048857715	8.639000E+01	  0.048857715	-7.915100E+01
146	  0.049058117	-5.179000E+00	  0.049058117	-3.689400E+01	  0.049058117	8.246000E+01	  0.049058117	-7.830200E+01
147	  0.049258515	-5.202000E+00	  0.049258515	-3.858600E+01	  0.049258515	7.881100E+01	  0.049258515	-7.735100E+01
148	  0.049458917	-5.228000E+00	  0.049458917	-4.027800E+01	  0.049458917	7.538300E+01	  0.049458917	-7.628000E+01
149	  0.049659319	-5.251000E+00	  0.049659319	-4.195700E+01	  0.049659319	7.218400E+01	  0.049659319	-7.516600E+01
150	  0.049859721	-5.275000E+00	  0.049859721	-4.363300E+01	  0.049859721	6.918500E+01	  0.049859721	-7.397400E+01
151	  0.050060119	-5.298000E+00	  0.050060119	-4.530400E+01	  0.050060119	6.637400E+01	  0.050060119	-7.274600E+01
152	  0.050260521	-5.319000E+00	  0.050260521	-4.698300E+01	  0.050260521	6.370700E+01	  0.050260521	-7.150900E+01
153	  0.050460923	-5.338000E+00	  0.050460923	-4.864900E+01	  0.050460923	6.121400E+01	  0.050460923	-7.025500E+01
154	  0.050661322	-5.352000E+00	  0.050661322	-5.030900E+01	  0.050661322	5.885100E+01	  0.050661322	-6.903600E+01
155	  0.050861724	-5.369000E+00	  0.050861724	-5.193300E+01	  0.050861724	5.668500E+01	  0.050861724	-6.779500E+01
156	  0.051062126	-5.383000E+00	  0.051062126	-5.357900E+01	  0.051062126	5.460000E+01	  0.051062126	-6.655000E+01
157	  0.051262524	-5.395000E+00	  0.051262524	-5.515600E+01	  0.051262524	5.270800E+01	  0.051262524	-6.535700E+01
158	  0.051462926	-5.407000E+00	  0.051462926	-5.669600E+01	  0.051462926	5.096000E+01	  0.051462926	-6.418600E+01
159	  0.051663328	-5.418000E+00	  0.051663328	-5.825200E+01	  0.051663328	4.927800E+01	  0.051663328	-6.301100E+01
160	  0.051863730	-5.432000E+00	  0.051863730	-5.977800E+01	  0.051863730	4.773400E+01	  0.051863730	-6.183200E+01
161	  0.052064128	-5.448000E+00	  0.052064128	-6.132600E+01	  0.052064128	4.625400E+01	  0.052064128	-6.063400E+01
162	  0.052264530	-5.464000E+00	  0.052264530	-6.285300E+01	  0.052264530	4.486700E+01	  0.052264530	-5.946200E+01
163	  0.052464932	-5.479000E+00	  0.052464932	-6.437600E+01	  0.052464932	4.355300E+01	  0.052464932	-5.830500E+01
164	  0.052665330	-5.494000E+00	  0.052665330	-6.590600E+01	  0.052665330	4.230000E+01	  0.052665330	-5.715300E+01
165	  0.052865732	-5.509000E+00	  0.052865732	-6.743900E+01	  0.052865732	4.110600E+01	  0.052865732	-5.601100E+01
166	  0.053066134	-5.521000E+00	  0.053066134	-6.895600E+01	  0.053066134	3.996900E+01	  0.053066134	-5.490800E+01
167	  0.053266536	-5.534000E+00	  0.053266536	-7.048100E+01	  0.053266536	3.888500E+01	  0.053266536	-5.380800E+01
168	  0.053466935	-5.541000E+00	  0.053466935	-7.196000E+01	  0.053466935	3.786200E+01	  0.053466935	-5.277500E+01
169	  0.053667337	-5.548000E+00	  0.053667337	-7.347300E+01	  0.053667337	3.686300E+01	  0.053667337	-5.173000E+01
170	  0.053867739	-5.553000E+00	  0.053867739	-7.495500E+01	  0.053867739	3.592100E+01	  0.053867739	-5.072500E+01
171	  0.054068137	-5.557000E+00	  0.054068137	-7.644300E+01	  0.054068137	3.501300E+01	  0.054068137	-4.973100E+01
172	  0.054268539	-5.561000E+00	  0.054268539	-7.789700E+01	  0.054268539	3.416600E+01	  0.054268539	-4.876900E+01
173	  0.054468941	-5.566000E+00	  0.054468941	-7.932000E+01	  0.054468941	3.337700E+01	  0.054468941	-4.783200E+01
174	  0.054669339	-5.569000E+00	  0.054669339	-8.075100E+01	  0.054669339	3.260700E+01	  0.054669339	-4.691100E+01
175	  0.054869737	-5.575000E+00	  0.054869737	-8.214000E+01	  0.054869737	3.190700E+01	  0.054869737	-4.601100E+01
176	  0.055070139	-5.580000E+00	  0.055070139	-8.354800E+01	  0.055070139	3.122000E+01	  0.055070139	-4.511500E+01
177	  0.055270538	-5.588000E+00	  0.055270538	-8.492200E+01	  0.055270538	3.059200E+01	  0.055270538	-4.424000E+01
178	  0.055470940	-5.594000E+00	  0.055470940	-8.629800E+01	  0.055470940	2.997500E+01	  0.055470940	-4.338300E+01
179	  0.055671342	-5.601000E+00	  0.055671342	-8.769200E+01	  0.055671342	2.938600E+01	  0.055671342	-4.251800E+01
180	  0.055871744	-5.608000E+00	  0.055871744	-8.909500E+01	  0.055871744	2.881300E+01	  0.055871744	-4.165900E+01
181	  0.056072142	-5.616000E+00	  0.056072142	-9.045500E+01	  0.056072142	2.828500E+01	  0.056072142	-4.083400E+01
182	  0.056272544	-5.621000E+00	  0.056272544	-9.185300E+01	  0.056272544	2.775300E+01	  0.056272544	-4.000400E+01
183	  0.056472946	-5.626000E+00	  0.056472946	-9.323800E+01	  0.056472946	2.724500E+01	  0.056472946	-3.919100E+01
184	  0.056673344	-5.633000E+00	  0.056673344	-9.462500E+01	  0.056673344	2.676100E+01	  0.056673344	-3.838300E+01
185	  0.056873746	-5.633000E+00	  0.056873746	-9.598800E+01	  0.056873746	2.628500E+01	  0.056873746	-3.761000E+01
186	  0.057074148	-5.637000E+00	  0.057074148	-9.737100E+01	  0.057074148	2.582800E+01	  0.057074148	-3.682900E+01
187	  0.057274550	-5.639000E+00	  0.057274550	-9.874800E+01	  0.057274550	2.538700E+01	  0.057274550	-3.606200E+01
188	  0.057474948	-5.640000E+00	  0.057474948	-1.000920E+02	  0.057474948	2.497000E+01	  0.057474948	-3.532300E+01
189	  0.057675350	-5.636000E+00	  0.057675350	-1.014210E+02	  0.057675350	2.455400E+01	  0.057675350	-3.460900E+01
190	  0.057875752	-5.635000E+00	  0.057875752	-1.027400E+02	  0.057875752	2.416800E+01	  0.057875752	-3.390100E+01
191	  0.058076151	-5.638000E+00	  0.058076151	-1.040260E+02	  0.058076151	2.381400E+01	  0.058076151	-3.321200E+01
192	  0.058276553	-5.639000E+00	  0.058276553	-1.053240E+02	  0.058276553	2.346600E+01	  0.058276553	-3.252600E+01
193	  0.058476955	-5.637000E+00	  0.058476955	-1.065660E+02	  0.058476955	2.313600E+01	  0.058476955	-3.188000E+01
194	  0.058677353	-5.641000E+00	  0.058677353	-1.078520E+02	  0.058677353	2.282400E+01	  0.058677353	-3.120700E+01
195	  0.058877755	-5.645000E+00	  0.058877755	-1.091170E+02	  0.058877755	2.252900E+01	  0.058877755	-3.055200E+01
196	  0.059078157	-5.650000E+00	  0.059078157	-1.103720E+02	  0.059078157	2.224700E+01	  0.059078157	-2.990700E+01
197	  0.059278559	-5.650000E+00	  0.059278559	-1.116470E+02	  0.059278559	2.195800E+01	  0.059278559	-2.926300E+01
198	  0.059478957	-5.655000E+00	  0.059478957	-1.128930E+02	  0.059478957	2.169900E+01	  0.059478957	-2.863400E+01
199	  0.059679359	-5.662000E+00	  0.059679359	-1.141450E+02	  0.059679359	2.145500E+01	  0.059679359	-2.800400E+01
200	  0.059879761	-5.663000E+00	  0.059879761	-1.154110E+02	  0.059879761	2.119800E+01	  0.059879761	-2.738100E+01
201	  0.060080159	-5.666000E+00	  0.060080159	-1.166380E+02	  0.060080159	2.096200E+01	  0.060080159	-2.678100E+01
202	  0.060280561	-5.665000E+00	  0.060280561	-1.178890E+02	  0.060280561	2.071900E+01	  0.060280561	-2.617700E+01
203	  0.060480963	-5.670000E+00	  0.060480963	-1.191090E+02	  0.060480963	2.050700E+01	  0.060480963	-2.558700E+01
204	  0.060681365	-5.671000E+00	  0.060681365	-1.203350E+02	  0.060681365	2.028800E+01	  0.060681365	-2.500300E+01
205	  0.060881764	-5.671000E+00	  0.060881764	-1.215590E+02	  0.060881764	2.007600E+01	  0.060881764	-2.442500E+01
206	  0.061082166	-5.671000E+00	  0.061082166	-1.227800E+02	  0.061082166	1.987100E+01	  0.061082166	-2.385300E+01
207	  0.061282568	-5.669000E+00	  0.061282568	-1.239850E+02	  0.061282568	1.966700E+01	  0.061282568	-2.329500E+01
208	  0.061482966	-5.669000E+00	  0.061482966	-1.251790E+02	  0.061482966	1.947900E+01	  0.061482966	-2.274400E+01
209	  0.061683368	-5.668000E+00	  0.061683368	-1.263350E+02	  0.061683368	1.930000E+01	  0.061683368	-2.221500E+01
210	  0.061883770	-5.671000E+00	  0.061883770	-1.275160E+02	  0.061883770	1.913500E+01	  0.061883770	-2.167300E+01
211	  0.062084168	-5.671000E+00	  0.062084168	-1.286480E+02	  0.062084168	1.897600E+01	  0.062084168	-2.116000E+01
212	  0.062284570	-5.673000E+00	  0.062284570	-1.298050E+02	  0.062284570	1.882000E+01	  0.062284570	-2.063800E+01
213	  0.062484972	-5.663000E+00	  0.062484972	-1.309060E+02	  0.062484972	1.864500E+01	  0.062484972	-2.015300E+01
214	  0.062685370	-5.672000E+00	  0.062685370	-1.320810E+02	  0.062685370	1.851900E+01	  0.062685370	-1.962300E+01
215	  0.062885776	-5.669000E+00	  0.062885776	-1.332300E+02	  0.062885776	1.836800E+01	  0.062885776	-1.911700E+01
216	  0.063086174	-5.676000E+00	  0.063086174	-1.343800E+02	  0.063086174	1.825100E+01	  0.063086174	-1.860500E+01
217	  0.063286573	-5.676000E+00	  0.063286573	-1.355200E+02	  0.063286573	1.811700E+01	  0.063286573	-1.810600E+01
218	  0.063486971	-5.676000E+00	  0.063486971	-1.366960E+02	  0.063486971	1.798400E+01	  0.063486971	-1.759500E+01
219	  0.063687377	-5.676000E+00	  0.063687377	-1.378350E+02	  0.063687377	1.786000E+01	  0.063687377	-1.710200E+01
220	  0.063887775	-5.673000E+00	  0.063887775	-1.389720E+02	  0.063887775	1.773400E+01	  0.063887775	-1.661400E+01
221	  0.064088173	-5.674000E+00	  0.064088173	-1.401050E+02	  0.064088173	1.762300E+01	  0.064088173	-1.612800E+01
222	  0.064288579	-5.672000E+00	  0.064288579	-1.412470E+02	  0.064288579	1.750500E+01	  0.064288579	-1.564200E+01
223	  0.064488977	-5.669000E+00	  0.064488977	-1.423500E+02	  0.064488977	1.739300E+01	  0.064488977	-1.517600E+01
224	  0.064689375	-5.671000E+00	  0.064689375	-1.434620E+02	  0.064689375	1.729800E+01	  0.064689375	-1.470400E+01
225	  0.064889781	-5.669000E+00	  0.064889781	-1.445440E+02	  0.064889781	1.719900E+01	  0.064889781	-1.425000E+01
226	  0.065090179	-5.668000E+00	  0.065090179	-1.456380E+02	  0.065090179	1.710300E+01	  0.065090179	-1.379200E+01
227	  0.065290578	-5.668000E+00	  0.065290578	-1.467220E+02	  0.065290578	1.701700E+01	  0.065290578	-1.333900E+01
228	  0.065490983	-5.668000E+00	  0.065490983	-1.477970E+02	  0.065490983	1.693200E+01	  0.065490983	-1.289200E+01
229	  0.065691382	-5.669000E+00	  0.065691382	-1.488640E+02	  0.065691382	1.685400E+01	  0.065691382	-1.244900E+01
230	  0.065891780	-5.668000E+00	  0.065891780	-1.499590E+02	  0.065891780	1.677400E+01	  0.065891780	-1.199700E+01
231	  0.066092186	-5.671000E+00	  0.066092186	-1.510200E+02	  0.066092186	1.671000E+01	  0.066092186	-1.155900E+01
232	  0.066292584	-5.673000E+00	  0.066292584	-1.520710E+02	  0.066292584	1.664600E+01	  0.066292584	-1.112700E+01
233	  0.066492982	-5.676000E+00	  0.066492982	-1.531270E+02	  0.066492982	1.658600E+01	  0.066492982	-1.069400E+01
234	  0.066693388	-5.674000E+00	  0.066693388	-1.541900E+02	  0.066693388	1.651700E+01	  0.066693388	-1.026100E+01
235	  0.066893786	-5.676000E+00	  0.066893786	-1.552130E+02	  0.066893786	1.646400E+01	  0.066893786	-9.845000E+00
236	  0.067094192	-5.680000E+00	  0.067094192	-1.562830E+02	  0.067094192	1.641400E+01	  0.067094192	-9.410000E+00
237	  0.067294590	-5.678000E+00	  0.067294590	-1.573030E+02	  0.067294590	1.635600E+01	  0.067294590	-8.998000E+00
238	  0.067494988	-5.683000E+00	  0.067494988	-1.583580E+02	  0.067494988	1.631600E+01	  0.067494988	-8.571000E+00
239	  0.067695394	-5.683000E+00	  0.067695394	-1.594020E+02	  0.067695394	1.626600E+01	  0.067695394	-8.151000E+00
240	  0.067895792	-5.684000E+00	  0.067895792	-1.604530E+02	  0.067895792	1.622200E+01	  0.067895792	-7.729000E+00
241	  0.068096191	-5.686000E+00	  0.068096191	-1.614660E+02	  0.068096191	1.618300E+01	  0.068096191	-7.323000E+00
242	  0.068296596	-5.692000E+00	  0.068296596	-1.624920E+02	  0.068296596	1.616000E+01	  0.068296596	-6.911000E+00
243	  0.068496995	-5.692000E+00	  0.068496995	-1.635230E+02	  0.068496995	1.611900E+01	  0.068496995	-6.500000E+00
244	  0.068697393	-5.690000E+00	  0.068697393	-1.645190E+02	  0.068697393	1.607900E+01	  0.068697393	-6.104000E+00
245	  0.068897791	-5.698000E+00	  0.068897791	-1.655330E+02	  0.068897791	1.606600E+01	  0.068897791	-5.699000E+00
246	  0.069098189	-5.699000E+00	  0.069098189	-1.665180E+02	  0.069098189	1.603800E+01	  0.069098189	-5.308000E+00
247	  0.069298595	-5.694000E+00	  0.069298595	-1.675340E+02	  0.069298595	1.599600E+01	  0.069298595	-4.907000E+00
248	  0.069498993	-5.698000E+00	  0.069498993	-1.685310E+02	  0.069498993	1.598000E+01	  0.069498993	-4.512000E+00
249	  0.069699399	-5.704000E+00	  0.069699399	-1.695300E+02	  0.069699399	1.597200E+01	  0.069699399	-4.116000E+00
250	  0.069899797	-5.709000E+00	  0.069899797	-1.705240E+02	  0.069899797	1.596300E+01	  0.069899797	-3.724000E+00
251	  0.070100196	-5.715000E+00	  0.070100196	-1.714730E+02	  0.070100196	1.596000E+01	  0.070100196	-3.349000E+00
252	  0.070300601	-5.711000E+00	  0.070300601	-1.724730E+02	  0.070300601	1.593400E+01	  0.070300601	-2.956000E+00
253	  0.070501000	-5.718000E+00	  0.070501000	-1.734520E+02	  0.070501000	1.593400E+01	  0.070501000	-2.570000E+00
254	  0.070701398	-5.719000E+00	  0.070701398	-1.744400E+02	  0.070701398	1.592600E+01	  0.070701398	-2.181000E+00
255	  0.070901804	-5.721000E+00	  0.070901804	-1.754070E+02	  0.070901804	1.592000E+01	  0.070901804	-1.802000E+00
256	  0.071102202	-5.724000E+00	  0.071102202	-1.763740E+02	  0.071102202	1.591800E+01	  0.071102202	-1.422000E+00
257	  0.071302600	-5.730000E+00	  0.071302600	-1.773540E+02	  0.071302600	1.592800E+01	  0.071302600	-1.037000E+00
258	  0.071503006	-5.733000E+00	  0.071503006	-1.782990E+02	  0.071503006	1.593200E+01	  0.071503006	-6.660000E-01
259	  0.071703404	-5.743000E+00	  0.071703404	-1.792400E+02	  0.071703404	1.595300E+01	  0.071703404	-2.970000E-01
260	  0.071903802	-5.748000E+00	  0.071903802	1.798190E+02	  0.071903802	1.596600E+01	  0.071903802	7.000000E-02
261	  0.072104208	-5.751000E+00	  0.072104208	1.788760E+02	  0.072104208	1.597500E+01	  0.072104208	4.400000E-01
262	  0.072304606	-5.753000E+00	  0.072304606	1.779520E+02	  0.072304606	1.598500E+01	  0.072304606	8.020000E-01
263	  0.072505005	-5.758000E+00	  0.072505005	1.769970E+02	  0.072505005	1.600300E+01	  0.072505005	1.176000E+00
264	  0.072705410	-5.767000E+00	  0.072705410	1.760740E+02	  0.072705410	1.603100E+01	  0.072705410	1.537000E+00
265	  0.072905809	-5.775000E+00	  0.072905809	1.751490E+02	  0.072905809	1.606200E+01	  0.072905809	1.899000E+00
266	  0.073106214	-5.779000E+00	  0.073106214	1.742280E+02	  0.073106214	1.608300E+01	  0.073106214	2.260000E+00
267	  0.073306613	-5.784000E+00	  0.073306613	1.733020E+02	  0.073306613	1.610900E+01	  0.073306613	2.622000E+00
268	  0.073507011	-5.794000E+00	  0.073507011	1.723870E+02	  0.073507011	1.614800E+01	  0.073507011	2.980000E+00
269	  0.073707417	-5.796000E+00	  0.073707417	1.714520E+02	  0.073707417	1.617000E+01	  0.073707417	3.347000E+00
270	  0.073907815	-5.803000E+00	  0.073907815	1.705430E+02	  0.073907815	1.620600E+01	  0.073907815	3.703000E+00
271	  0.074108213	-5.808000E+00	  0.074108213	1.696490E+02	  0.074108213	1.624100E+01	  0.074108213	4.054000E+00
272	  0.074308619	-5.813000E+00	  0.074308619	1.687490E+02	  0.074308619	1.627600E+01	  0.074308619	4.407000E+00
273	  0.074509017	-5.820000E+00	  0.074509017	1.678060E+02	  0.074509017	1.631700E+01	  0.074509017	4.777000E+00
274	  0.074709415	-5.829000E+00	  0.074709415	1.669140E+02	  0.074709415	1.636600E+01	  0.074709415	5.127000E+00
275	  0.074909821	-5.834000E+00	  0.074909821	1.660190E+02	  0.074909821	1.640700E+01	  0.074909821	5.479000E+00
276	  0.075110219	-5.841000E+00	  0.075110219	1.651420E+02	  0.075110219	1.645400E+01	  0.075110219	5.823000E+00
277	  0.075310618	-5.849000E+00	  0.075310618	1.642270E+02	  0.075310618	1.650500E+01	  0.075310618	6.183000E+00
278	  0.075511023	-5.855000E+00	  0.075511023	1.633530E+02	  0.075511023	1.655300E+01	  0.075511023	6.528000E+00
279	  0.075711422	-5.859000E+00	  0.075711422	1.624800E+02	  0.075711422	1.659600E+01	  0.075711422	6.873000E+00
280	  0.075911827	-5.868000E+00	  0.075911827	1.616080E+02	  0.075911827	1.665500E+01	  0.075911827	7.216000E+00
281	  0.076112226	-5.877000E+00	  0.076112226	1.607000E+02	  0.076112226	1.672000E+01	  0.076112226	7.574000E+00
282	  0.076312624	-5.881000E+00	  0.076312624	1.598350E+02	  0.076312624	1.677000E+01	  0.076312624	7.917000E+00
283	  0.076513030	-5.889000E+00	  0.076513030	1.589110E+02	  0.076513030	1.683500E+01	  0.076513030	8.283000E+00
284	  0.076713428	-5.895000E+00	  0.076713428	1.580150E+02	  0.076713428	1.689500E+01	  0.076713428	8.639000E+00
285	  0.076913826	-5.903000E+00	  0.076913826	1.571290E+02	  0.076913826	1.696100E+01	  0.076913826	8.990000E+00
286	  0.077114232	-5.907000E+00	  0.077114232	1.562890E+02	  0.077114232	1.701600E+01	  0.077114232	9.325000E+00
287	  0.077314630	-5.914000E+00	  0.077314630	1.554010E+02	  0.077314630	1.708500E+01	  0.077314630	9.679000E+00
288	  0.077515028	-5.920000E+00	  0.077515028	1.545950E+02	  0.077515028	1.714900E+01	  0.077515028	1.000100E+01
289	  0.077715434	-5.923000E+00	  0.077715434	1.537230E+02	  0.077715434	1.721000E+01	  0.077715434	1.035100E+01
290	  0.077915832	-5.935000E+00	  0.077915832	1.528530E+02	  0.077915832	1.729700E+01	  0.077915832	1.069800E+01
291	  0.078116231	-5.943000E+00	  0.078116231	1.520050E+02	  0.078116231	1.737600E+01	  0.078116231	1.103700E+01
292	  0.078316636	-5.953000E+00	  0.078316636	1.511660E+02	  0.078316636	1.745800E+01	  0.078316636	1.137200E+01
293	  0.078517035	-5.962000E+00	  0.078517035	1.503000E+02	  0.078517035	1.754300E+01	  0.078517035	1.172000E+01
294	  0.078717433	-5.970000E+00	  0.078717433	1.494520E+02	  0.078717433	1.762700E+01	  0.078717433	1.206100E+01
295	  0.078917839	-5.983000E+00	  0.078917839	1.486060E+02	  0.078917839	1.772600E+01	  0.078917839	1.240000E+01
296	  0.079118237	-5.996000E+00	  0.079118237	1.477820E+02	  0.079118237	1.782400E+01	  0.079118237	1.273000E+01
297	  0.079318643	-6.008000E+00	  0.079318643	1.469130E+02	  0.079318643	1.792900E+01	  0.079318643	1.307900E+01
298	  0.079519041	-6.018000E+00	  0.079519041	1.460930E+02	  0.079519041	1.802300E+01	  0.079519041	1.341100E+01
299	  0.079719439	-6.029000E+00	  0.079719439	1.452380E+02	  0.079719439	1.812500E+01	  0.079719439	1.375600E+01
300	  0.079919845	-6.044000E+00	  0.079919845	1.444160E+02	  0.079919845	1.823900E+01	  0.079919845	1.408700E+01
301	  0.080120243	-6.054000E+00	  0.080120243	1.435520E+02	  0.080120243	1.834600E+01	  0.080120243	1.443700E+01
302	  0.080320641	-6.064000E+00	  0.080320641	1.427010E+02	  0.080320641	1.845200E+01	  0.080320641	1.478500E+01
303	  0.080521047	-6.079000E+00	  0.080521047	1.418520E+02	  0.080521047	1.857500E+01	  0.080521047	1.512800E+01
304	  0.080721445	-6.089000E+00	  0.080721445	1.410040E+02	  0.080721445	1.868700E+01	  0.080721445	1.547500E+01
305	  0.080921844	-6.102000E+00	  0.080921844	1.401630E+02	  0.080921844	1.881000E+01	  0.080921844	1.581700E+01
306	  0.081122249	-6.113000E+00	  0.081122249	1.393510E+02	  0.081122249	1.892500E+01	  0.081122249	1.615000E+01
307	  0.081322648	-6.124000E+00	  0.081322648	1.385080E+02	  0.081322648	1.904800E+01	  0.081322648	1.649500E+01
308	  0.081523046	-6.139000E+00	  0.081523046	1.376660E+02	  0.081523046	1.918300E+01	  0.081523046	1.683900E+01
309	  0.081723452	-6.151000E+00	  0.081723452	1.368390E+02	  0.081723452	1.931100E+01	  0.081723452	1.717900E+01
310	  0.081923850	-6.162000E+00	  0.081923850	1.359910E+02	  0.081923850	1.944200E+01	  0.081923850	1.752900E+01
311	  0.082124248	-6.175000E+00	  0.082124248	1.351780E+02	  0.082124248	1.957500E+01	  0.082124248	1.786400E+01
312	  0.082324654	-6.187000E+00	  0.082324654	1.343840E+02	  0.082324654	1.970600E+01	  0.082324654	1.819300E+01
313	  0.082525052	-6.205000E+00	  0.082525052	1.335680E+02	  0.082525052	1.986200E+01	  0.082525052	1.852600E+01
314	  0.082725458	-6.217000E+00	  0.082725458	1.327670E+02	  0.082725458	1.999800E+01	  0.082725458	1.885900E+01
315	  0.082925856	-6.235000E+00	  0.082925856	1.319660E+02	  0.082925856	2.015700E+01	  0.082925856	1.918600E+01
316	  0.083126254	-6.249000E+00	  0.083126254	1.311370E+02	  0.083126254	2.031100E+01	  0.083126254	1.953000E+01
317	  0.083326660	-6.262000E+00	  0.083326660	1.303150E+02	  0.083326660	2.046300E+01	  0.083326660	1.987300E+01
318	  0.083527058	-6.280000E+00	  0.083527058	1.294950E+02	  0.083527058	2.063300E+01	  0.083527058	2.021000E+01
319	  0.083727457	-6.295000E+00	  0.083727457	1.286520E+02	  0.083727457	2.079800E+01	  0.083727457	2.056200E+01
320	  0.083927862	-6.308000E+00	  0.083927862	1.278700E+02	  0.083927862	2.095300E+01	  0.083927862	2.089000E+01
321	  0.084128261	-6.322000E+00	  0.084128261	1.270440E+02	  0.084128261	2.112200E+01	  0.084128261	2.123600E+01
322	  0.084328659	-6.339000E+00	  0.084328659	1.262690E+02	  0.084328659	2.129300E+01	  0.084328659	2.155800E+01
323	  0.084529065	-6.353000E+00	  0.084529065	1.254840E+02	  0.084529065	2.146200E+01	  0.084529065	2.188700E+01
324	  0.084729463	-6.371000E+00	  0.084729463	1.247330E+02	  0.084729463	2.164000E+01	  0.084729463	2.219700E+01
325	  0.084929861	-6.387000E+00	  0.084929861	1.239160E+02	  0.084929861	2.182400E+01	  0.084929861	2.254000E+01
326	  0.085130267	-6.406000E+00	  0.085130267	1.231480E+02	  0.085130267	2.201400E+01	  0.085130267	2.285800E+01
327	  0.085330658	-6.424000E+00	  0.085330658	1.223560E+02	  0.085330658	2.220700E+01	  0.085330658	2.318800E+01
328	  0.085531056	-6.446000E+00	  0.085531056	1.216040E+02	  0.085531056	2.240600E+01	  0.085531056	2.349700E+01
329	  0.085731462	-6.465000E+00	  0.085731462	1.208370E+02	  0.085731462	2.260400E+01	  0.085731462	2.381500E+01
330	  0.085931860	-6.488000E+00	  0.085931860	1.200750E+02	  0.085931860	2.281700E+01	  0.085931860	2.412700E+01
331	  0.086132258	-6.514000E+00	  0.086132258	1.193280E+02	  0.086132258	2.303900E+01	  0.086132258	2.442800E+01
332	  0.086332664	-6.536000E+00	  0.086332664	1.185300E+02	  0.086332664	2.326300E+01	  0.086332664	2.475700E+01
333	  0.086533062	-6.561000E+00	  0.086533062	1.177870E+02	  0.086533062	2.348900E+01	  0.086533062	2.505600E+01
334	  0.086733460	-6.582000E+00	  0.086733460	1.169700E+02	  0.086733460	2.372100E+01	  0.086733460	2.539500E+01
335	  0.086933866	-6.602000E+00	  0.086933866	1.162110E+02	  0.086933866	2.394100E+01	  0.086933866	2.571000E+01
336	  0.087134264	-6.625000E+00	  0.087134264	1.154360E+02	  0.087134264	2.418000E+01	  0.087134264	2.602700E+01
337	  0.087334670	-6.650000E+00	  0.087334670	1.146440E+02	  0.087334670	2.443100E+01	  0.087334670	2.634900E+01
338	  0.087535068	-6.673000E+00	  0.087535068	1.138660E+02	  0.087535068	2.467600E+01	  0.087535068	2.666700E+01
339	  0.087735467	-6.695000E+00	  0.087735467	1.130990E+02	  0.087735467	2.492000E+01	  0.087735467	2.698300E+01
340	  0.087935872	-6.721000E+00	  0.087935872	1.123440E+02	  0.087935872	2.517700E+01	  0.087935872	2.728500E+01
341	  0.088136271	-6.749000E+00	  0.088136271	1.115650E+02	  0.088136271	2.544900E+01	  0.088136271	2.759700E+01
342	  0.088336669	-6.766000E+00	  0.088336669	1.108190E+02	  0.088336669	2.568500E+01	  0.088336669	2.791000E+01
343	  0.088537075	-6.790000E+00	  0.088537075	1.100540E+02	  0.088537075	2.595100E+01	  0.088537075	2.822000E+01
344	  0.088737473	-6.808000E+00	  0.088737473	1.093020E+02	  0.088737473	2.620000E+01	  0.088737473	2.853300E+01
345	  0.088937871	-6.836000E+00	  0.088937871	1.085690E+02	  0.088937871	2.647800E+01	  0.088937871	2.882100E+01
346	  0.089138277	-6.858000E+00	  0.089138277	1.078220E+02	  0.089138277	2.674400E+01	  0.089138277	2.912500E+01
347	  0.089338675	-6.886000E+00	  0.089338675	1.070850E+02	  0.089338675	2.703500E+01	  0.089338675	2.941200E+01
348	  0.089539073	-6.914000E+00	  0.089539073	1.063730E+02	  0.089539073	2.731800E+01	  0.089539073	2.968800E+01
349	  0.089739479	-6.946000E+00	  0.089739479	1.056290E+02	  0.089739479	2.762800E+01	  0.089739479	2.997000E+01
350	  0.089939877	-6.973000E+00	  0.089939877	1.048890E+02	  0.089939877	2.792500E+01	  0.089939877	3.025800E+01
351	  0.090140276	-7.006000E+00	  0.090140276	1.041380E+02	  0.090140276	2.825100E+01	  0.090140276	3.053800E+01
352	  0.090340681	-7.031000E+00	  0.090340681	1.034160E+02	  0.090340681	2.854400E+01	  0.090340681	3.082100E+01
353	  0.090541080	-7.059000E+00	  0.090541080	1.026730E+02	  0.090541080	2.886000E+01	  0.090541080	3.110500E+01
354	  0.090741485	-7.094000E+00	  0.090741485	1.019450E+02	  0.090741485	2.919800E+01	  0.090741485	3.136600E+01
355	  0.090941884	-7.121000E+00	  0.090941884	1.012380E+02	  0.090941884	2.950700E+01	  0.090941884	3.163400E+01
356	  0.091142282	-7.156000E+00	  0.091142282	1.005130E+02	  0.091142282	2.985200E+01	  0.091142282	3.189000E+01
357	  0.091342688	-7.188000E+00	  0.091342688	9.978100E+01	  0.091342688	3.019500E+01	  0.091342688	3.215400E+01
358	  0.091543086	-7.228000E+00	  0.091543086	9.906500E+01	  0.091543086	3.056100E+01	  0.091543086	3.239100E+01
359	  0.091743484	-7.253000E+00	  0.091743484	9.838400E+01	  0.091743484	3.087300E+01	  0.091743484	3.264300E+01
360	  0.091943890	-7.290000E+00	  0.091943890	9.769400E+01	  0.091943890	3.122800E+01	  0.091943890	3.287200E+01
361	  0.092144288	-7.327000E+00	  0.092144288	9.701100E+01	  0.092144288	3.158500E+01	  0.092144288	3.309500E+01
362	  0.092344686	-7.364000E+00	  0.092344686	9.633600E+01	  0.092344686	3.194400E+01	  0.092344686	3.331100E+01
363	  0.092545092	-7.402000E+00	  0.092545092	9.567900E+01	  0.092545092	3.230600E+01	  0.092545092	3.351200E+01
364	  0.092745490	-7.436000E+00	  0.092745490	9.500800E+01	  0.092745490	3.266200E+01	  0.092745490	3.372800E+01
365	  0.092945889	-7.482000E+00	  0.092945889	9.436700E+01	  0.092945889	3.304700E+01	  0.092945889	3.389600E+01
366	  0.093146294	-7.523000E+00	  0.093146294	9.370000E+01	  0.093146294	3.342700E+01	  0.093146294	3.408900E+01
367	  0.093346693	-7.563000E+00	  0.093346693	9.305100E+01	  0.093346693	3.380700E+01	  0.093346693	3.426800E+01
368	  0.093547091	-7.603000E+00	  0.093547091	9.237500E+01	  0.093547091	3.419700E+01	  0.093547091	3.446100E+01
369	  0.093747497	-7.649000E+00	  0.093747497	9.170900E+01	  0.093747497	3.460600E+01	  0.093747497	3.462600E+01
370	  0.093947895	-7.688000E+00	  0.093947895	9.103500E+01	  0.093947895	3.500200E+01	  0.093947895	3.481100E+01
371	  0.094148301	-7.734000E+00	  0.094148301	9.040200E+01	  0.094148301	3.540700E+01	  0.094148301	3.495400E+01
372	  0.094348699	-7.775000E+00	  0.094348699	8.977400E+01	  0.094348699	3.579500E+01	  0.094348699	3.510600E+01
373	  0.094549097	-7.825000E+00	  0.094549097	8.913800E+01	  0.094549097	3.621600E+01	  0.094549097	3.523200E+01
374	  0.094749503	-7.856000E+00	  0.094749503	8.849800E+01	  0.094749503	3.659200E+01	  0.094749503	3.540900E+01
375	  0.094949901	-7.900000E+00	  0.094949901	8.787600E+01	  0.094949901	3.699700E+01	  0.094949901	3.553700E+01
376	  0.095150299	-7.939000E+00	  0.095150299	8.727100E+01	  0.095150299	3.738200E+01	  0.095150299	3.567200E+01
377	  0.095350705	-7.979000E+00	  0.095350705	8.666400E+01	  0.095350705	3.777700E+01	  0.095350705	3.579700E+01
378	  0.095551103	-8.023000E+00	  0.095551103	8.607200E+01	  0.095551103	3.817500E+01	  0.095551103	3.590400E+01
379	  0.095751502	-8.060000E+00	  0.095751502	8.548000E+01	  0.095751502	3.856100E+01	  0.095751502	3.602400E+01
380	  0.095951907	-8.104000E+00	  0.095951907	8.490300E+01	  0.095951907	3.895700E+01	  0.095951907	3.611500E+01
381	  0.096152306	-8.145000E+00	  0.096152306	8.436700E+01	  0.096152306	3.933100E+01	  0.096152306	3.619400E+01
382	  0.096352704	-8.191000E+00	  0.096352704	8.381700E+01	  0.096352704	3.972400E+01	  0.096352704	3.625900E+01
383	  0.096553110	-8.233000E+00	  0.096553110	8.328600E+01	  0.096553110	4.010100E+01	  0.096553110	3.632400E+01
384	  0.096753508	-8.271000E+00	  0.096753508	8.275100E+01	  0.096753508	4.046900E+01	  0.096753508	3.640200E+01
385	  0.096953906	-8.318000E+00	  0.096953906	8.225800E+01	  0.096953906	4.084300E+01	  0.096953906	3.642800E+01
386	  0.097154312	-8.361000E+00	  0.097154312	8.169600E+01	  0.097154312	4.124300E+01	  0.097154312	3.649000E+01
387	  0.097354710	-8.405000E+00	  0.097354710	8.117000E+01	  0.097354710	4.162800E+01	  0.097354710	3.653100E+01
388	  0.097555116	-8.452000E+00	  0.097555116	8.066700E+01	  0.097555116	4.200900E+01	  0.097555116	3.654900E+01
389	  0.097755514	-8.494000E+00	  0.097755514	8.014100E+01	  0.097755514	4.239200E+01	  0.097755514	3.658800E+01
390	  0.097955912	-8.539000E+00	  0.097955912	7.964200E+01	  0.097955912	4.276700E+01	  0.097955912	3.660500E+01
391	  0.098156318	-8.588000E+00	  0.098156318	7.918500E+01	  0.098156318	4.313100E+01	  0.098156318	3.658500E+01
392	  0.098356716	-8.624000E+00	  0.098356716	7.870600E+01	  0.098356716	4.347900E+01	  0.098356716	3.661700E+01
393	  0.098557115	-8.664000E+00	  0.098557115	7.824100E+01	  0.098557115	4.382600E+01	  0.098557115	3.662800E+01
394	  0.098757520	-8.712000E+00	  0.098757520	7.777700E+01	  0.098757520	4.419300E+01	  0.098757520	3.660300E+01
395	  0.098957919	-8.756000E+00	  0.098957919	7.730200E+01	  0.098957919	4.455600E+01	  0.098957919	3.659500E+01
396	  0.099158317	-8.798000E+00	  0.099158317	7.685700E+01	  0.099158317	4.490100E+01	  0.099158317	3.657800E+01
397	  0.099358723	-8.844000E+00	  0.099358723	7.646100E+01	  0.099358723	4.522300E+01	  0.099358723	3.652900E+01
398	  0.099559121	-8.887000E+00	  0.099559121	7.600600E+01	  0.099559121	4.557500E+01	  0.099559121	3.650500E+01
399	  0.099759519	-8.932000E+00	  0.099759519	7.560700E+01	  0.099759519	4.589700E+01	  0.099759519	3.645300E+01
400	  0.099959925	-8.973000E+00	  0.099959925	7.523500E+01	  0.099959925	4.619400E+01	  0.099959925	3.640800E+01
401	  0.100160323	-9.030000E+00	  0.100160323	7.480700E+01	  0.100160323	4.655700E+01	  0.100160323	3.631000E+01
402	  0.100360721	-9.061000E+00	  0.100360721	7.438600E+01	  0.100360721	4.686500E+01	  0.100360721	3.630900E+01
403	  0.100561127	-9.114000E+00	  0.100561127	7.398900E+01	  0.100561127	4.719800E+01	  0.100561127	3.621300E+01
404	  0.100761525	-9.145000E+00	  0.100761525	7.358900E+01	  0.100761525	4.749400E+01	  0.100761525	3.620000E+01
405	  0.100961931	-9.192000E+00	  0.100961931	7.314400E+01	  0.100961931	4.784400E+01	  0.100961931	3.613400E+01
406	  0.101162329	-9.225000E+00	  0.101162329	7.285000E+01	  0.101162329	4.808000E+01	  0.101162329	3.607700E+01
407	  0.101362728	-9.263000E+00	  0.101362728	7.243400E+01	  0.101362728	4.839600E+01	  0.101362728	3.603300E+01
408	  0.101563133	-9.308000E+00	  0.101563133	7.207800E+01	  0.101563133	4.868800E+01	  0.101563133	3.594000E+01
409	  0.101763532	-9.342000E+00	  0.101763532	7.172400E+01	  0.101763532	4.895900E+01	  0.101763532	3.589300E+01
410	  0.101963930	-9.370000E+00	  0.101963930	7.132400E+01	  0.101963930	4.925000E+01	  0.101963930	3.587300E+01
411	  0.102164336	-9.408000E+00	  0.102164336	7.091400E+01	  0.102164336	4.956200E+01	  0.102164336	3.581500E+01
412	  0.102364734	-9.434000E+00	  0.102364734	7.060500E+01	  0.102364734	4.979400E+01	  0.102364734	3.577800E+01
413	  0.102565132	-9.464000E+00	  0.102565132	7.020200E+01	  0.102565132	5.008900E+01	  0.102565132	3.574500E+01
414	  0.102765530	-9.485000E+00	  0.102765530	6.997100E+01	  0.102765530	5.026400E+01	  0.102765530	3.571100E+01
415	  0.102965929	-9.524000E+00	  0.102965929	6.957000E+01	  0.102965929	5.057100E+01	  0.102965929	3.563500E+01
416	  0.103166327	-9.540000E+00	  0.103166327	6.929800E+01	  0.103166327	5.076400E+01	  0.103166327	3.562600E+01
417	  0.103366733	-9.567000E+00	  0.103366733	6.899100E+01	  0.103366733	5.099500E+01	  0.103366733	3.557700E+01
418	  0.103567131	-9.587000E+00	  0.103567131	6.866700E+01	  0.103567131	5.122800E+01	  0.103567131	3.555600E+01
419	  0.103767529	-9.617000E+00	  0.103767529	6.834400E+01	  0.103767529	5.147200E+01	  0.103767529	3.549400E+01
420	  0.103967935	-9.640000E+00	  0.103967935	6.799100E+01	  0.103967935	5.172600E+01	  0.103967935	3.546700E+01
421	  0.104168333	-9.655000E+00	  0.104168333	6.774000E+01	  0.104168333	5.190600E+01	  0.104168333	3.544900E+01
422	  0.104368731	-9.680000E+00	  0.104368731	6.748700E+01	  0.104368731	5.210000E+01	  0.104368731	3.538800E+01
423	  0.104569137	-9.693000E+00	  0.104569137	6.718600E+01	  0.104569137	5.230800E+01	  0.104569137	3.538900E+01
424	  0.104769535	-9.706000E+00	  0.104769535	6.692000E+01	  0.104769535	5.249600E+01	  0.104769535	3.537700E+01
425	  0.104969934	-9.728000E+00	  0.104969934	6.663500E+01	  0.104969934	5.270600E+01	  0.104969934	3.533300E+01
426	  0.105170339	-9.733000E+00	  0.105170339	6.633300E+01	  0.105170339	5.290800E+01	  0.105170339	3.536400E+01
427	  0.105370738	-9.743000E+00	  0.105370738	6.610400E+01	  0.105370738	5.306900E+01	  0.105370738	3.535600E+01
428	  0.105571143	-9.755000E+00	  0.105571143	6.570700E+01	  0.105571143	5.334200E+01	  0.105571143	3.536900E+01
429	  0.105771542	-9.767000E+00	  0.105771542	6.547800E+01	  0.105771542	5.350500E+01	  0.105771542	3.535300E+01
430	  0.105971940	-9.775000E+00	  0.105971940	6.522600E+01	  0.105971940	5.368000E+01	  0.105971940	3.535800E+01
431	  0.106172346	-9.788000E+00	  0.106172346	6.491700E+01	  0.106172346	5.389900E+01	  0.106172346	3.534400E+01
432	  0.106372744	-9.788000E+00	  0.106372744	6.467000E+01	  0.106372744	5.406300E+01	  0.106372744	3.538100E+01
433	  0.106573142	-9.801000E+00	  0.106573142	6.426100E+01	  0.106573142	5.434800E+01	  0.106573142	3.538400E+01
434	  0.106773548	-9.813000E+00	  0.106773548	6.403800E+01	  0.106773548	5.451000E+01	  0.106773548	3.536000E+01
435	  0.106973946	-9.807000E+00	  0.106973946	6.370400E+01	  0.106973946	5.473000E+01	  0.106973946	3.543000E+01
436	  0.107174344	-9.802000E+00	  0.107174344	6.338900E+01	  0.107174344	5.493900E+01	  0.107174344	3.549400E+01
437	  0.107374750	-9.803000E+00	  0.107374750	6.302800E+01	  0.107374750	5.518700E+01	  0.107374750	3.553500E+01
438	  0.107575148	-9.797000E+00	  0.107575148	6.270300E+01	  0.107575148	5.540500E+01	  0.107575148	3.560300E+01
439	  0.107775547	-9.802000E+00	  0.107775547	6.241100E+01	  0.107775547	5.561000E+01	  0.107775547	3.561800E+01
440	  0.107975952	-9.794000E+00	  0.107975952	6.202500E+01	  0.107975952	5.587200E+01	  0.107975952	3.570000E+01
441	  0.108176351	-9.787000E+00	  0.108176351	6.167700E+01	  0.108176351	5.611000E+01	  0.108176351	3.576800E+01
442	  0.108376749	-9.785000E+00	  0.108376749	6.130400E+01	  0.108376749	5.637000E+01	  0.108376749	3.581600E+01
443	  0.108577155	-9.779000E+00	  0.108577155	6.088800E+01	  0.108577155	5.666000E+01	  0.108577155	3.588800E+01
444	  0.108777553	-9.770000E+00	  0.108777553	6.051600E+01	  0.108777553	5.692000E+01	  0.108777553	3.596700E+01
445	  0.108977959	-9.762000E+00	  0.108977959	6.010000E+01	  0.108977959	5.721300E+01	  0.108977959	3.604700E+01
446	  0.109178357	-9.745000E+00	  0.109178357	5.965900E+01	  0.109178357	5.752200E+01	  0.109178357	3.616700E+01
447	  0.109378755	-9.717000E+00	  0.109378755	5.921900E+01	  0.109378755	5.782800E+01	  0.109378755	3.633600E+01
448	  0.109579161	-9.716000E+00	  0.109579161	5.876100E+01	  0.109579161	5.816300E+01	  0.109579161	3.638000E+01
449	  0.109779559	-9.704000E+00	  0.109779559	5.838300E+01	  0.109779559	5.843800E+01	  0.109779559	3.646800E+01
450	  0.109979957	-9.680000E+00	  0.109979957	5.791200E+01	  0.109979957	5.877900E+01	  0.109979957	3.662000E+01
451	  0.110180363	-9.665000E+00	  0.110180363	5.742600E+01	  0.110180363	5.914000E+01	  0.110180363	3.672500E+01
452	  0.110380761	-9.643000E+00	  0.110380761	5.695900E+01	  0.110380761	5.948700E+01	  0.110380761	3.686200E+01
453	  0.110581160	-9.632000E+00	  0.110581160	5.644600E+01	  0.110581160	5.987800E+01	  0.110581160	3.694300E+01
454	  0.110781565	-9.603000E+00	  0.110781565	5.597800E+01	  0.110781565	6.023200E+01	  0.110781565	3.711500E+01
455	  0.110981964	-9.587000E+00	  0.110981964	5.544700E+01	  0.110981964	6.064400E+01	  0.110981964	3.721700E+01
456	  0.111182362	-9.569000E+00	  0.111182362	5.494800E+01	  0.111182362	6.103600E+01	  0.111182362	3.732600E+01
457	  0.111382768	-9.551000E+00	  0.111382768	5.443100E+01	  0.111382768	6.144500E+01	  0.111382768	3.743600E+01
458	  0.111583166	-9.532000E+00	  0.111583166	5.387300E+01	  0.111583166	6.189300E+01	  0.111583166	3.754700E+01
459	  0.111783572	-9.512000E+00	  0.111783572	5.335100E+01	  0.111783572	6.231700E+01	  0.111783572	3.766000E+01
460	  0.111983970	-9.491000E+00	  0.111983970	5.280200E+01	  0.111983970	6.276900E+01	  0.111983970	3.777800E+01
461	  0.112184368	-9.470000E+00	  0.112184368	5.219900E+01	  0.112184368	6.327200E+01	  0.112184368	3.788500E+01
462	  0.112384774	-9.454000E+00	  0.112384774	5.163800E+01	  0.112384774	6.374500E+01	  0.112384774	3.796600E+01
463	  0.112585172	-9.431000E+00	  0.112585172	5.101000E+01	  0.112585172	6.428300E+01	  0.112585172	3.807700E+01
464	  0.112785570	-9.414000E+00	  0.112785570	5.036800E+01	  0.112785570	6.483900E+01	  0.112785570	3.814900E+01
465	  0.112985976	-9.391000E+00	  0.112985976	4.971200E+01	  0.112985976	6.541600E+01	  0.112985976	3.824800E+01
466	  0.113186374	-9.382000E+00	  0.113186374	4.906800E+01	  0.113186374	6.598500E+01	  0.113186374	3.826500E+01
467	  0.113386773	-9.359000E+00	  0.113386773	4.845100E+01	  0.113386773	6.654200E+01	  0.113386773	3.834900E+01
468	  0.113587178	-9.345000E+00	  0.113587178	4.774400E+01	  0.113587178	6.718400E+01	  0.113587178	3.837000E+01
469	  0.113787577	-9.343000E+00	  0.113787577	4.702900E+01	  0.113787577	6.783100E+01	  0.113787577	3.831100E+01
470	  0.113987975	-9.323000E+00	  0.113987975	4.624800E+01	  0.113987975	6.855900E+01	  0.113987975	3.833600E+01
471	  0.114188381	-9.303000E+00	  0.114188381	4.550800E+01	  0.114188381	6.926000E+01	  0.114188381	3.836200E+01
472	  0.114388779	-9.291000E+00	  0.114388779	4.475700E+01	  0.114388779	6.997100E+01	  0.114388779	3.831700E+01
473	  0.114589177	-9.284000E+00	  0.114589177	4.404200E+01	  0.114589177	7.065100E+01	  0.114589177	3.823700E+01
474	  0.114789583	-9.273000E+00	  0.114789583	4.322400E+01	  0.114789583	7.144100E+01	  0.114789583	3.815400E+01
475	  0.114989981	-9.258000E+00	  0.114989981	4.242000E+01	  0.114989981	7.222900E+01	  0.114989981	3.807600E+01
476	  0.115190387	-9.262000E+00	  0.115190387	4.158000E+01	  0.115190387	7.303300E+01	  0.115190387	3.786000E+01
477	  0.115390785	-9.252000E+00	  0.115390785	4.072600E+01	  0.115390785	7.387600E+01	  0.115390785	3.770500E+01
478	  0.115591183	-9.249000E+00	  0.115591183	3.987200E+01	  0.115591183	7.471300E+01	  0.115591183	3.748100E+01
479	  0.115791589	-9.242000E+00	  0.115791589	3.897000E+01	  0.115791589	7.561200E+01	  0.115791589	3.725100E+01
480	  0.115991987	-9.241000E+00	  0.115991987	3.808400E+01	  0.115991987	7.648700E+01	  0.115991987	3.696100E+01
481	  0.116192386	-9.244000E+00	  0.116192386	3.718800E+01	  0.116192386	7.736600E+01	  0.116192386	3.662300E+01
482	  0.116392791	-9.244000E+00	  0.116392791	3.621800E+01	  0.116392791	7.832600E+01	  0.116392791	3.624100E+01
483	  0.116593190	-9.240000E+00	  0.116593190	3.528000E+01	  0.116593190	7.926700E+01	  0.116593190	3.587400E+01
484	  0.116793588	-9.241000E+00	  0.116793588	3.428600E+01	  0.116793588	8.025200E+01	  0.116793588	3.542200E+01
485	  0.116993994	-9.255000E+00	  0.116993994	3.328800E+01	  0.116993994	8.119600E+01	  0.116993994	3.484400E+01
486	  0.117194392	-9.259000E+00	  0.117194392	3.225200E+01	  0.117194392	8.220200E+01	  0.117194392	3.427700E+01
487	  0.117394790	-9.260000E+00	  0.117394790	3.127700E+01	  0.117394790	8.315500E+01	  0.117394790	3.373000E+01
488	  0.117595196	-9.282000E+00	  0.117595196	3.024100E+01	  0.117595196	8.407800E+01	  0.117595196	3.297600E+01
489	  0.117795594	-9.292000E+00	  0.117795594	2.915800E+01	  0.117795594	8.507800E+01	  0.117795594	3.223400E+01
490	  0.117995992	-9.310000E+00	  0.117995992	2.809400E+01	  0.117995992	8.601100E+01	  0.117995992	3.141500E+01
491	  0.118196398	-9.330000E+00	  0.118196398	2.704500E+01	  0.118196398	8.690000E+01	  0.118196398	3.055800E+01
492	  0.118396796	-9.349000E+00	  0.118396796	2.587900E+01	  0.118396796	8.787900E+01	  0.118396796	2.958400E+01
493	  0.118597202	-9.374000E+00	  0.118597202	2.473300E+01	  0.118597202	8.877500E+01	  0.118597202	2.854100E+01
494	  0.118797600	-9.399000E+00	  0.118797600	2.358300E+01	  0.118797600	8.964600E+01	  0.118797600	2.746100E+01
495	  0.118997999	-9.433000E+00	  0.118997999	2.241100E+01	  0.118997999	9.044100E+01	  0.118997999	2.626900E+01
496	  0.119198404	-9.469000E+00	  0.119198404	2.122500E+01	  0.119198404	9.119500E+01	  0.119198404	2.502300E+01
497	  0.119398803	-9.507000E+00	  0.119398803	2.004100E+01	  0.119398803	9.188600E+01	  0.119398803	2.373400E+01
498	  0.119599201	-9.546000E+00	  0.119599201	1.873300E+01	  0.119599201	9.261200E+01	  0.119599201	2.229400E+01
499	  0.119799607	-9.593000E+00	  0.119799607	1.751200E+01	  0.119799607	9.316200E+01	  0.119799607	2.087300E+01
500	  0.120000005	-9.637000E+00	  0.120000005	1.622900E+01	  0.120000005	9.370700E+01	  0.120000005	1.937600E+01
