! Anritsu VNA Master:             	Model: MS2036C/10/77
! SN:             	1601066
! /bd0/18may09/254.ew.m14.txt
! Existing Calibration Information:
! TYPE:             	Current Settings	Active Cal Settings
! TIME:             	05/09/2018 12:15:44 PM	05/09/2018 12:08:51 PM
! INTERNAL TEMP:    	55.3 C	54.8 C
! # POINTS:         	494	494
! START FREQ:       	20.000 MHz	20.000 MHz
! STOP FREQ:        	118.797 594 MHz	118.797 594 MHz
! SOURCE POWER:     	High	High
! IFBW:             	50 Hz	50 Hz
! AVG FACTOR:       	  1 	  1 
! REF PLANE 1:      	0 mm	0 mm
! REF PLANE 2:      	0 mm	0 mm
! CAL TYPE:         	Full S22	Full S22
! CAL METHOD:       	SOLT	SOLT
! CAL LINE TYPE:    	Coax	Coax
! DUT PORT 1:       	K-Conn(M)	K-Conn(M)
! DUT PORT 2:       	K-Conn(M)	K-Conn(M)
! CAL STATUS:       	OK: Accuracy High	--
! PROP-V:       	0.700
! CABLE LOSS:       	0.000 dB/m
! REF IMPEDANCE:       	50.0
! Trace Specific Parameters:	TR1	TR2	TR3	TR4
! TRACE.#.Y (GRAPH TYPE)	LOG MAG	PHASE	REAL IMPEDANCE	IMAGINARY IMPEDANCE
! TRACE.#.X 	FREQ.GHZ	FREQ.GHZ	FREQ.GHZ	FREQ.GHZ
! S-PARAMETER	S22	S22	S22	S22
! SMOOTH/APERTURE %	0	0	0	0
! WINDOW	NSL	NSL	NSL	NSL
! GATING	OFF	OFF	OFF	OFF
! FGTD	OFF	OFF	OFF	OFF
Marker Information per Trace:	TR1	TR2	TR3	TR4
!MK1	--	"MK1 TR2:  20.000 MHz,PH:-126.76°"	--	--
!MK2	--	--	"MK2 TR3:  70.100 200 MHz,Z:(16.148 ohm, -0.790 ohm)"	--
!MK3	--	--	--	--
!MK4	--	--	--	--
!MK5	--	--	--	--
!MK6	--	--	--	--
!MK7	--	--	--	--
!MK8	--	--	--	--
PNT	TR1.FREQ.GHZ	TR1.LOG MAG.dB	TR2.FREQ.GHZ	TR2.PHASE.deg	TR3.FREQ.GHZ	TR3.REAL IMPEDANCE.ohm	TR4.FREQ.GHZ	TR4.IMAGINARY IMPEDANCE.ohm
1	  0.020000000	-6.370000E-01	  0.020000000	-1.267620E+02	  0.020000000	2.293000E+00	  0.020000000	-2.501600E+01
2	  0.020200402	-6.390000E-01	  0.020200402	-1.282290E+02	  0.020200402	2.272000E+00	  0.020200402	-2.422200E+01
3	  0.020400802	-6.400000E-01	  0.020400802	-1.297110E+02	  0.020400802	2.248000E+00	  0.020400802	-2.343000E+01
4	  0.020601204	-6.430000E-01	  0.020601204	-1.312070E+02	  0.020601204	2.232000E+00	  0.020601204	-2.263900E+01
5	  0.020801604	-6.450000E-01	  0.020801604	-1.327340E+02	  0.020801604	2.212000E+00	  0.020801604	-2.184200E+01
6	  0.021002004	-6.480000E-01	  0.021002004	-1.342740E+02	  0.021002004	2.196000E+00	  0.021002004	-2.104800E+01
7	  0.021202406	-6.520000E-01	  0.021202406	-1.358140E+02	  0.021202406	2.184000E+00	  0.021202406	-2.026200E+01
8	  0.021402806	-6.520000E-01	  0.021402806	-1.373460E+02	  0.021402806	2.163000E+00	  0.021402806	-1.948900E+01
9	  0.021603208	-6.560000E-01	  0.021603208	-1.388800E+02	  0.021603208	2.152000E+00	  0.021603208	-1.872300E+01
10	  0.021803608	-6.600000E-01	  0.021803608	-1.404100E+02	  0.021803608	2.145000E+00	  0.021803608	-1.796600E+01
11	  0.022004008	-6.660000E-01	  0.022004008	-1.419460E+02	  0.022004008	2.144000E+00	  0.022004008	-1.721400E+01
12	  0.022204408	-6.720000E-01	  0.022204408	-1.435160E+02	  0.022204408	2.144000E+00	  0.022204408	-1.645200E+01
13	  0.022404809	-6.750000E-01	  0.022404809	-1.451020E+02	  0.022404809	2.134000E+00	  0.022404809	-1.568900E+01
14	  0.022605211	-6.780000E-01	  0.022605211	-1.466980E+02	  0.022605211	2.125000E+00	  0.022605211	-1.492800E+01
15	  0.022805611	-6.840000E-01	  0.022805611	-1.482840E+02	  0.022805611	2.127000E+00	  0.022805611	-1.417900E+01
16	  0.023006011	-6.910000E-01	  0.023006011	-1.498730E+02	  0.023006011	2.131000E+00	  0.023006011	-1.343300E+01
17	  0.023206413	-6.950000E-01	  0.023206413	-1.514620E+02	  0.023206413	2.130000E+00	  0.023206413	-1.269400E+01
18	  0.023406813	-6.980000E-01	  0.023406813	-1.530480E+02	  0.023406813	2.125000E+00	  0.023406813	-1.196100E+01
19	  0.023607215	-7.040000E-01	  0.023607215	-1.546530E+02	  0.023607215	2.130000E+00	  0.023607215	-1.122400E+01
20	  0.023807615	-7.150000E-01	  0.023807615	-1.562700E+02	  0.023807615	2.147000E+00	  0.023807615	-1.048500E+01
21	  0.024008015	-7.210000E-01	  0.024008015	-1.579100E+02	  0.024008015	2.154000E+00	  0.024008015	-9.742000E+00
22	  0.024208417	-7.280000E-01	  0.024208417	-1.595620E+02	  0.024208417	2.162000E+00	  0.024208417	-8.997000E+00
23	  0.024408817	-7.350000E-01	  0.024408817	-1.612260E+02	  0.024408817	2.171000E+00	  0.024408817	-8.250000E+00
24	  0.024609219	-7.400000E-01	  0.024609219	-1.628850E+02	  0.024609219	2.176000E+00	  0.024609219	-7.509000E+00
25	  0.024809619	-7.480000E-01	  0.024809619	-1.645580E+02	  0.024809619	2.192000E+00	  0.024809619	-6.765000E+00
26	  0.025010020	-7.580000E-01	  0.025010020	-1.662180E+02	  0.025010020	2.212000E+00	  0.025010020	-6.030000E+00
27	  0.025210422	-7.670000E-01	  0.025210422	-1.679070E+02	  0.025210422	2.231000E+00	  0.025210422	-5.285000E+00
28	  0.025410822	-7.770000E-01	  0.025410822	-1.695990E+02	  0.025410822	2.253000E+00	  0.025410822	-4.541000E+00
29	  0.025611224	-7.880000E-01	  0.025611224	-1.713030E+02	  0.025611224	2.281000E+00	  0.025611224	-3.793000E+00
30	  0.025811624	-7.980000E-01	  0.025811624	-1.730160E+02	  0.025811624	2.304000E+00	  0.025811624	-3.044000E+00
31	  0.026012026	-8.080000E-01	  0.026012026	-1.747530E+02	  0.026012026	2.330000E+00	  0.026012026	-2.286000E+00
32	  0.026212426	-8.190000E-01	  0.026212426	-1.764790E+02	  0.026212426	2.359000E+00	  0.026212426	-1.533000E+00
33	  0.026412826	-8.330000E-01	  0.026412826	-1.782290E+02	  0.026412826	2.396000E+00	  0.026412826	-7.700000E-01
34	  0.026613226	-8.460000E-01	  0.026613226	-1.799850E+02	  0.026613226	2.434000E+00	  0.026613226	-6.000000E-03
35	  0.026813626	-8.600000E-01	  0.026813626	1.782540E+02	  0.026813626	2.475000E+00	  0.026813626	7.590000E-01
36	  0.027014028	-8.760000E-01	  0.027014028	1.764800E+02	  0.027014028	2.521000E+00	  0.027014028	1.532000E+00
37	  0.027214428	-8.910000E-01	  0.027214428	1.747060E+02	  0.027214428	2.569000E+00	  0.027214428	2.305000E+00
38	  0.027414829	-9.060000E-01	  0.027414829	1.729260E+02	  0.027414829	2.617000E+00	  0.027414829	3.081000E+00
39	  0.027615231	-9.230000E-01	  0.027615231	1.711310E+02	  0.027615231	2.671000E+00	  0.027615231	3.866000E+00
40	  0.027815631	-9.400000E-01	  0.027815631	1.693250E+02	  0.027815631	2.729000E+00	  0.027815631	4.657000E+00
41	  0.028016033	-9.590000E-01	  0.028016033	1.675060E+02	  0.028016033	2.791000E+00	  0.028016033	5.456000E+00
42	  0.028216433	-9.770000E-01	  0.028216433	1.656720E+02	  0.028216433	2.854000E+00	  0.028216433	6.264000E+00
43	  0.028416833	-9.960000E-01	  0.028416833	1.638330E+02	  0.028416833	2.923000E+00	  0.028416833	7.077000E+00
44	  0.028617235	-1.015000E+00	  0.028617235	1.619820E+02	  0.028617235	2.993000E+00	  0.028617235	7.899000E+00
45	  0.028817635	-1.036000E+00	  0.028817635	1.601380E+02	  0.028817635	3.070000E+00	  0.028817635	8.721000E+00
46	  0.029018037	-1.058000E+00	  0.029018037	1.582880E+02	  0.029018037	3.153000E+00	  0.029018037	9.551000E+00
47	  0.029218437	-1.081000E+00	  0.029218437	1.564280E+02	  0.029218437	3.244000E+00	  0.029218437	1.039000E+01
48	  0.029418837	-1.104000E+00	  0.029418837	1.545360E+02	  0.029418837	3.336000E+00	  0.029418837	1.124900E+01
49	  0.029619239	-1.130000E+00	  0.029619239	1.526480E+02	  0.029619239	3.439000E+00	  0.029619239	1.211100E+01
50	  0.029819639	-1.154000E+00	  0.029819639	1.507450E+02	  0.029819639	3.543000E+00	  0.029819639	1.298700E+01
51	  0.030020041	-1.179000E+00	  0.030020041	1.488370E+02	  0.030020041	3.652000E+00	  0.030020041	1.387300E+01
52	  0.030220442	-1.204000E+00	  0.030220442	1.469320E+02	  0.030220442	3.765000E+00	  0.030220442	1.476500E+01
53	  0.030420844	-1.230000E+00	  0.030420844	1.450270E+02	  0.030420844	3.885000E+00	  0.030420844	1.566500E+01
54	  0.030621244	-1.258000E+00	  0.030621244	1.431210E+02	  0.030621244	4.015000E+00	  0.030621244	1.657300E+01
55	  0.030821642	-1.287000E+00	  0.030821642	1.412070E+02	  0.030821642	4.155000E+00	  0.030821642	1.749500E+01
56	  0.031022044	-1.317000E+00	  0.031022044	1.392680E+02	  0.031022044	4.303000E+00	  0.031022044	1.843900E+01
57	  0.031222444	-1.343000E+00	  0.031222444	1.373410E+02	  0.031222444	4.443000E+00	  0.031222444	1.938900E+01
58	  0.031422846	-1.372000E+00	  0.031422846	1.353750E+02	  0.031422846	4.601000E+00	  0.031422846	2.037000E+01
59	  0.031623244	-1.405000E+00	  0.031623244	1.334070E+02	  0.031623244	4.780000E+00	  0.031623244	2.136300E+01
60	  0.031823646	-1.437000E+00	  0.031823646	1.314410E+02	  0.031823646	4.961000E+00	  0.031823646	2.236900E+01
61	  0.032024048	-1.469000E+00	  0.032024048	1.294730E+02	  0.032024048	5.152000E+00	  0.032024048	2.339000E+01
62	  0.032224450	-1.505000E+00	  0.032224450	1.275070E+02	  0.032224450	5.363000E+00	  0.032224450	2.442400E+01
63	  0.032424849	-1.540000E+00	  0.032424849	1.255200E+02	  0.032424849	5.581000E+00	  0.032424849	2.548600E+01
64	  0.032625251	-1.577000E+00	  0.032625251	1.235220E+02	  0.032625251	5.820000E+00	  0.032625251	2.657000E+01
65	  0.032825653	-1.611000E+00	  0.032825653	1.214870E+02	  0.032825653	6.060000E+00	  0.032825653	2.769400E+01
66	  0.033026051	-1.649000E+00	  0.033026051	1.194780E+02	  0.033026051	6.324000E+00	  0.033026051	2.882200E+01
67	  0.033226453	-1.683000E+00	  0.033226453	1.174500E+02	  0.033226453	6.590000E+00	  0.033226453	2.998300E+01
68	  0.033426855	-1.722000E+00	  0.033426855	1.154240E+02	  0.033426855	6.889000E+00	  0.033426855	3.116300E+01
69	  0.033627257	-1.762000E+00	  0.033627257	1.134080E+02	  0.033627257	7.205000E+00	  0.033627257	3.235900E+01
70	  0.033827655	-1.801000E+00	  0.033827655	1.113680E+02	  0.033827655	7.535000E+00	  0.033827655	3.359600E+01
71	  0.034028057	-1.839000E+00	  0.034028057	1.093310E+02	  0.034028057	7.881000E+00	  0.034028057	3.485700E+01
72	  0.034228459	-1.882000E+00	  0.034228459	1.072850E+02	  0.034228459	8.267000E+00	  0.034228459	3.614800E+01
73	  0.034428857	-1.922000E+00	  0.034428857	1.052120E+02	  0.034428857	8.669000E+00	  0.034428857	3.748800E+01
74	  0.034629259	-1.966000E+00	  0.034629259	1.031380E+02	  0.034629259	9.112000E+00	  0.034629259	3.885700E+01
75	  0.034829661	-2.009000E+00	  0.034829661	1.010830E+02	  0.034829661	9.574000E+00	  0.034829661	4.024700E+01
76	  0.035030060	-2.055000E+00	  0.035030060	9.898600E+01	  0.035030060	1.008400E+01	  0.035030060	4.169900E+01
77	  0.035230462	-2.101000E+00	  0.035230462	9.691900E+01	  0.035230462	1.062300E+01	  0.035230462	4.316500E+01
78	  0.035430863	-2.149000E+00	  0.035430863	9.483100E+01	  0.035430863	1.120900E+01	  0.035430863	4.468300E+01
79	  0.035631265	-2.197000E+00	  0.035631265	9.274800E+01	  0.035631265	1.183500E+01	  0.035631265	4.623700E+01
80	  0.035831664	-2.244000E+00	  0.035831664	9.065300E+01	  0.035831664	1.250100E+01	  0.035831664	4.784400E+01
81	  0.036032066	-2.292000E+00	  0.036032066	8.856700E+01	  0.036032066	1.321700E+01	  0.036032066	4.948700E+01
82	  0.036232468	-2.342000E+00	  0.036232468	8.645800E+01	  0.036232468	1.399900E+01	  0.036232468	5.119400E+01
83	  0.036432866	-2.392000E+00	  0.036432866	8.435400E+01	  0.036432866	1.483900E+01	  0.036432866	5.294400E+01
84	  0.036633268	-2.441000E+00	  0.036633268	8.226400E+01	  0.036633268	1.573200E+01	  0.036633268	5.473500E+01
85	  0.036833670	-2.491000E+00	  0.036833670	8.015600E+01	  0.036833670	1.670100E+01	  0.036833670	5.659400E+01
86	  0.037034072	-2.545000E+00	  0.037034072	7.805500E+01	  0.037034072	1.777300E+01	  0.037034072	5.849300E+01
87	  0.037234470	-2.597000E+00	  0.037234470	7.595000E+01	  0.037234470	1.891400E+01	  0.037234470	6.045800E+01
88	  0.037434869	-2.648000E+00	  0.037434869	7.387100E+01	  0.037434869	2.013000E+01	  0.037434869	6.245600E+01
89	  0.037635271	-2.697000E+00	  0.037635271	7.177600E+01	  0.037635271	2.144500E+01	  0.037635271	6.453500E+01
90	  0.037835669	-2.753000E+00	  0.037835669	6.966600E+01	  0.037835669	2.292300E+01	  0.037835669	6.667200E+01
91	  0.038036071	-2.807000E+00	  0.038036071	6.753900E+01	  0.038036071	2.451600E+01	  0.038036071	6.890100E+01
92	  0.038236473	-2.863000E+00	  0.038236473	6.542600E+01	  0.038236473	2.626500E+01	  0.038236473	7.116400E+01
93	  0.038436871	-2.919000E+00	  0.038436871	6.329900E+01	  0.038436871	2.817900E+01	  0.038436871	7.350400E+01
94	  0.038637273	-2.976000E+00	  0.038637273	6.119900E+01	  0.038637273	3.024700E+01	  0.038637273	7.586800E+01
95	  0.038837675	-3.031000E+00	  0.038837675	5.909300E+01	  0.038837675	3.249700E+01	  0.038837675	7.830400E+01
96	  0.039038073	-3.083000E+00	  0.039038073	5.700900E+01	  0.039038073	3.491200E+01	  0.039038073	8.077600E+01
97	  0.039238475	-3.136000E+00	  0.039238475	5.492600E+01	  0.039238475	3.755000E+01	  0.039238475	8.329600E+01
98	  0.039438877	-3.192000E+00	  0.039438877	5.286200E+01	  0.039438877	4.045200E+01	  0.039438877	8.579700E+01
99	  0.039639279	-3.242000E+00	  0.039639279	5.076300E+01	  0.039639279	4.361600E+01	  0.039639279	8.842300E+01
100	  0.039839678	-3.302000E+00	  0.039839678	4.867300E+01	  0.039839678	4.716900E+01	  0.039839678	9.095800E+01
101	  0.040040080	-3.353000E+00	  0.040040080	4.658300E+01	  0.040040080	5.098000E+01	  0.040040080	9.356300E+01
102	  0.040240481	-3.405000E+00	  0.040240481	4.449900E+01	  0.040240481	5.516100E+01	  0.040240481	9.611500E+01
103	  0.040440880	-3.458000E+00	  0.040440880	4.243000E+01	  0.040440880	5.971700E+01	  0.040440880	9.858000E+01
104	  0.040641282	-3.512000E+00	  0.040641282	4.036500E+01	  0.040641282	6.472900E+01	  0.040641282	1.008920E+02
105	  0.040841684	-3.561000E+00	  0.040841684	3.831100E+01	  0.040841684	7.013600E+01	  0.040841684	1.031100E+02
106	  0.041042086	-3.615000E+00	  0.041042086	3.626900E+01	  0.041042086	7.604900E+01	  0.041042086	1.050200E+02
107	  0.041242484	-3.669000E+00	  0.041242484	3.420300E+01	  0.041242484	8.256500E+01	  0.041242484	1.066480E+02
108	  0.041442886	-3.719000E+00	  0.041442886	3.214400E+01	  0.041442886	8.957800E+01	  0.041442886	1.079730E+02
109	  0.041643288	-3.770000E+00	  0.041643288	3.006800E+01	  0.041643288	9.724200E+01	  0.041643288	1.087850E+02
110	  0.041843686	-3.818000E+00	  0.041843686	2.800600E+01	  0.041843686	1.054150E+02	  0.041843686	1.090390E+02
111	  0.042044088	-3.866000E+00	  0.042044088	2.594400E+01	  0.042044088	1.141380E+02	  0.042044088	1.085620E+02
112	  0.042244490	-3.916000E+00	  0.042244490	2.386700E+01	  0.042244490	1.234290E+02	  0.042244490	1.070980E+02
113	  0.042444889	-3.965000E+00	  0.042444889	2.182800E+01	  0.042444889	1.329380E+02	  0.042444889	1.045840E+02
114	  0.042645290	-4.017000E+00	  0.042645290	1.979300E+01	  0.042645290	1.426420E+02	  0.042645290	1.007910E+02
115	  0.042845692	-4.066000E+00	  0.042845692	1.778000E+01	  0.042845692	1.523020E+02	  0.042845692	9.579700E+01
116	  0.043046094	-4.118000E+00	  0.043046094	1.573900E+01	  0.043046094	1.618440E+02	  0.043046094	8.920600E+01
117	  0.043246493	-4.168000E+00	  0.043246493	1.371500E+01	  0.043246493	1.708540E+02	  0.043246493	8.125600E+01
118	  0.043446895	-4.215000E+00	  0.043446895	1.170500E+01	  0.043446895	1.790660E+02	  0.043446895	7.199300E+01
119	  0.043647297	-4.262000E+00	  0.043647297	9.690000E+00	  0.043647297	1.862200E+02	  0.043647297	6.138300E+01
120	  0.043847695	-4.310000E+00	  0.043847695	7.687000E+00	  0.043847695	1.919200E+02	  0.043847695	4.967200E+01
121	  0.044048097	-4.357000E+00	  0.044048097	5.697000E+00	  0.044048097	1.959480E+02	  0.044048097	3.719500E+01
122	  0.044248499	-4.404000E+00	  0.044248499	3.723000E+00	  0.044248499	1.982270E+02	  0.044248499	2.432700E+01
123	  0.044448901	-4.450000E+00	  0.044448901	1.763000E+00	  0.044448901	1.987340E+02	  0.044448901	1.142800E+01
124	  0.044649299	-4.495000E+00	  0.044649299	-2.180000E-01	  0.044649299	1.974910E+02	  0.044649299	-1.390000E+00
125	  0.044849701	-4.541000E+00	  0.044849701	-2.140000E+00	  0.044849701	1.946110E+02	  0.044849701	-1.328800E+01
126	  0.045050103	-4.586000E+00	  0.045050103	-4.090000E+00	  0.045050103	1.903610E+02	  0.045050103	-2.455800E+01
127	  0.045250501	-4.632000E+00	  0.045250501	-6.035000E+00	  0.045250501	1.848850E+02	  0.045250501	-3.477600E+01
128	  0.045450903	-4.677000E+00	  0.045450903	-7.956000E+00	  0.045450903	1.785960E+02	  0.045450903	-4.376000E+01
129	  0.045651305	-4.719000E+00	  0.045651305	-9.886000E+00	  0.045651305	1.716960E+02	  0.045651305	-5.167300E+01
130	  0.045851704	-4.761000E+00	  0.045851704	-1.177800E+01	  0.045851704	1.644810E+02	  0.045851704	-5.828300E+01
131	  0.046052102	-4.800000E+00	  0.046052102	-1.367600E+01	  0.046052102	1.570780E+02	  0.046052102	-6.389000E+01
132	  0.046252504	-4.842000E+00	  0.046252504	-1.555700E+01	  0.046252504	1.496170E+02	  0.046252504	-6.837800E+01
133	  0.046452906	-4.882000E+00	  0.046452906	-1.743200E+01	  0.046452906	1.422760E+02	  0.046452906	-7.198400E+01
134	  0.046653304	-4.921000E+00	  0.046653304	-1.931000E+01	  0.046653304	1.350840E+02	  0.046653304	-7.476800E+01
135	  0.046853706	-4.960000E+00	  0.046853706	-2.117400E+01	  0.046853706	1.281820E+02	  0.046853706	-7.682100E+01
136	  0.047054108	-4.998000E+00	  0.047054108	-2.302800E+01	  0.047054108	1.216070E+02	  0.047054108	-7.828000E+01
137	  0.047254506	-5.034000E+00	  0.047254506	-2.487800E+01	  0.047254506	1.153560E+02	  0.047254506	-7.921700E+01
138	  0.047454908	-5.070000E+00	  0.047454908	-2.671900E+01	  0.047454908	1.094550E+02	  0.047454908	-7.969500E+01
139	  0.047655310	-5.108000E+00	  0.047655310	-2.852500E+01	  0.047655310	1.039840E+02	  0.047655310	-7.975800E+01
140	  0.047855709	-5.140000E+00	  0.047855709	-3.032100E+01	  0.047855709	9.886300E+01	  0.047855709	-7.960300E+01
141	  0.048056111	-5.176000E+00	  0.048056111	-3.211000E+01	  0.048056111	9.406100E+01	  0.048056111	-7.913600E+01
142	  0.048256513	-5.206000E+00	  0.048256513	-3.387100E+01	  0.048256513	8.962100E+01	  0.048256513	-7.853500E+01
143	  0.048456915	-5.241000E+00	  0.048456915	-3.564300E+01	  0.048456915	8.543100E+01	  0.048456915	-7.769500E+01
144	  0.048657313	-5.271000E+00	  0.048657313	-3.742100E+01	  0.048657313	8.148100E+01	  0.048657313	-7.678800E+01
145	  0.048857715	-5.300000E+00	  0.048857715	-3.916200E+01	  0.048857715	7.785500E+01	  0.048857715	-7.578000E+01
146	  0.049058117	-5.323000E+00	  0.049058117	-4.093100E+01	  0.049058117	7.438000E+01	  0.049058117	-7.474700E+01
147	  0.049258515	-5.349000E+00	  0.049258515	-4.264600E+01	  0.049258515	7.122800E+01	  0.049258515	-7.361000E+01
148	  0.049458917	-5.374000E+00	  0.049458917	-4.434200E+01	  0.049458917	6.829800E+01	  0.049458917	-7.244000E+01
149	  0.049659319	-5.403000E+00	  0.049659319	-4.603600E+01	  0.049659319	6.556300E+01	  0.049659319	-7.117600E+01
150	  0.049859721	-5.427000E+00	  0.049859721	-4.771700E+01	  0.049859721	6.299400E+01	  0.049859721	-6.994300E+01
151	  0.050060119	-5.454000E+00	  0.050060119	-4.939300E+01	  0.050060119	6.059600E+01	  0.050060119	-6.865900E+01
152	  0.050260521	-5.474000E+00	  0.050260521	-5.104000E+01	  0.050260521	5.835300E+01	  0.050260521	-6.743900E+01
153	  0.050460923	-5.495000E+00	  0.050460923	-5.271400E+01	  0.050460923	5.620800E+01	  0.050460923	-6.617400E+01
154	  0.050661322	-5.515000E+00	  0.050661322	-5.436200E+01	  0.050661322	5.421000E+01	  0.050661322	-6.493400E+01
155	  0.050861724	-5.534000E+00	  0.050861724	-5.597500E+01	  0.050861724	5.236400E+01	  0.050861724	-6.371500E+01
156	  0.051062126	-5.557000E+00	  0.051062126	-5.758900E+01	  0.051062126	5.063500E+01	  0.051062126	-6.246400E+01
157	  0.051262524	-5.578000E+00	  0.051262524	-5.918100E+01	  0.051262524	4.901500E+01	  0.051262524	-6.124700E+01
158	  0.051462926	-5.597000E+00	  0.051462926	-6.075600E+01	  0.051462926	4.749200E+01	  0.051462926	-6.005800E+01
159	  0.051663328	-5.617000E+00	  0.051663328	-6.233000E+01	  0.051663328	4.605400E+01	  0.051663328	-5.887100E+01
160	  0.051863730	-5.633000E+00	  0.051863730	-6.389500E+01	  0.051863730	4.467800E+01	  0.051863730	-5.772700E+01
161	  0.052064128	-5.650000E+00	  0.052064128	-6.546300E+01	  0.052064128	4.337700E+01	  0.052064128	-5.657900E+01
162	  0.052264530	-5.659000E+00	  0.052264530	-6.701400E+01	  0.052264530	4.211900E+01	  0.052264530	-5.549700E+01
163	  0.052464932	-5.671000E+00	  0.052464932	-6.855200E+01	  0.052464932	4.094500E+01	  0.052464932	-5.441700E+01
164	  0.052665330	-5.687000E+00	  0.052665330	-7.008200E+01	  0.052665330	3.985500E+01	  0.052665330	-5.332800E+01
165	  0.052865732	-5.699000E+00	  0.052865732	-7.160900E+01	  0.052865732	3.879900E+01	  0.052865732	-5.227200E+01
166	  0.053066134	-5.712000E+00	  0.053066134	-7.312500E+01	  0.053066134	3.780500E+01	  0.053066134	-5.123300E+01
167	  0.053266536	-5.722000E+00	  0.053266536	-7.462200E+01	  0.053266536	3.685700E+01	  0.053266536	-5.022800E+01
168	  0.053466935	-5.732000E+00	  0.053466935	-7.613800E+01	  0.053466935	3.594300E+01	  0.053466935	-4.922000E+01
169	  0.053667337	-5.740000E+00	  0.053667337	-7.764100E+01	  0.053667337	3.506900E+01	  0.053667337	-4.823900E+01
170	  0.053867739	-5.750000E+00	  0.053867739	-7.913400E+01	  0.053867739	3.424400E+01	  0.053867739	-4.727200E+01
171	  0.054068137	-5.753000E+00	  0.054068137	-8.064700E+01	  0.054068137	3.342100E+01	  0.054068137	-4.632400E+01
172	  0.054268539	-5.756000E+00	  0.054268539	-8.212100E+01	  0.054268539	3.265400E+01	  0.054268539	-4.540900E+01
173	  0.054468941	-5.766000E+00	  0.054468941	-8.360400E+01	  0.054468941	3.194200E+01	  0.054468941	-4.447700E+01
174	  0.054669335	-5.771000E+00	  0.054669335	-8.508200E+01	  0.054669335	3.124500E+01	  0.054669335	-4.357300E+01
175	  0.054869737	-5.778000E+00	  0.054869737	-8.653300E+01	  0.054869737	3.059800E+01	  0.054869737	-4.268800E+01
176	  0.055070139	-5.782000E+00	  0.055070139	-8.798700E+01	  0.055070139	2.996300E+01	  0.055070139	-4.182300E+01
177	  0.055270538	-5.783000E+00	  0.055270538	-8.944100E+01	  0.055270538	2.934400E+01	  0.055270538	-4.097300E+01
178	  0.055470940	-5.789000E+00	  0.055470940	-9.087800E+01	  0.055470940	2.877400E+01	  0.055470940	-4.013000E+01
179	  0.055671342	-5.786000E+00	  0.055671342	-9.233600E+01	  0.055671342	2.818900E+01	  0.055671342	-3.930600E+01
180	  0.055871744	-5.786000E+00	  0.055871744	-9.378400E+01	  0.055871744	2.763900E+01	  0.055871744	-3.848900E+01
181	  0.056072142	-5.788000E+00	  0.056072142	-9.519300E+01	  0.056072142	2.713500E+01	  0.056072142	-3.769600E+01
182	  0.056272544	-5.789000E+00	  0.056272544	-9.660600E+01	  0.056272544	2.664500E+01	  0.056272544	-3.691200E+01
183	  0.056472946	-5.791000E+00	  0.056472946	-9.799800E+01	  0.056472946	2.618100E+01	  0.056472946	-3.614600E+01
184	  0.056673344	-5.793000E+00	  0.056673344	-9.939500E+01	  0.056673344	2.573600E+01	  0.056673344	-3.538500E+01
185	  0.056873746	-5.794000E+00	  0.056873746	-1.007600E+02	  0.056873746	2.531600E+01	  0.056873746	-3.464900E+01
186	  0.057074148	-5.796000E+00	  0.057074148	-1.021470E+02	  0.057074148	2.490500E+01	  0.057074148	-3.390800E+01
187	  0.057274550	-5.796000E+00	  0.057274550	-1.035220E+02	  0.057274550	2.450700E+01	  0.057274550	-3.318500E+01
188	  0.057474948	-5.799000E+00	  0.057474948	-1.048760E+02	  0.057474948	2.413900E+01	  0.057474948	-3.247500E+01
189	  0.057675350	-5.799000E+00	  0.057675350	-1.062270E+02	  0.057675350	2.377700E+01	  0.057675350	-3.177600E+01
190	  0.057875752	-5.802000E+00	  0.057875752	-1.075920E+02	  0.057875752	2.343300E+01	  0.057875752	-3.107300E+01
191	  0.058076151	-5.808000E+00	  0.058076151	-1.089220E+02	  0.058076151	2.312200E+01	  0.058076151	-3.038900E+01
192	  0.058276553	-5.809000E+00	  0.058276553	-1.102290E+02	  0.058276553	2.280900E+01	  0.058276553	-2.973200E+01
193	  0.058476955	-5.811000E+00	  0.058476955	-1.115330E+02	  0.058476955	2.251100E+01	  0.058476955	-2.908100E+01
194	  0.058677353	-5.815000E+00	  0.058677353	-1.128850E+02	  0.058677353	2.222300E+01	  0.058677353	-2.840700E+01
195	  0.058877755	-5.818000E+00	  0.058877755	-1.141820E+02	  0.058877755	2.195000E+01	  0.058877755	-2.776900E+01
196	  0.059078157	-5.819000E+00	  0.059078157	-1.154840E+02	  0.059078157	2.168300E+01	  0.059078157	-2.713600E+01
197	  0.059278559	-5.823000E+00	  0.059278559	-1.167660E+02	  0.059278559	2.143600E+01	  0.059278559	-2.651400E+01
198	  0.059478957	-5.826000E+00	  0.059478957	-1.180470E+02	  0.059478957	2.119600E+01	  0.059478957	-2.590000E+01
199	  0.059679359	-5.829000E+00	  0.059679359	-1.193190E+02	  0.059679359	2.096400E+01	  0.059679359	-2.529500E+01
200	  0.059879761	-5.833000E+00	  0.059879761	-1.205950E+02	  0.059879761	2.074400E+01	  0.059879761	-2.469100E+01
201	  0.060080159	-5.836000E+00	  0.060080159	-1.218340E+02	  0.060080159	2.053500E+01	  0.060080159	-2.411000E+01
202	  0.060280561	-5.841000E+00	  0.060280561	-1.231010E+02	  0.060280561	2.033700E+01	  0.060280561	-2.351800E+01
203	  0.060480963	-5.842000E+00	  0.060480963	-1.243430E+02	  0.060480963	2.013600E+01	  0.060480963	-2.294700E+01
204	  0.060681365	-5.847000E+00	  0.060681365	-1.255830E+02	  0.060681365	1.995400E+01	  0.060681365	-2.237700E+01
205	  0.060881764	-5.847000E+00	  0.060881764	-1.268050E+02	  0.060881764	1.976700E+01	  0.060881764	-2.182300E+01
206	  0.061082166	-5.847000E+00	  0.061082166	-1.280490E+02	  0.061082166	1.958400E+01	  0.061082166	-2.126300E+01
207	  0.061282568	-5.849000E+00	  0.061282568	-1.292680E+02	  0.061282568	1.941400E+01	  0.061282568	-2.071700E+01
208	  0.061482966	-5.847000E+00	  0.061482966	-1.304780E+02	  0.061482966	1.924100E+01	  0.061482966	-2.018200E+01
209	  0.061683368	-5.845000E+00	  0.061683368	-1.316790E+02	  0.061683368	1.907800E+01	  0.061683368	-1.965300E+01
210	  0.061883770	-5.849000E+00	  0.061883770	-1.328880E+02	  0.061883770	1.893100E+01	  0.061883770	-1.911900E+01
211	  0.062084168	-5.846000E+00	  0.062084168	-1.340680E+02	  0.062084168	1.877600E+01	  0.062084168	-1.860700E+01
212	  0.062284570	-5.843000E+00	  0.062284570	-1.352520E+02	  0.062284570	1.862700E+01	  0.062284570	-1.809500E+01
213	  0.062484972	-5.832000E+00	  0.062484972	-1.363850E+02	  0.062484972	1.846500E+01	  0.062484972	-1.761400E+01
214	  0.062685370	-5.829000E+00	  0.062685370	-1.375650E+02	  0.062685370	1.832400E+01	  0.062685370	-1.710900E+01
215	  0.062885776	-5.826000E+00	  0.062885776	-1.387510E+02	  0.062885776	1.818900E+01	  0.062885776	-1.660400E+01
216	  0.063086174	-5.822000E+00	  0.063086174	-1.399140E+02	  0.063086174	1.805700E+01	  0.063086174	-1.611100E+01
217	  0.063286573	-5.816000E+00	  0.063286573	-1.410810E+02	  0.063286573	1.792400E+01	  0.063286573	-1.562100E+01
218	  0.063486971	-5.816000E+00	  0.063486971	-1.422470E+02	  0.063486971	1.781300E+01	  0.063486971	-1.512900E+01
219	  0.063687377	-5.808000E+00	  0.063687377	-1.433470E+02	  0.063687377	1.768800E+01	  0.063687377	-1.467200E+01
220	  0.063887775	-5.806000E+00	  0.063887775	-1.444640E+02	  0.063887775	1.758400E+01	  0.063887775	-1.420500E+01
221	  0.064088173	-5.804000E+00	  0.064088173	-1.456410E+02	  0.064088173	1.747800E+01	  0.064088173	-1.371600E+01
222	  0.064288579	-5.798000E+00	  0.064288579	-1.467780E+02	  0.064288579	1.736800E+01	  0.064288579	-1.324700E+01
223	  0.064488977	-5.797000E+00	  0.064488977	-1.479100E+02	  0.064488977	1.727500E+01	  0.064488977	-1.278000E+01
224	  0.064689375	-5.795000E+00	  0.064689375	-1.490530E+02	  0.064689375	1.718600E+01	  0.064689375	-1.231000E+01
225	  0.064889781	-5.797000E+00	  0.064889781	-1.501750E+02	  0.064889781	1.710800E+01	  0.064889781	-1.184900E+01
226	  0.065090179	-5.791000E+00	  0.065090179	-1.512850E+02	  0.065090179	1.701600E+01	  0.065090179	-1.139700E+01
227	  0.065290578	-5.790000E+00	  0.065290578	-1.523860E+02	  0.065290578	1.694000E+01	  0.065290578	-1.094900E+01
228	  0.065490983	-5.789000E+00	  0.065490983	-1.535160E+02	  0.065490983	1.686600E+01	  0.065490983	-1.049000E+01
229	  0.065691382	-5.790000E+00	  0.065691382	-1.546310E+02	  0.065691382	1.680200E+01	  0.065691382	-1.003700E+01
230	  0.065891780	-5.787000E+00	  0.065891780	-1.557570E+02	  0.065891780	1.672900E+01	  0.065891780	-9.583000E+00
231	  0.066092186	-5.788000E+00	  0.066092186	-1.568750E+02	  0.066092186	1.667100E+01	  0.066092186	-9.132000E+00
232	  0.066292584	-5.787000E+00	  0.066292584	-1.579770E+02	  0.066292584	1.661200E+01	  0.066292584	-8.690000E+00
233	  0.066492982	-5.789000E+00	  0.066492982	-1.590630E+02	  0.066492982	1.656400E+01	  0.066492982	-8.254000E+00
234	  0.066693388	-5.790000E+00	  0.066693388	-1.601690E+02	  0.066693388	1.651300E+01	  0.066693388	-7.811000E+00
235	  0.066893786	-5.793000E+00	  0.066893786	-1.612560E+02	  0.066893786	1.647500E+01	  0.066893786	-7.377000E+00
236	  0.067094192	-5.790000E+00	  0.067094192	-1.623430E+02	  0.067094192	1.642100E+01	  0.067094192	-6.945000E+00
237	  0.067294590	-5.790000E+00	  0.067294590	-1.634170E+02	  0.067294590	1.637900E+01	  0.067294590	-6.519000E+00
238	  0.067494988	-5.797000E+00	  0.067494988	-1.644900E+02	  0.067494988	1.636000E+01	  0.067494988	-6.091000E+00
239	  0.067695394	-5.798000E+00	  0.067695394	-1.655850E+02	  0.067695394	1.632600E+01	  0.067695394	-5.658000E+00
240	  0.067895792	-5.793000E+00	  0.067895792	-1.666380E+02	  0.067895792	1.627900E+01	  0.067895792	-5.243000E+00
241	  0.068096191	-5.801000E+00	  0.068096191	-1.677280E+02	  0.068096191	1.627100E+01	  0.068096191	-4.811000E+00
242	  0.068296596	-5.804000E+00	  0.068296596	-1.687780E+02	  0.068296596	1.625100E+01	  0.068296596	-4.397000E+00
243	  0.068496995	-5.802000E+00	  0.068496995	-1.698170E+02	  0.068496995	1.622000E+01	  0.068496995	-3.989000E+00
244	  0.068697393	-5.804000E+00	  0.068697393	-1.708770E+02	  0.068697393	1.620200E+01	  0.068697393	-3.572000E+00
245	  0.068897791	-5.803000E+00	  0.068897791	-1.719200E+02	  0.068897791	1.618000E+01	  0.068897791	-3.163000E+00
246	  0.069098189	-5.803000E+00	  0.069098189	-1.729460E+02	  0.069098189	1.616300E+01	  0.069098189	-2.760000E+00
247	  0.069298595	-5.803000E+00	  0.069298595	-1.739700E+02	  0.069298595	1.614800E+01	  0.069298595	-2.359000E+00
248	  0.069498993	-5.806000E+00	  0.069498993	-1.749880E+02	  0.069498993	1.614500E+01	  0.069498993	-1.960000E+00
249	  0.069699399	-5.808000E+00	  0.069699399	-1.760070E+02	  0.069699399	1.613900E+01	  0.069699399	-1.561000E+00
250	  0.069899797	-5.809000E+00	  0.069899797	-1.770190E+02	  0.069899797	1.613200E+01	  0.069899797	-1.165000E+00
251	  0.070100196	-5.816000E+00	  0.070100196	-1.779790E+02	  0.070100196	1.614700E+01	  0.070100196	-7.890000E-01
252	  0.070300601	-5.815000E+00	  0.070300601	-1.789960E+02	  0.070300601	1.614100E+01	  0.070300601	-3.920000E-01
253	  0.070501000	-5.816000E+00	  0.070501000	-1.799860E+02	  0.070501000	1.614300E+01	  0.070501000	-5.000000E-03
254	  0.070701398	-5.818000E+00	  0.070701398	1.790370E+02	  0.070701398	1.614900E+01	  0.070701398	3.760000E-01
255	  0.070901804	-5.822000E+00	  0.070901804	1.780580E+02	  0.070901804	1.616000E+01	  0.070901804	7.580000E-01
256	  0.071102202	-5.826000E+00	  0.071102202	1.770750E+02	  0.071102202	1.617800E+01	  0.071102202	1.142000E+00
257	  0.071302600	-5.829000E+00	  0.071302600	1.760810E+02	  0.071302600	1.619400E+01	  0.071302600	1.531000E+00
258	  0.071503006	-5.833000E+00	  0.071503006	1.750990E+02	  0.071503006	1.621300E+01	  0.071503006	1.914000E+00
259	  0.071703404	-5.840000E+00	  0.071703404	1.741640E+02	  0.071703404	1.624200E+01	  0.071703404	2.280000E+00
260	  0.071903802	-5.846000E+00	  0.071903802	1.731960E+02	  0.071903802	1.626900E+01	  0.071903802	2.658000E+00
261	  0.072104208	-5.850000E+00	  0.072104208	1.722030E+02	  0.072104208	1.629600E+01	  0.072104208	3.046000E+00
262	  0.072304606	-5.855000E+00	  0.072304606	1.712470E+02	  0.072304606	1.632900E+01	  0.072304606	3.420000E+00
263	  0.072505005	-5.859000E+00	  0.072505005	1.703040E+02	  0.072505005	1.635800E+01	  0.072505005	3.789000E+00
264	  0.072705410	-5.866000E+00	  0.072705410	1.693370E+02	  0.072705410	1.639700E+01	  0.072705410	4.167000E+00
265	  0.072905809	-5.869000E+00	  0.072905809	1.683590E+02	  0.072905809	1.642900E+01	  0.072905809	4.551000E+00
266	  0.073106214	-5.875000E+00	  0.073106214	1.674100E+02	  0.073106214	1.647000E+01	  0.073106214	4.923000E+00
267	  0.073306613	-5.881000E+00	  0.073306613	1.664280E+02	  0.073306613	1.651600E+01	  0.073306613	5.308000E+00
268	  0.073507011	-5.886000E+00	  0.073507011	1.654890E+02	  0.073507011	1.655800E+01	  0.073507011	5.677000E+00
269	  0.073707417	-5.891000E+00	  0.073707417	1.645350E+02	  0.073707417	1.660300E+01	  0.073707417	6.052000E+00
270	  0.073907815	-5.896000E+00	  0.073907815	1.635800E+02	  0.073907815	1.665100E+01	  0.073907815	6.428000E+00
271	  0.074108213	-5.899000E+00	  0.074108213	1.626390E+02	  0.074108213	1.669500E+01	  0.074108213	6.799000E+00
272	  0.074308619	-5.902000E+00	  0.074308619	1.616950E+02	  0.074308619	1.674200E+01	  0.074308619	7.172000E+00
273	  0.074509017	-5.906000E+00	  0.074509017	1.607450E+02	  0.074509017	1.679200E+01	  0.074509017	7.548000E+00
274	  0.074709415	-5.909000E+00	  0.074709415	1.598220E+02	  0.074709415	1.684300E+01	  0.074709415	7.914000E+00
275	  0.074909821	-5.913000E+00	  0.074909821	1.588850E+02	  0.074909821	1.689800E+01	  0.074909821	8.286000E+00
276	  0.075110219	-5.920000E+00	  0.075110219	1.579440E+02	  0.075110219	1.696400E+01	  0.075110219	8.659000E+00
277	  0.075310618	-5.918000E+00	  0.075310618	1.570450E+02	  0.075310618	1.700600E+01	  0.075310618	9.018000E+00
278	  0.075511023	-5.927000E+00	  0.075511023	1.561190E+02	  0.075511023	1.708100E+01	  0.075511023	9.386000E+00
279	  0.075711422	-5.926000E+00	  0.075711422	1.552440E+02	  0.075711422	1.712600E+01	  0.075711422	9.738000E+00
280	  0.075911827	-5.929000E+00	  0.075911827	1.543460E+02	  0.075911827	1.718800E+01	  0.075911827	1.009800E+01
281	  0.076112226	-5.937000E+00	  0.076112226	1.534200E+02	  0.076112226	1.726700E+01	  0.076112226	1.046700E+01
282	  0.076312624	-5.937000E+00	  0.076312624	1.525570E+02	  0.076312624	1.732200E+01	  0.076312624	1.081600E+01
283	  0.076513030	-5.943000E+00	  0.076513030	1.516720E+02	  0.076513030	1.739600E+01	  0.076513030	1.117200E+01
284	  0.076713428	-5.948000E+00	  0.076713428	1.507780E+02	  0.076713428	1.747300E+01	  0.076713428	1.153200E+01
285	  0.076913826	-5.951000E+00	  0.076913826	1.498950E+02	  0.076913826	1.754300E+01	  0.076913826	1.189000E+01
286	  0.077114232	-5.957000E+00	  0.077114232	1.490330E+02	  0.077114232	1.762400E+01	  0.077114232	1.223900E+01
287	  0.077314630	-5.966000E+00	  0.077314630	1.482050E+02	  0.077314630	1.771000E+01	  0.077314630	1.257300E+01
288	  0.077515028	-5.971000E+00	  0.077515028	1.473530E+02	  0.077515028	1.779100E+01	  0.077515028	1.291900E+01
289	  0.077715434	-5.976000E+00	  0.077715434	1.464800E+02	  0.077715434	1.787600E+01	  0.077715434	1.327500E+01
290	  0.077915832	-5.989000E+00	  0.077915832	1.456040E+02	  0.077915832	1.798700E+01	  0.077915832	1.362800E+01
291	  0.078116231	-5.993000E+00	  0.078116231	1.447550E+02	  0.078116231	1.807200E+01	  0.078116231	1.397600E+01
292	  0.078316636	-6.000000E+00	  0.078316636	1.438800E+02	  0.078316636	1.816800E+01	  0.078316636	1.433400E+01
293	  0.078517035	-6.011000E+00	  0.078517035	1.430260E+02	  0.078517035	1.827800E+01	  0.078517035	1.468200E+01
294	  0.078717433	-6.019000E+00	  0.078717433	1.421540E+02	  0.078717433	1.838200E+01	  0.078717433	1.504000E+01
295	  0.078917839	-6.030000E+00	  0.078917839	1.412990E+02	  0.078917839	1.849700E+01	  0.078917839	1.539000E+01
296	  0.079118237	-6.040000E+00	  0.079118237	1.404550E+02	  0.079118237	1.861000E+01	  0.079118237	1.573600E+01
297	  0.079318643	-6.051000E+00	  0.079318643	1.395940E+02	  0.079318643	1.872900E+01	  0.079318643	1.609100E+01
298	  0.079519041	-6.059000E+00	  0.079519041	1.387460E+02	  0.079519041	1.884200E+01	  0.079519041	1.644100E+01
299	  0.079719439	-6.068000E+00	  0.079719439	1.378840E+02	  0.079719439	1.896100E+01	  0.079719439	1.679900E+01
300	  0.079919845	-6.081000E+00	  0.079919845	1.370290E+02	  0.079919845	1.909300E+01	  0.079919845	1.715200E+01
301	  0.080120243	-6.094000E+00	  0.080120243	1.361320E+02	  0.080120243	1.923300E+01	  0.080120243	1.752300E+01
302	  0.080320641	-6.101000E+00	  0.080320641	1.352610E+02	  0.080320641	1.935600E+01	  0.080320641	1.788900E+01
303	  0.080521047	-6.113000E+00	  0.080521047	1.344260E+02	  0.080521047	1.949400E+01	  0.080521047	1.823500E+01
304	  0.080721445	-6.125000E+00	  0.080721445	1.335370E+02	  0.080721445	1.963900E+01	  0.080721445	1.860700E+01
305	  0.080921844	-6.134000E+00	  0.080921844	1.327030E+02	  0.080921844	1.977200E+01	  0.080921844	1.895800E+01
306	  0.081122249	-6.143000E+00	  0.081122249	1.318150E+02	  0.081122249	1.991600E+01	  0.081122249	1.933300E+01
307	  0.081322648	-6.154000E+00	  0.081322648	1.309640E+02	  0.081322648	2.006400E+01	  0.081322648	1.969200E+01
308	  0.081523046	-6.164000E+00	  0.081523046	1.301070E+02	  0.081523046	2.021300E+01	  0.081523046	2.005400E+01
309	  0.081723452	-6.173000E+00	  0.081723452	1.292720E+02	  0.081723452	2.035600E+01	  0.081723452	2.041000E+01
310	  0.081923850	-6.177000E+00	  0.081923850	1.284000E+02	  0.081923850	2.049600E+01	  0.081923850	2.078800E+01
311	  0.082124248	-6.190000E+00	  0.082124248	1.275540E+02	  0.082124248	2.066100E+01	  0.082124248	2.114700E+01
312	  0.082324654	-6.197000E+00	  0.082324654	1.267250E+02	  0.082324654	2.081100E+01	  0.082324654	2.150400E+01
313	  0.082525052	-6.207000E+00	  0.082525052	1.258980E+02	  0.082525052	2.097100E+01	  0.082525052	2.186000E+01
314	  0.082725458	-6.218000E+00	  0.082725458	1.250920E+02	  0.082725458	2.113400E+01	  0.082725458	2.220600E+01
315	  0.082925856	-6.232000E+00	  0.082925856	1.242600E+02	  0.082925856	2.131200E+01	  0.082925856	2.256100E+01
316	  0.083126254	-6.244000E+00	  0.083126254	1.234590E+02	  0.083126254	2.148200E+01	  0.083126254	2.290600E+01
317	  0.083326660	-6.250000E+00	  0.083326660	1.226180E+02	  0.083326660	2.164700E+01	  0.083326660	2.327500E+01
318	  0.083527058	-6.265000E+00	  0.083527058	1.218380E+02	  0.083527058	2.182900E+01	  0.083527058	2.360900E+01
319	  0.083727457	-6.278000E+00	  0.083727457	1.210590E+02	  0.083727457	2.201200E+01	  0.083727457	2.394400E+01
320	  0.083927862	-6.293000E+00	  0.083927862	1.202200E+02	  0.083927862	2.221100E+01	  0.083927862	2.430600E+01
321	  0.084128261	-6.305000E+00	  0.084128261	1.194340E+02	  0.084128261	2.239800E+01	  0.084128261	2.464700E+01
322	  0.084328659	-6.320000E+00	  0.084328659	1.186750E+02	  0.084328659	2.259100E+01	  0.084328659	2.497400E+01
323	  0.084529065	-6.338000E+00	  0.084529065	1.178940E+02	  0.084529065	2.280100E+01	  0.084529065	2.530700E+01
324	  0.084729463	-6.355000E+00	  0.084729463	1.171130E+02	  0.084729463	2.301100E+01	  0.084729463	2.564200E+01
325	  0.084929854	-6.374000E+00	  0.084929854	1.163160E+02	  0.084929854	2.323500E+01	  0.084929854	2.598200E+01
326	  0.085130259	-6.388000E+00	  0.085130259	1.155130E+02	  0.085130259	2.344900E+01	  0.085130259	2.633200E+01
327	  0.085330658	-6.405000E+00	  0.085330658	1.147180E+02	  0.085330658	2.367300E+01	  0.085330658	2.667500E+01
328	  0.085531056	-6.426000E+00	  0.085531056	1.139290E+02	  0.085531056	2.391200E+01	  0.085531056	2.701000E+01
329	  0.085731462	-6.444000E+00	  0.085731462	1.131530E+02	  0.085731462	2.414500E+01	  0.085731462	2.734300E+01
330	  0.085931860	-6.462000E+00	  0.085931860	1.123560E+02	  0.085931860	2.438700E+01	  0.085931860	2.768600E+01
331	  0.086132258	-6.483000E+00	  0.086132258	1.115790E+02	  0.086132258	2.463600E+01	  0.086132258	2.801600E+01
332	  0.086332664	-6.502000E+00	  0.086332664	1.108130E+02	  0.086332664	2.488100E+01	  0.086332664	2.834400E+01
333	  0.086533062	-6.521000E+00	  0.086533062	1.100200E+02	  0.086533062	2.513600E+01	  0.086533062	2.868500E+01
334	  0.086733460	-6.540000E+00	  0.086733460	1.092320E+02	  0.086733460	2.539700E+01	  0.086733460	2.902300E+01
335	  0.086933866	-6.564000E+00	  0.086933866	1.084310E+02	  0.086933866	2.568100E+01	  0.086933866	2.936000E+01
336	  0.087134264	-6.581000E+00	  0.087134264	1.076470E+02	  0.087134264	2.594300E+01	  0.087134264	2.970000E+01
337	  0.087334670	-6.602000E+00	  0.087334670	1.068460E+02	  0.087334670	2.622600E+01	  0.087334670	3.004100E+01
338	  0.087535068	-6.621000E+00	  0.087535068	1.060860E+02	  0.087535068	2.649500E+01	  0.087535068	3.036800E+01
339	  0.087735467	-6.644000E+00	  0.087735467	1.052900E+02	  0.087735467	2.679300E+01	  0.087735467	3.070300E+01
340	  0.087935872	-6.663000E+00	  0.087935872	1.044890E+02	  0.087935872	2.708700E+01	  0.087935872	3.104700E+01
341	  0.088136271	-6.686000E+00	  0.088136271	1.037240E+02	  0.088136271	2.738600E+01	  0.088136271	3.136700E+01
342	  0.088336669	-6.704000E+00	  0.088336669	1.029180E+02	  0.088336669	2.768500E+01	  0.088336669	3.171700E+01
343	  0.088537075	-6.727000E+00	  0.088537075	1.021520E+02	  0.088537075	2.799500E+01	  0.088537075	3.203700E+01
344	  0.088737473	-6.746000E+00	  0.088737473	1.013850E+02	  0.088737473	2.829900E+01	  0.088737473	3.236300E+01
345	  0.088937871	-6.763000E+00	  0.088937871	1.005910E+02	  0.088937871	2.860900E+01	  0.088937871	3.270800E+01
346	  0.089138277	-6.781000E+00	  0.089138277	9.980500E+01	  0.089138277	2.892700E+01	  0.089138277	3.304600E+01
347	  0.089338675	-6.806000E+00	  0.089338675	9.909100E+01	  0.089338675	2.924500E+01	  0.089338675	3.333500E+01
348	  0.089539073	-6.823000E+00	  0.089539073	9.830800E+01	  0.089539073	2.957000E+01	  0.089539073	3.367200E+01
349	  0.089739479	-6.853000E+00	  0.089739479	9.757200E+01	  0.089739479	2.992400E+01	  0.089739479	3.395600E+01
350	  0.089939877	-6.871000E+00	  0.089939877	9.681900E+01	  0.089939877	3.025100E+01	  0.089939877	3.427700E+01
351	  0.090140276	-6.899000E+00	  0.090140276	9.609700E+01	  0.090140276	3.060400E+01	  0.090140276	3.455700E+01
352	  0.090340681	-6.925000E+00	  0.090340681	9.534400E+01	  0.090340681	3.096700E+01	  0.090340681	3.485600E+01
353	  0.090541080	-6.951000E+00	  0.090541080	9.461300E+01	  0.090541080	3.132700E+01	  0.090541080	3.514200E+01
354	  0.090741485	-6.980000E+00	  0.090741485	9.388600E+01	  0.090741485	3.170200E+01	  0.090741485	3.541600E+01
355	  0.090941884	-7.009000E+00	  0.090941884	9.320100E+01	  0.090941884	3.206200E+01	  0.090941884	3.567100E+01
356	  0.091142282	-7.047000E+00	  0.091142282	9.244700E+01	  0.091142282	3.248600E+01	  0.091142282	3.593000E+01
357	  0.091342688	-7.080000E+00	  0.091342688	9.174600E+01	  0.091342688	3.288100E+01	  0.091342688	3.617300E+01
358	  0.091543086	-7.111000E+00	  0.091543086	9.102600E+01	  0.091543086	3.327800E+01	  0.091543086	3.643100E+01
359	  0.091743484	-7.148000E+00	  0.091743484	9.033400E+01	  0.091743484	3.368900E+01	  0.091743484	3.665500E+01
360	  0.091943890	-7.183000E+00	  0.091943890	8.962900E+01	  0.091943890	3.410500E+01	  0.091943890	3.688700E+01
361	  0.092144288	-7.218000E+00	  0.092144288	8.889800E+01	  0.092144288	3.453800E+01	  0.092144288	3.712700E+01
362	  0.092344686	-7.255000E+00	  0.092344686	8.821900E+01	  0.092344686	3.495800E+01	  0.092344686	3.733500E+01
363	  0.092545092	-7.289000E+00	  0.092545092	8.750300E+01	  0.092545092	3.539200E+01	  0.092545092	3.756400E+01
364	  0.092745490	-7.333000E+00	  0.092745490	8.683100E+01	  0.092745490	3.584200E+01	  0.092745490	3.773900E+01
365	  0.092945889	-7.374000E+00	  0.092945889	8.614200E+01	  0.092945889	3.629400E+01	  0.092945889	3.792700E+01
366	  0.093146294	-7.412000E+00	  0.093146294	8.544400E+01	  0.093146294	3.674500E+01	  0.093146294	3.812500E+01
367	  0.093346693	-7.453000E+00	  0.093346693	8.478500E+01	  0.093346693	3.719400E+01	  0.093346693	3.828800E+01
368	  0.093547091	-7.492000E+00	  0.093547091	8.411800E+01	  0.093547091	3.764300E+01	  0.093547091	3.845900E+01
369	  0.093747497	-7.532000E+00	  0.093747497	8.342600E+01	  0.093747497	3.811400E+01	  0.093747497	3.863200E+01
370	  0.093947895	-7.569000E+00	  0.093947895	8.271000E+01	  0.093947895	3.859300E+01	  0.093947895	3.882200E+01
371	  0.094148301	-7.615000E+00	  0.094148301	8.209700E+01	  0.094148301	3.904800E+01	  0.094148301	3.892900E+01
372	  0.094348699	-7.656000E+00	  0.094348699	8.137300E+01	  0.094348699	3.955200E+01	  0.094348699	3.909900E+01
373	  0.094549097	-7.701000E+00	  0.094549097	8.075300E+01	  0.094549097	4.001600E+01	  0.094549097	3.920300E+01
374	  0.094749503	-7.740000E+00	  0.094749503	8.009800E+01	  0.094749503	4.048500E+01	  0.094749503	3.933900E+01
375	  0.094949901	-7.779000E+00	  0.094949901	7.944600E+01	  0.094949901	4.096000E+01	  0.094949901	3.946400E+01
376	  0.095150299	-7.822000E+00	  0.095150299	7.881800E+01	  0.095150299	4.143300E+01	  0.095150299	3.956400E+01
377	  0.095350705	-7.856000E+00	  0.095350705	7.815000E+01	  0.095350705	4.191100E+01	  0.095350705	3.970500E+01
378	  0.095551103	-7.902000E+00	  0.095551103	7.751500E+01	  0.095551103	4.240400E+01	  0.095551103	3.978300E+01
379	  0.095751502	-7.937000E+00	  0.095751502	7.691200E+01	  0.095751502	4.285200E+01	  0.095751502	3.988600E+01
380	  0.095951907	-7.977000E+00	  0.095951907	7.630100E+01	  0.095951907	4.332200E+01	  0.095951907	3.996700E+01
381	  0.096152306	-8.020000E+00	  0.096152306	7.568900E+01	  0.096152306	4.380200E+01	  0.096152306	4.003000E+01
382	  0.096352704	-8.060000E+00	  0.096352704	7.511100E+01	  0.096352704	4.426000E+01	  0.096352704	4.008300E+01
383	  0.096553110	-8.098000E+00	  0.096553110	7.456200E+01	  0.096553110	4.469400E+01	  0.096553110	4.013200E+01
384	  0.096753508	-8.142000E+00	  0.096753508	7.397000E+01	  0.096753508	4.517200E+01	  0.096753508	4.016800E+01
385	  0.096953906	-8.181000E+00	  0.096953906	7.343200E+01	  0.096953906	4.560800E+01	  0.096953906	4.019500E+01
386	  0.097154312	-8.223000E+00	  0.097154312	7.289300E+01	  0.097154312	4.605200E+01	  0.097154312	4.020600E+01
387	  0.097354710	-8.265000E+00	  0.097354710	7.236800E+01	  0.097354710	4.648700E+01	  0.097354710	4.021000E+01
388	  0.097555116	-8.306000E+00	  0.097555116	7.184500E+01	  0.097555116	4.692300E+01	  0.097555116	4.020700E+01
389	  0.097755514	-8.349000E+00	  0.097755514	7.133400E+01	  0.097755514	4.735300E+01	  0.097755514	4.019100E+01
390	  0.097955912	-8.390000E+00	  0.097955912	7.083400E+01	  0.097955912	4.777500E+01	  0.097955912	4.017000E+01
391	  0.098156318	-8.433000E+00	  0.098156318	7.035600E+01	  0.098156318	4.818500E+01	  0.098156318	4.013200E+01
392	  0.098356716	-8.478000E+00	  0.098356716	6.989100E+01	  0.098356716	4.859300E+01	  0.098356716	4.007300E+01
393	  0.098557115	-8.519000E+00	  0.098557115	6.939300E+01	  0.098557115	4.901400E+01	  0.098557115	4.003700E+01
394	  0.098757520	-8.568000E+00	  0.098757520	6.891500E+01	  0.098757520	4.943700E+01	  0.098757520	3.995400E+01
395	  0.098957919	-8.615000E+00	  0.098957919	6.845200E+01	  0.098957919	4.984600E+01	  0.098957919	3.987200E+01
396	  0.099158317	-8.653000E+00	  0.099158317	6.799300E+01	  0.099158317	5.023500E+01	  0.099158317	3.982300E+01
397	  0.099358723	-8.701000E+00	  0.099358723	6.754200E+01	  0.099358723	5.063500E+01	  0.099358723	3.972300E+01
398	  0.099559121	-8.746000E+00	  0.099559121	6.711200E+01	  0.099559121	5.101500E+01	  0.099559121	3.962700E+01
399	  0.099759519	-8.789000E+00	  0.099759519	6.668200E+01	  0.099759519	5.139100E+01	  0.099759519	3.953400E+01
400	  0.099959925	-8.826000E+00	  0.099959925	6.622500E+01	  0.099959925	5.177500E+01	  0.099959925	3.947300E+01
401	  0.100160323	-8.870000E+00	  0.100160323	6.579500E+01	  0.100160323	5.215100E+01	  0.100160323	3.936800E+01
402	  0.100360721	-8.913000E+00	  0.100360721	6.538200E+01	  0.100360721	5.251300E+01	  0.100360721	3.925700E+01
403	  0.100561127	-8.957000E+00	  0.100561127	6.497700E+01	  0.100561127	5.286800E+01	  0.100561127	3.913700E+01
404	  0.100761525	-8.995000E+00	  0.100761525	6.456700E+01	  0.100761525	5.321800E+01	  0.100761525	3.904200E+01
405	  0.100961931	-9.044000E+00	  0.100961931	6.416600E+01	  0.100961931	5.357500E+01	  0.100961931	3.889000E+01
406	  0.101162329	-9.083000E+00	  0.101162329	6.373500E+01	  0.101162329	5.394000E+01	  0.101162329	3.878600E+01
407	  0.101362728	-9.120000E+00	  0.101362728	6.332000E+01	  0.101362728	5.429000E+01	  0.101362728	3.868400E+01
408	  0.101563133	-9.156000E+00	  0.101563133	6.297300E+01	  0.101563133	5.458700E+01	  0.101563133	3.857300E+01
409	  0.101763532	-9.193000E+00	  0.101763532	6.257200E+01	  0.101763532	5.492300E+01	  0.101763532	3.846500E+01
410	  0.101963930	-9.236000E+00	  0.101963930	6.215300E+01	  0.101963930	5.528000E+01	  0.101963930	3.832000E+01
411	  0.102164328	-9.271000E+00	  0.102164328	6.178600E+01	  0.102164328	5.558700E+01	  0.102164328	3.820900E+01
412	  0.102364726	-9.300000E+00	  0.102364726	6.135800E+01	  0.102364726	5.593300E+01	  0.102364726	3.813000E+01
413	  0.102565125	-9.338000E+00	  0.102565125	6.105000E+01	  0.102565125	5.619800E+01	  0.102565125	3.798600E+01
414	  0.102765530	-9.360000E+00	  0.102765530	6.063900E+01	  0.102765530	5.652500E+01	  0.102765530	3.793300E+01
415	  0.102965929	-9.393000E+00	  0.102965929	6.032600E+01	  0.102965929	5.678600E+01	  0.102965929	3.781000E+01
416	  0.103166327	-9.415000E+00	  0.103166327	6.000600E+01	  0.103166327	5.704400E+01	  0.103166327	3.773600E+01
417	  0.103366733	-9.444000E+00	  0.103366733	5.965900E+01	  0.103366733	5.732600E+01	  0.103366733	3.763500E+01
418	  0.103567131	-9.468000E+00	  0.103567131	5.928000E+01	  0.103567131	5.762900E+01	  0.103567131	3.755300E+01
419	  0.103767529	-9.489000E+00	  0.103767529	5.891000E+01	  0.103767529	5.792300E+01	  0.103767529	3.748800E+01
420	  0.103967935	-9.511000E+00	  0.103967935	5.860200E+01	  0.103967935	5.817000E+01	  0.103967935	3.740600E+01
421	  0.104168333	-9.530000E+00	  0.104168333	5.829700E+01	  0.104168333	5.841300E+01	  0.104168333	3.733600E+01
422	  0.104368731	-9.547000E+00	  0.104368731	5.794700E+01	  0.104368731	5.868900E+01	  0.104368731	3.728000E+01
423	  0.104569137	-9.556000E+00	  0.104569137	5.764700E+01	  0.104569137	5.892300E+01	  0.104569137	3.725600E+01
424	  0.104769535	-9.571000E+00	  0.104769535	5.734800E+01	  0.104769535	5.915900E+01	  0.104769535	3.720200E+01
425	  0.104969934	-9.590000E+00	  0.104969934	5.701900E+01	  0.104969934	5.942100E+01	  0.104969934	3.712600E+01
426	  0.105170339	-9.601000E+00	  0.105170339	5.674800E+01	  0.105170339	5.963400E+01	  0.105170339	3.708600E+01
427	  0.105370738	-9.609000E+00	  0.105370738	5.647300E+01	  0.105370738	5.984900E+01	  0.105370738	3.705900E+01
428	  0.105571143	-9.630000E+00	  0.105571143	5.611500E+01	  0.105571143	6.013300E+01	  0.105571143	3.697100E+01
429	  0.105771542	-9.634000E+00	  0.105771542	5.575800E+01	  0.105771542	6.041200E+01	  0.105771542	3.696500E+01
430	  0.105971940	-9.649000E+00	  0.105971940	5.550600E+01	  0.105971940	6.061200E+01	  0.105971940	3.689600E+01
431	  0.106172346	-9.651000E+00	  0.106172346	5.518700E+01	  0.106172346	6.086200E+01	  0.106172346	3.689700E+01
432	  0.106372744	-9.656000E+00	  0.106372744	5.484200E+01	  0.106372744	6.113400E+01	  0.106372744	3.687700E+01
433	  0.106573142	-9.656000E+00	  0.106573142	5.456600E+01	  0.106573142	6.135100E+01	  0.106573142	3.688400E+01
434	  0.106773548	-9.654000E+00	  0.106773548	5.425800E+01	  0.106773548	6.159400E+01	  0.106773548	3.689700E+01
435	  0.106973946	-9.662000E+00	  0.106973946	5.392100E+01	  0.106973946	6.186300E+01	  0.106973946	3.685800E+01
436	  0.107174344	-9.654000E+00	  0.107174344	5.354600E+01	  0.107174344	6.216300E+01	  0.107174344	3.690100E+01
437	  0.107374750	-9.652000E+00	  0.107374750	5.322000E+01	  0.107374750	6.242400E+01	  0.107374750	3.691200E+01
438	  0.107575148	-9.647000E+00	  0.107575148	5.288700E+01	  0.107575148	6.269300E+01	  0.107575148	3.693500E+01
439	  0.107775547	-9.640000E+00	  0.107775547	5.249400E+01	  0.107775547	6.301200E+01	  0.107775547	3.696400E+01
440	  0.107975952	-9.637000E+00	  0.107975952	5.209300E+01	  0.107975952	6.334000E+01	  0.107975952	3.697600E+01
441	  0.108176351	-9.630000E+00	  0.108176351	5.180600E+01	  0.108176351	6.357500E+01	  0.108176351	3.700300E+01
442	  0.108376749	-9.624000E+00	  0.108376749	5.140500E+01	  0.108376749	6.390700E+01	  0.108376749	3.702000E+01
443	  0.108577155	-9.614000E+00	  0.108577155	5.100500E+01	  0.108577155	6.424100E+01	  0.108577155	3.706300E+01
444	  0.108777553	-9.603000E+00	  0.108777553	5.062000E+01	  0.108777553	6.456600E+01	  0.108777553	3.710300E+01
445	  0.108977959	-9.597000E+00	  0.108977959	5.020900E+01	  0.108977959	6.491300E+01	  0.108977959	3.711400E+01
446	  0.109178357	-9.590000E+00	  0.109178357	4.983200E+01	  0.109178357	6.523400E+01	  0.109178357	3.713100E+01
447	  0.109378755	-9.566000E+00	  0.109378755	4.934800E+01	  0.109378755	6.565500E+01	  0.109378755	3.723000E+01
448	  0.109579161	-9.548000E+00	  0.109579161	4.889200E+01	  0.109579161	6.605600E+01	  0.109579161	3.729700E+01
449	  0.109779559	-9.541000E+00	  0.109779559	4.848900E+01	  0.109779559	6.640800E+01	  0.109779559	3.730300E+01
450	  0.109979957	-9.525000E+00	  0.109979957	4.798700E+01	  0.109979957	6.685300E+01	  0.109979957	3.734400E+01
451	  0.110180363	-9.504000E+00	  0.110180363	4.754400E+01	  0.110180363	6.725500E+01	  0.110180363	3.742200E+01
452	  0.110380761	-9.488000E+00	  0.110380761	4.706300E+01	  0.110380761	6.769100E+01	  0.110380761	3.746000E+01
453	  0.110581160	-9.467000E+00	  0.110581160	4.656700E+01	  0.110581160	6.814900E+01	  0.110581160	3.751700E+01
454	  0.110781565	-9.454000E+00	  0.110781565	4.602200E+01	  0.110781565	6.864900E+01	  0.110781565	3.752600E+01
455	  0.110981964	-9.432000E+00	  0.110981964	4.548700E+01	  0.110981964	6.915300E+01	  0.110981964	3.757800E+01
456	  0.111182362	-9.412000E+00	  0.111182362	4.502700E+01	  0.111182362	6.959300E+01	  0.111182362	3.762500E+01
457	  0.111382768	-9.392000E+00	  0.111382768	4.448100E+01	  0.111382768	7.011700E+01	  0.111382768	3.765600E+01
458	  0.111583166	-9.378000E+00	  0.111583166	4.389900E+01	  0.111583166	7.067100E+01	  0.111583166	3.763200E+01
459	  0.111783572	-9.356000E+00	  0.111783572	4.333900E+01	  0.111783572	7.122200E+01	  0.111783572	3.765900E+01
460	  0.111983970	-9.344000E+00	  0.111983970	4.275300E+01	  0.111983970	7.179000E+01	  0.111983970	3.761400E+01
461	  0.112184368	-9.322000E+00	  0.112184368	4.212500E+01	  0.112184368	7.241400E+01	  0.112184368	3.760500E+01
462	  0.112384774	-9.304000E+00	  0.112384774	4.151100E+01	  0.112384774	7.302900E+01	  0.112384774	3.757200E+01
463	  0.112585172	-9.285000E+00	  0.112585172	4.084700E+01	  0.112585172	7.370000E+01	  0.112585172	3.752300E+01
464	  0.112785570	-9.262000E+00	  0.112785570	4.020900E+01	  0.112785570	7.436100E+01	  0.112785570	3.749600E+01
465	  0.112985976	-9.244000E+00	  0.112985976	3.957600E+01	  0.112985976	7.501400E+01	  0.112985976	3.742500E+01
466	  0.113186374	-9.225000E+00	  0.113186374	3.890300E+01	  0.113186374	7.571600E+01	  0.113186374	3.734300E+01
467	  0.113386773	-9.214000E+00	  0.113386773	3.824900E+01	  0.113386773	7.638600E+01	  0.113386773	3.719600E+01
468	  0.113587178	-9.197000E+00	  0.113587178	3.753100E+01	  0.113587178	7.714000E+01	  0.113587178	3.705800E+01
469	  0.113787577	-9.179000E+00	  0.113787577	3.676000E+01	  0.113787577	7.795500E+01	  0.113787577	3.688200E+01
470	  0.113987975	-9.161000E+00	  0.113987975	3.603200E+01	  0.113987975	7.873500E+01	  0.113987975	3.671300E+01
471	  0.114188381	-9.146000E+00	  0.114188381	3.524800E+01	  0.114188381	7.957000E+01	  0.114188381	3.648300E+01
472	  0.114388779	-9.134000E+00	  0.114388779	3.452300E+01	  0.114388779	8.034000E+01	  0.114388779	3.623600E+01
473	  0.114589177	-9.122000E+00	  0.114589177	3.369500E+01	  0.114589177	8.122100E+01	  0.114589177	3.592400E+01
474	  0.114789583	-9.107000E+00	  0.114789583	3.290300E+01	  0.114789583	8.208100E+01	  0.114789583	3.562900E+01
475	  0.114989981	-9.103000E+00	  0.114989981	3.214600E+01	  0.114989981	8.286600E+01	  0.114989981	3.525200E+01
476	  0.115190387	-9.092000E+00	  0.115190387	3.122000E+01	  0.115190387	8.385000E+01	  0.115190387	3.480400E+01
477	  0.115390785	-9.085000E+00	  0.115390785	3.041100E+01	  0.115390785	8.470200E+01	  0.115390785	3.437200E+01
478	  0.115591183	-9.069000E+00	  0.115591183	2.952100E+01	  0.115591183	8.567200E+01	  0.115591183	3.392300E+01
479	  0.115791589	-9.058000E+00	  0.115791589	2.865200E+01	  0.115791589	8.659800E+01	  0.115791589	3.341700E+01
480	  0.115991987	-9.061000E+00	  0.115991987	2.776100E+01	  0.115991987	8.748000E+01	  0.115991987	3.278100E+01
481	  0.116192386	-9.059000E+00	  0.116192386	2.686400E+01	  0.116192386	8.838700E+01	  0.116192386	3.214200E+01
482	  0.116392791	-9.055000E+00	  0.116392791	2.594800E+01	  0.116392791	8.930900E+01	  0.116392791	3.146700E+01
483	  0.116593190	-9.061000E+00	  0.116593190	2.500600E+01	  0.116593190	9.019400E+01	  0.116593190	3.067200E+01
484	  0.116793588	-9.062000E+00	  0.116793588	2.402000E+01	  0.116793588	9.113000E+01	  0.116793588	2.983600E+01
485	  0.116993994	-9.066000E+00	  0.116993994	2.303100E+01	  0.116993994	9.204100E+01	  0.116993994	2.895000E+01
486	  0.117194392	-9.081000E+00	  0.117194392	2.204100E+01	  0.117194392	9.285700E+01	  0.117194392	2.795000E+01
487	  0.117394790	-9.080000E+00	  0.117394790	2.103100E+01	  0.117394790	9.377000E+01	  0.117394790	2.699800E+01
488	  0.117595196	-9.097000E+00	  0.117595196	1.999200E+01	  0.117595196	9.455700E+01	  0.117595196	2.586900E+01
489	  0.117795594	-9.108000E+00	  0.117795594	1.893600E+01	  0.117795594	9.536800E+01	  0.117795594	2.472300E+01
490	  0.117995992	-9.126000E+00	  0.117995992	1.788100E+01	  0.117995992	9.609300E+01	  0.117995992	2.350900E+01
491	  0.118196398	-9.146000E+00	  0.118196398	1.680300E+01	  0.118196398	9.678000E+01	  0.118196398	2.222700E+01
492	  0.118396796	-9.169000E+00	  0.118396796	1.569400E+01	  0.118396796	9.741600E+01	  0.118396796	2.086300E+01
493	  0.118597202	-9.189000E+00	  0.118597202	1.457300E+01	  0.118597202	9.803600E+01	  0.118597202	1.947400E+01
494	  0.118797600	-9.221000E+00	  0.118797600	1.338400E+01	  0.118797600	9.854600E+01	  0.118797600	1.792300E+01
