! Anritsu VNA Master:             	Model: MS2036C/10/77
! SN:             	1601066
! /bd0/18may09/254.ew.m12.txt
! Existing Calibration Information:
! TYPE:             	Current Settings	Active Cal Settings
! TIME:             	05/09/2018 12:12:58 PM	05/09/2018 12:08:51 PM
! INTERNAL TEMP:    	55.0 C	54.8 C
! # POINTS:         	494	494
! START FREQ:       	20.000 MHz	20.000 MHz
! STOP FREQ:        	118.797 594 MHz	118.797 594 MHz
! SOURCE POWER:     	High	High
! IFBW:             	50 Hz	50 Hz
! AVG FACTOR:       	  1 	  1 
! REF PLANE 1:      	0 mm	0 mm
! REF PLANE 2:      	0 mm	0 mm
! CAL TYPE:         	Full S22	Full S22
! CAL METHOD:       	SOLT	SOLT
! CAL LINE TYPE:    	Coax	Coax
! DUT PORT 1:       	K-Conn(M)	K-Conn(M)
! DUT PORT 2:       	K-Conn(M)	K-Conn(M)
! CAL STATUS:       	OK: Accuracy High	--
! PROP-V:       	0.700
! CABLE LOSS:       	0.000 dB/m
! REF IMPEDANCE:       	50.0
! Trace Specific Parameters:	TR1	TR2	TR3	TR4
! TRACE.#.Y (GRAPH TYPE)	LOG MAG	PHASE	REAL IMPEDANCE	IMAGINARY IMPEDANCE
! TRACE.#.X 	FREQ.GHZ	FREQ.GHZ	FREQ.GHZ	FREQ.GHZ
! S-PARAMETER	S22	S22	S22	S22
! SMOOTH/APERTURE %	0	0	0	0
! WINDOW	NSL	NSL	NSL	NSL
! GATING	OFF	OFF	OFF	OFF
! FGTD	OFF	OFF	OFF	OFF
Marker Information per Trace:	TR1	TR2	TR3	TR4
!MK1	--	"MK1 TR2:  20.000 MHz,PH:-126.77°"	--	--
!MK2	--	--	"MK2 TR3:  70.100 200 MHz,Z:(16.136 ohm, -0.753 ohm)"	--
!MK3	--	--	--	--
!MK4	--	--	--	--
!MK5	--	--	--	--
!MK6	--	--	--	--
!MK7	--	--	--	--
!MK8	--	--	--	--
PNT	TR1.FREQ.GHZ	TR1.LOG MAG.dB	TR2.FREQ.GHZ	TR2.PHASE.deg	TR3.FREQ.GHZ	TR3.REAL IMPEDANCE.ohm	TR4.FREQ.GHZ	TR4.IMAGINARY IMPEDANCE.ohm
1	  0.020000000	-6.340000E-01	  0.020000000	-1.267710E+02	  0.020000000	2.284000E+00	  0.020000000	-2.501200E+01
2	  0.020200402	-6.360000E-01	  0.020200402	-1.282440E+02	  0.020200402	2.260000E+00	  0.020200402	-2.421400E+01
3	  0.020400802	-6.370000E-01	  0.020400802	-1.297200E+02	  0.020400802	2.236000E+00	  0.020400802	-2.342500E+01
4	  0.020601204	-6.400000E-01	  0.020601204	-1.312270E+02	  0.020601204	2.221000E+00	  0.020601204	-2.262900E+01
5	  0.020801604	-6.420000E-01	  0.020801604	-1.327530E+02	  0.020801604	2.202000E+00	  0.020801604	-2.183300E+01
6	  0.021002004	-6.460000E-01	  0.021002004	-1.342890E+02	  0.021002004	2.188000E+00	  0.021002004	-2.104000E+01
7	  0.021202406	-6.480000E-01	  0.021202406	-1.358290E+02	  0.021202406	2.172000E+00	  0.021202406	-2.025400E+01
8	  0.021402806	-6.500000E-01	  0.021402806	-1.373760E+02	  0.021402806	2.157000E+00	  0.021402806	-1.947400E+01
9	  0.021603208	-6.530000E-01	  0.021603208	-1.389040E+02	  0.021603208	2.144000E+00	  0.021603208	-1.871100E+01
10	  0.021803608	-6.580000E-01	  0.021803608	-1.404330E+02	  0.021803608	2.137000E+00	  0.021803608	-1.795500E+01
11	  0.022004008	-6.620000E-01	  0.022004008	-1.419740E+02	  0.022004008	2.132000E+00	  0.022004008	-1.720100E+01
12	  0.022204408	-6.680000E-01	  0.022204408	-1.435410E+02	  0.022204408	2.131000E+00	  0.022204408	-1.644000E+01
13	  0.022404809	-6.730000E-01	  0.022404809	-1.451190E+02	  0.022404809	2.128000E+00	  0.022404809	-1.568100E+01
14	  0.022605211	-6.770000E-01	  0.022605211	-1.467210E+02	  0.022605211	2.121000E+00	  0.022605211	-1.491800E+01
15	  0.022805611	-6.810000E-01	  0.022805611	-1.483140E+02	  0.022805611	2.118000E+00	  0.022805611	-1.416500E+01
16	  0.023006011	-6.880000E-01	  0.023006011	-1.499000E+02	  0.023006011	2.122000E+00	  0.023006011	-1.342100E+01
17	  0.023206413	-6.920000E-01	  0.023206413	-1.514880E+02	  0.023206413	2.121000E+00	  0.023206413	-1.268200E+01
18	  0.023406813	-6.970000E-01	  0.023406813	-1.530710E+02	  0.023406813	2.120000E+00	  0.023406813	-1.195000E+01
19	  0.023607215	-7.020000E-01	  0.023607215	-1.546770E+02	  0.023607215	2.123000E+00	  0.023607215	-1.121300E+01
20	  0.023807615	-7.110000E-01	  0.023807615	-1.562960E+02	  0.023807615	2.137000E+00	  0.023807615	-1.047400E+01
21	  0.024008015	-7.190000E-01	  0.024008015	-1.579300E+02	  0.024008015	2.148000E+00	  0.024008015	-9.733000E+00
22	  0.024208417	-7.250000E-01	  0.024208417	-1.595780E+02	  0.024208417	2.154000E+00	  0.024208417	-8.989000E+00
23	  0.024408817	-7.320000E-01	  0.024408817	-1.612390E+02	  0.024408817	2.165000E+00	  0.024408817	-8.244000E+00
24	  0.024609219	-7.380000E-01	  0.024609219	-1.628960E+02	  0.024609219	2.172000E+00	  0.024609219	-7.504000E+00
25	  0.024809619	-7.470000E-01	  0.024809619	-1.645710E+02	  0.024809619	2.188000E+00	  0.024809619	-6.760000E+00
26	  0.025010020	-7.560000E-01	  0.025010020	-1.662370E+02	  0.025010020	2.206000E+00	  0.025010020	-6.022000E+00
27	  0.025210422	-7.650000E-01	  0.025210422	-1.679150E+02	  0.025210422	2.227000E+00	  0.025210422	-5.282000E+00
28	  0.025410822	-7.760000E-01	  0.025410822	-1.696110E+02	  0.025410822	2.252000E+00	  0.025410822	-4.536000E+00
29	  0.025611224	-7.860000E-01	  0.025611224	-1.713130E+02	  0.025611224	2.275000E+00	  0.025611224	-3.789000E+00
30	  0.025811624	-7.960000E-01	  0.025811624	-1.730340E+02	  0.025811624	2.300000E+00	  0.025811624	-3.036000E+00
31	  0.026012026	-8.070000E-01	  0.026012026	-1.747660E+02	  0.026012026	2.326000E+00	  0.026012026	-2.280000E+00
32	  0.026212426	-8.170000E-01	  0.026212426	-1.765060E+02	  0.026212426	2.352000E+00	  0.026212426	-1.521000E+00
33	  0.026412826	-8.310000E-01	  0.026412826	-1.782550E+02	  0.026412826	2.392000E+00	  0.026412826	-7.590000E-01
34	  0.026613226	-8.440000E-01	  0.026613226	1.799930E+02	  0.026613226	2.429000E+00	  0.026613226	2.000000E-03
35	  0.026813626	-8.590000E-01	  0.026813626	1.782220E+02	  0.026813626	2.473000E+00	  0.026813626	7.730000E-01
36	  0.027014028	-8.750000E-01	  0.027014028	1.764500E+02	  0.027014028	2.518000E+00	  0.027014028	1.545000E+00
37	  0.027214428	-8.890000E-01	  0.027214428	1.746710E+02	  0.027214428	2.563000E+00	  0.027214428	2.320000E+00
38	  0.027414829	-9.050000E-01	  0.027414829	1.728880E+02	  0.027414829	2.614000E+00	  0.027414829	3.098000E+00
39	  0.027615231	-9.210000E-01	  0.027615231	1.710840E+02	  0.027615231	2.666000E+00	  0.027615231	3.887000E+00
40	  0.027815631	-9.380000E-01	  0.027815631	1.692820E+02	  0.027815631	2.721000E+00	  0.027815631	4.676000E+00
41	  0.028016033	-9.550000E-01	  0.028016033	1.674620E+02	  0.028016033	2.781000E+00	  0.028016033	5.475000E+00
42	  0.028216433	-9.740000E-01	  0.028216433	1.656280E+02	  0.028216433	2.846000E+00	  0.028216433	6.283000E+00
43	  0.028416833	-9.930000E-01	  0.028416833	1.637870E+02	  0.028416833	2.913000E+00	  0.028416833	7.098000E+00
44	  0.028617235	-1.013000E+00	  0.028617235	1.619380E+02	  0.028617235	2.988000E+00	  0.028617235	7.918000E+00
45	  0.028817635	-1.033000E+00	  0.028817635	1.601020E+02	  0.028817635	3.062000E+00	  0.028817635	8.738000E+00
46	  0.029018037	-1.054000E+00	  0.029018037	1.582530E+02	  0.029018037	3.142000E+00	  0.029018037	9.567000E+00
47	  0.029218437	-1.078000E+00	  0.029218437	1.563850E+02	  0.029218437	3.234000E+00	  0.029218437	1.041000E+01
48	  0.029418837	-1.101000E+00	  0.029418837	1.544990E+02	  0.029418837	3.328000E+00	  0.029418837	1.126600E+01
49	  0.029619239	-1.126000E+00	  0.029619239	1.526140E+02	  0.029619239	3.430000E+00	  0.029619239	1.212700E+01
50	  0.029819639	-1.151000E+00	  0.029819639	1.507160E+02	  0.029819639	3.533000E+00	  0.029819639	1.300100E+01
51	  0.030020041	-1.176000E+00	  0.030020041	1.488100E+02	  0.030020041	3.641000E+00	  0.030020041	1.388600E+01
52	  0.030220442	-1.201000E+00	  0.030220442	1.469090E+02	  0.030220442	3.754000E+00	  0.030220442	1.477600E+01
53	  0.030420844	-1.227000E+00	  0.030420844	1.449990E+02	  0.030420844	3.875000E+00	  0.030420844	1.567900E+01
54	  0.030621244	-1.255000E+00	  0.030621244	1.430990E+02	  0.030621244	4.005000E+00	  0.030621244	1.658500E+01
55	  0.030821642	-1.285000E+00	  0.030821642	1.411870E+02	  0.030821642	4.149000E+00	  0.030821642	1.750600E+01
56	  0.031022044	-1.314000E+00	  0.031022044	1.392500E+02	  0.031022044	4.295000E+00	  0.031022044	1.844900E+01
57	  0.031222444	-1.339000E+00	  0.031222444	1.373140E+02	  0.031222444	4.430000E+00	  0.031222444	1.940400E+01
58	  0.031422846	-1.370000E+00	  0.031422846	1.353500E+02	  0.031422846	4.595000E+00	  0.031422846	2.038300E+01
59	  0.031623244	-1.402000E+00	  0.031623244	1.333860E+02	  0.031623244	4.769000E+00	  0.031623244	2.137500E+01
60	  0.031823646	-1.435000E+00	  0.031823646	1.314110E+02	  0.031823646	4.955000E+00	  0.031823646	2.238500E+01
61	  0.032024048	-1.468000E+00	  0.032024048	1.294350E+02	  0.032024048	5.150000E+00	  0.032024048	2.341000E+01
62	  0.032224450	-1.504000E+00	  0.032224450	1.274640E+02	  0.032224450	5.362000E+00	  0.032224450	2.444800E+01
63	  0.032424849	-1.537000E+00	  0.032424849	1.254630E+02	  0.032424849	5.576000E+00	  0.032424849	2.551700E+01
64	  0.032625251	-1.577000E+00	  0.032625251	1.234600E+02	  0.032625251	5.823000E+00	  0.032625251	2.660400E+01
65	  0.032825653	-1.609000E+00	  0.032825653	1.214210E+02	  0.032825653	6.058000E+00	  0.032825653	2.773200E+01
66	  0.033026051	-1.648000E+00	  0.033026051	1.194000E+02	  0.033026051	6.326000E+00	  0.033026051	2.886700E+01
67	  0.033226453	-1.684000E+00	  0.033226453	1.173560E+02	  0.033226453	6.600000E+00	  0.033226453	3.003700E+01
68	  0.033426855	-1.722000E+00	  0.033426855	1.153240E+02	  0.033426855	6.895000E+00	  0.033426855	3.122300E+01
69	  0.033627257	-1.763000E+00	  0.033627257	1.133090E+02	  0.033627257	7.215000E+00	  0.033627257	3.242000E+01
70	  0.033827655	-1.801000E+00	  0.033827655	1.112630E+02	  0.033827655	7.547000E+00	  0.033827655	3.366100E+01
71	  0.034028057	-1.839000E+00	  0.034028057	1.092140E+02	  0.034028057	7.894000E+00	  0.034028057	3.493100E+01
72	  0.034228459	-1.884000E+00	  0.034228459	1.071640E+02	  0.034228459	8.290000E+00	  0.034228459	3.622600E+01
73	  0.034428857	-1.923000E+00	  0.034428857	1.050940E+02	  0.034428857	8.689000E+00	  0.034428857	3.756600E+01
74	  0.034629259	-1.967000E+00	  0.034629259	1.030240E+02	  0.034629259	9.131000E+00	  0.034629259	3.893500E+01
75	  0.034829661	-2.012000E+00	  0.034829661	1.009590E+02	  0.034829661	9.604000E+00	  0.034829661	4.033200E+01
76	  0.035030060	-2.057000E+00	  0.035030060	9.887400E+01	  0.035030060	1.011100E+01	  0.035030060	4.177800E+01
77	  0.035230462	-2.103000E+00	  0.035230462	9.680000E+01	  0.035230462	1.065000E+01	  0.035230462	4.325200E+01
78	  0.035430863	-2.150000E+00	  0.035430863	9.471800E+01	  0.035430863	1.123500E+01	  0.035430863	4.476800E+01
79	  0.035631265	-2.199000E+00	  0.035631265	9.264200E+01	  0.035631265	1.186500E+01	  0.035631265	4.631800E+01
80	  0.035831664	-2.245000E+00	  0.035831664	9.055100E+01	  0.035831664	1.253000E+01	  0.035831664	4.792500E+01
81	  0.036032066	-2.294000E+00	  0.036032066	8.846700E+01	  0.036032066	1.325200E+01	  0.036032066	4.956700E+01
82	  0.036232468	-2.344000E+00	  0.036232468	8.636800E+01	  0.036232468	1.403700E+01	  0.036232468	5.126700E+01
83	  0.036432866	-2.394000E+00	  0.036432866	8.425800E+01	  0.036432866	1.487900E+01	  0.036432866	5.302500E+01
84	  0.036633268	-2.445000E+00	  0.036633268	8.218800E+01	  0.036633268	1.577900E+01	  0.036633268	5.479700E+01
85	  0.036833670	-2.495000E+00	  0.036833670	8.008300E+01	  0.036833670	1.675100E+01	  0.036833670	5.665500E+01
86	  0.037034072	-2.550000E+00	  0.037034072	7.799100E+01	  0.037034072	1.782600E+01	  0.037034072	5.854500E+01
87	  0.037234470	-2.602000E+00	  0.037234470	7.590300E+01	  0.037234470	1.896900E+01	  0.037234470	6.049100E+01
88	  0.037434869	-2.652000E+00	  0.037434869	7.382300E+01	  0.037434869	2.018100E+01	  0.037434869	6.249500E+01
89	  0.037635271	-2.704000E+00	  0.037635271	7.172900E+01	  0.037635271	2.151100E+01	  0.037635271	6.456600E+01
90	  0.037835669	-2.758000E+00	  0.037835669	6.963400E+01	  0.037835669	2.297500E+01	  0.037835669	6.669100E+01
91	  0.038036071	-2.812000E+00	  0.038036071	6.750000E+01	  0.038036071	2.457700E+01	  0.038036071	6.892600E+01
92	  0.038236473	-2.869000E+00	  0.038236473	6.539600E+01	  0.038236473	2.633500E+01	  0.038236473	7.117100E+01
93	  0.038436871	-2.925000E+00	  0.038436871	6.326400E+01	  0.038436871	2.825500E+01	  0.038436871	7.351800E+01
94	  0.038637273	-2.981000E+00	  0.038637273	6.116600E+01	  0.038637273	3.031700E+01	  0.038637273	7.588300E+01
95	  0.038837675	-3.036000E+00	  0.038837675	5.906500E+01	  0.038837675	3.257100E+01	  0.038837675	7.830800E+01
96	  0.039038073	-3.089000E+00	  0.039038073	5.697000E+01	  0.039038073	3.499800E+01	  0.039038073	8.079400E+01
97	  0.039238475	-3.142000E+00	  0.039238475	5.488400E+01	  0.039238475	3.765500E+01	  0.039238475	8.331000E+01
98	  0.039438877	-3.197000E+00	  0.039438877	5.281900E+01	  0.039438877	4.055400E+01	  0.039438877	8.581700E+01
99	  0.039639279	-3.247000E+00	  0.039639279	5.071000E+01	  0.039639279	4.373800E+01	  0.039639279	8.845300E+01
100	  0.039839678	-3.302000E+00	  0.039839678	4.860700E+01	  0.039839678	4.727200E+01	  0.039839678	9.105100E+01
101	  0.040040080	-3.355000E+00	  0.040040080	4.651600E+01	  0.040040080	5.111200E+01	  0.040040080	9.364100E+01
102	  0.040240481	-3.405000E+00	  0.040240481	4.442700E+01	  0.040240481	5.529000E+01	  0.040240481	9.622900E+01
103	  0.040440880	-3.458000E+00	  0.040440880	4.234400E+01	  0.040440880	5.989600E+01	  0.040440880	9.870700E+01
104	  0.040641282	-3.512000E+00	  0.040641282	4.028200E+01	  0.040641282	6.491700E+01	  0.040641282	1.010190E+02
105	  0.040841684	-3.560000E+00	  0.040841684	3.821100E+01	  0.040841684	7.037700E+01	  0.040841684	1.032690E+02
106	  0.041042086	-3.616000E+00	  0.041042086	3.617200E+01	  0.041042086	7.632500E+01	  0.041042086	1.051430E+02
107	  0.041242484	-3.668000E+00	  0.041242484	3.410200E+01	  0.041242484	8.286800E+01	  0.041242484	1.067930E+02
108	  0.041442886	-3.721000E+00	  0.041442886	3.204300E+01	  0.041442886	8.993500E+01	  0.041442886	1.080400E+02
109	  0.041643288	-3.773000E+00	  0.041643288	2.997600E+01	  0.041643288	9.759700E+01	  0.041643288	1.087940E+02
110	  0.041843686	-3.821000E+00	  0.041843686	2.790600E+01	  0.041843686	1.058260E+02	  0.041843686	1.090220E+02
111	  0.042044088	-3.872000E+00	  0.042044088	2.586800E+01	  0.042044088	1.144760E+02	  0.042044088	1.083960E+02
112	  0.042244490	-3.923000E+00	  0.042244490	2.382600E+01	  0.042244490	1.236070E+02	  0.042244490	1.068840E+02
113	  0.042444889	-3.973000E+00	  0.042444889	2.179800E+01	  0.042444889	1.330430E+02	  0.042444889	1.043130E+02
114	  0.042645290	-4.025000E+00	  0.042645290	1.976000E+01	  0.042645290	1.427350E+02	  0.042645290	1.004860E+02
115	  0.042845692	-4.076000E+00	  0.042845692	1.775000E+01	  0.042845692	1.523220E+02	  0.042845692	9.541300E+01
116	  0.043046094	-4.126000E+00	  0.043046094	1.572900E+01	  0.043046094	1.617560E+02	  0.043046094	8.891500E+01
117	  0.043246493	-4.174000E+00	  0.043246493	1.370300E+01	  0.043246493	1.707690E+02	  0.043246493	8.102100E+01
118	  0.043446895	-4.222000E+00	  0.043446895	1.170900E+01	  0.043446895	1.788490E+02	  0.043446895	7.180100E+01
119	  0.043647297	-4.268000E+00	  0.043647297	9.698000E+00	  0.043647297	1.859960E+02	  0.043647297	6.126300E+01
120	  0.043847695	-4.317000E+00	  0.043847695	7.700000E+00	  0.043847695	1.916130E+02	  0.043847695	4.958800E+01
121	  0.044048097	-4.365000E+00	  0.044048097	5.716000E+00	  0.044048097	1.955980E+02	  0.044048097	3.718100E+01
122	  0.044248499	-4.411000E+00	  0.044248499	3.735000E+00	  0.044248499	1.979110E+02	  0.044248499	2.432800E+01
123	  0.044448901	-4.456000E+00	  0.044448901	1.784000E+00	  0.044448901	1.984270E+02	  0.044448901	1.152800E+01
124	  0.044649299	-4.502000E+00	  0.044649299	-1.850000E-01	  0.044649299	1.972150E+02	  0.044649299	-1.177000E+00
125	  0.044849701	-4.547000E+00	  0.044849701	-2.104000E+00	  0.044849701	1.944280E+02	  0.044849701	-1.303600E+01
126	  0.045050103	-4.592000E+00	  0.045050103	-4.062000E+00	  0.045050103	1.901600E+02	  0.045050103	-2.432900E+01
127	  0.045250501	-4.634000E+00	  0.045250501	-5.992000E+00	  0.045250501	1.849280E+02	  0.045250501	-3.452300E+01
128	  0.045450903	-4.679000E+00	  0.045450903	-7.904000E+00	  0.045450903	1.786760E+02	  0.045450903	-4.347800E+01
129	  0.045651305	-4.719000E+00	  0.045651305	-9.847000E+00	  0.045651305	1.718060E+02	  0.045651305	-5.149900E+01
130	  0.045851704	-4.762000E+00	  0.045851704	-1.172800E+01	  0.045851704	1.646220E+02	  0.045851704	-5.807400E+01
131	  0.046052102	-4.801000E+00	  0.046052102	-1.361700E+01	  0.046052102	1.572700E+02	  0.046052102	-6.368900E+01
132	  0.046252504	-4.842000E+00	  0.046252504	-1.549700E+01	  0.046252504	1.498380E+02	  0.046252504	-6.822900E+01
133	  0.046452906	-4.878000E+00	  0.046452906	-1.737000E+01	  0.046452906	1.425500E+02	  0.046452906	-7.192900E+01
134	  0.046653304	-4.916000E+00	  0.046653304	-1.924200E+01	  0.046653304	1.353860E+02	  0.046653304	-7.477400E+01
135	  0.046853706	-4.955000E+00	  0.046853706	-2.109200E+01	  0.046853706	1.285150E+02	  0.046853706	-7.683600E+01
136	  0.047054108	-4.988000E+00	  0.047054108	-2.294900E+01	  0.047054108	1.219380E+02	  0.047054108	-7.840300E+01
137	  0.047254506	-5.025000E+00	  0.047254506	-2.478800E+01	  0.047254506	1.156960E+02	  0.047254506	-7.934500E+01
138	  0.047454908	-5.059000E+00	  0.047454908	-2.662600E+01	  0.047454908	1.097810E+02	  0.047454908	-7.986800E+01
139	  0.047655310	-5.091000E+00	  0.047655310	-2.843600E+01	  0.047655310	1.042810E+02	  0.047655310	-8.004400E+01
140	  0.047855709	-5.125000E+00	  0.047855709	-3.023000E+01	  0.047855709	9.913000E+01	  0.047855709	-7.986400E+01
141	  0.048056111	-5.159000E+00	  0.048056111	-3.203300E+01	  0.048056111	9.426300E+01	  0.048056111	-7.941900E+01
142	  0.048256513	-5.192000E+00	  0.048256513	-3.379100E+01	  0.048256513	8.980800E+01	  0.048256513	-7.877300E+01
143	  0.048456915	-5.224000E+00	  0.048456915	-3.555600E+01	  0.048456915	8.560700E+01	  0.048456915	-7.797900E+01
144	  0.048657313	-5.252000E+00	  0.048657313	-3.733700E+01	  0.048657313	8.162800E+01	  0.048657313	-7.708200E+01
145	  0.048857715	-5.281000E+00	  0.048857715	-3.909200E+01	  0.048857715	7.795100E+01	  0.048857715	-7.607000E+01
146	  0.049058117	-5.303000E+00	  0.049058117	-4.085200E+01	  0.049058117	7.447500E+01	  0.049058117	-7.503300E+01
147	  0.049258515	-5.332000E+00	  0.049258515	-4.259200E+01	  0.049258515	7.127100E+01	  0.049258515	-7.384700E+01
148	  0.049458917	-5.354000E+00	  0.049458917	-4.429400E+01	  0.049458917	6.831100E+01	  0.049458917	-7.268600E+01
149	  0.049659319	-5.383000E+00	  0.049659319	-4.600000E+01	  0.049659319	6.554300E+01	  0.049659319	-7.141800E+01
150	  0.049859721	-5.409000E+00	  0.049859721	-4.768900E+01	  0.049859721	6.296800E+01	  0.049859721	-7.014000E+01
151	  0.050060119	-5.435000E+00	  0.050060119	-4.937300E+01	  0.050060119	6.054900E+01	  0.050060119	-6.885200E+01
152	  0.050260521	-5.456000E+00	  0.050260521	-5.107100E+01	  0.050260521	5.823400E+01	  0.050260521	-6.758500E+01
153	  0.050460923	-5.479000E+00	  0.050460923	-5.275000E+01	  0.050460923	5.608900E+01	  0.050460923	-6.629400E+01
154	  0.050661322	-5.495000E+00	  0.050661322	-5.440200E+01	  0.050661322	5.407700E+01	  0.050661322	-6.506400E+01
155	  0.050861724	-5.517000E+00	  0.050861724	-5.605500E+01	  0.050861724	5.219400E+01	  0.050861724	-6.379300E+01
156	  0.051062126	-5.541000E+00	  0.051062126	-5.767900E+01	  0.051062126	5.046500E+01	  0.051062126	-6.251900E+01
157	  0.051262524	-5.562000E+00	  0.051262524	-5.930500E+01	  0.051262524	4.881400E+01	  0.051262524	-6.127400E+01
158	  0.051462926	-5.582000E+00	  0.051462926	-6.089200E+01	  0.051462926	4.729100E+01	  0.051462926	-6.006500E+01
159	  0.051663328	-5.601000E+00	  0.051663328	-6.248300E+01	  0.051663328	4.583500E+01	  0.051663328	-5.887100E+01
160	  0.051863730	-5.616000E+00	  0.051863730	-6.408400E+01	  0.051863730	4.443400E+01	  0.051863730	-5.769900E+01
161	  0.052064128	-5.634000E+00	  0.052064128	-6.566200E+01	  0.052064128	4.313500E+01	  0.052064128	-5.653800E+01
162	  0.052264530	-5.643000E+00	  0.052264530	-6.722300E+01	  0.052264530	4.188000E+01	  0.052264530	-5.544300E+01
163	  0.052464932	-5.658000E+00	  0.052464932	-6.877100E+01	  0.052464932	4.072000E+01	  0.052464932	-5.433800E+01
164	  0.052665330	-5.672000E+00	  0.052665330	-7.032100E+01	  0.052665330	3.961300E+01	  0.052665330	-5.324300E+01
165	  0.052865732	-5.685000E+00	  0.052865732	-7.183100E+01	  0.052865732	3.858200E+01	  0.052865732	-5.219300E+01
166	  0.053066134	-5.700000E+00	  0.053066134	-7.335700E+01	  0.053066134	3.759900E+01	  0.053066134	-5.113500E+01
167	  0.053266536	-5.711000E+00	  0.053266536	-7.484000E+01	  0.053266536	3.667100E+01	  0.053266536	-5.013500E+01
168	  0.053466935	-5.723000E+00	  0.053466935	-7.635500E+01	  0.053466935	3.577100E+01	  0.053466935	-4.911900E+01
169	  0.053667337	-5.734000E+00	  0.053667337	-7.785200E+01	  0.053667337	3.491900E+01	  0.053667337	-4.813100E+01
170	  0.053867739	-5.743000E+00	  0.053867739	-7.932000E+01	  0.053867739	3.411200E+01	  0.053867739	-4.718100E+01
171	  0.054068137	-5.750000E+00	  0.054068137	-8.082300E+01	  0.054068137	3.331400E+01	  0.054068137	-4.622600E+01
172	  0.054268539	-5.755000E+00	  0.054268539	-8.227700E+01	  0.054268539	3.257100E+01	  0.054268539	-4.531500E+01
173	  0.054468941	-5.764000E+00	  0.054468941	-8.374000E+01	  0.054468941	3.186800E+01	  0.054468941	-4.440000E+01
174	  0.054669335	-5.776000E+00	  0.054669335	-8.521300E+01	  0.054669335	3.120200E+01	  0.054669335	-4.347900E+01
175	  0.054869737	-5.784000E+00	  0.054869737	-8.664800E+01	  0.054869737	3.057000E+01	  0.054869737	-4.260200E+01
176	  0.055070139	-5.791000E+00	  0.055070139	-8.808600E+01	  0.055070139	2.995400E+01	  0.055070139	-4.173900E+01
177	  0.055270538	-5.795000E+00	  0.055270538	-8.952700E+01	  0.055270538	2.935500E+01	  0.055270538	-4.089000E+01
178	  0.055470940	-5.802000E+00	  0.055470940	-9.095600E+01	  0.055470940	2.879300E+01	  0.055470940	-4.005000E+01
179	  0.055671342	-5.803000E+00	  0.055671342	-9.240200E+01	  0.055671342	2.822700E+01	  0.055671342	-3.922500E+01
180	  0.055871744	-5.806000E+00	  0.055871744	-9.383500E+01	  0.055871744	2.769600E+01	  0.055871744	-3.841000E+01
181	  0.056072142	-5.809000E+00	  0.056072142	-9.523700E+01	  0.056072142	2.719500E+01	  0.056072142	-3.762300E+01
182	  0.056272544	-5.813000E+00	  0.056272544	-9.663800E+01	  0.056272544	2.671900E+01	  0.056272544	-3.684100E+01
183	  0.056472946	-5.815000E+00	  0.056472946	-9.803900E+01	  0.056472946	2.625300E+01	  0.056472946	-3.607200E+01
184	  0.056673344	-5.820000E+00	  0.056673344	-9.943300E+01	  0.056673344	2.582000E+01	  0.056673344	-3.530700E+01
185	  0.056873746	-5.824000E+00	  0.056873746	-1.008060E+02	  0.056873746	2.540600E+01	  0.056873746	-3.456500E+01
186	  0.057074148	-5.826000E+00	  0.057074148	-1.021860E+02	  0.057074148	2.499700E+01	  0.057074148	-3.383000E+01
187	  0.057274550	-5.824000E+00	  0.057274550	-1.035600E+02	  0.057274550	2.459300E+01	  0.057274550	-3.311300E+01
188	  0.057474948	-5.825000E+00	  0.057474948	-1.049160E+02	  0.057474948	2.421600E+01	  0.057474948	-3.240700E+01
189	  0.057675350	-5.828000E+00	  0.057675350	-1.062710E+02	  0.057675350	2.386100E+01	  0.057675350	-3.170400E+01
190	  0.057875752	-5.827000E+00	  0.057875752	-1.076460E+02	  0.057875752	2.350300E+01	  0.057875752	-3.100400E+01
191	  0.058076151	-5.832000E+00	  0.058076151	-1.089940E+02	  0.058076151	2.318100E+01	  0.058076151	-3.031600E+01
192	  0.058276553	-5.831000E+00	  0.058276553	-1.102880E+02	  0.058276553	2.286600E+01	  0.058276553	-2.966900E+01
193	  0.058476955	-5.828000E+00	  0.058476955	-1.116020E+02	  0.058476955	2.255100E+01	  0.058476955	-2.902100E+01
194	  0.058677353	-5.829000E+00	  0.058677353	-1.129460E+02	  0.058677353	2.225500E+01	  0.058677353	-2.835700E+01
195	  0.058877755	-5.830000E+00	  0.058877755	-1.142460E+02	  0.058877755	2.197600E+01	  0.058877755	-2.772100E+01
196	  0.059078157	-5.826000E+00	  0.059078157	-1.155420E+02	  0.059078157	2.169300E+01	  0.059078157	-2.709800E+01
197	  0.059278559	-5.828000E+00	  0.059278559	-1.168330E+02	  0.059278559	2.143800E+01	  0.059278559	-2.647600E+01
198	  0.059478957	-5.829000E+00	  0.059478957	-1.181050E+02	  0.059478957	2.119300E+01	  0.059478957	-2.586900E+01
199	  0.059679359	-5.826000E+00	  0.059679359	-1.193740E+02	  0.059679359	2.094700E+01	  0.059679359	-2.527200E+01
200	  0.059879761	-5.827000E+00	  0.059879761	-1.206470E+02	  0.059879761	2.071800E+01	  0.059879761	-2.467300E+01
201	  0.060080159	-5.830000E+00	  0.060080159	-1.218770E+02	  0.060080159	2.051100E+01	  0.060080159	-2.409700E+01
202	  0.060280561	-5.828000E+00	  0.060280561	-1.231540E+02	  0.060280561	2.028800E+01	  0.060280561	-2.350800E+01
203	  0.060480963	-5.827000E+00	  0.060480963	-1.243850E+02	  0.060480963	2.008500E+01	  0.060480963	-2.294400E+01
204	  0.060681365	-5.831000E+00	  0.060681365	-1.256290E+02	  0.060681365	1.989900E+01	  0.060681365	-2.237200E+01
205	  0.060881764	-5.827000E+00	  0.060881764	-1.268350E+02	  0.060881764	1.970400E+01	  0.060881764	-2.182900E+01
206	  0.061082166	-5.827000E+00	  0.061082166	-1.280820E+02	  0.061082166	1.952000E+01	  0.061082166	-2.126800E+01
207	  0.061282568	-5.826000E+00	  0.061282568	-1.293080E+02	  0.061282568	1.934100E+01	  0.061282568	-2.072100E+01
208	  0.061482966	-5.827000E+00	  0.061482966	-1.305190E+02	  0.061482966	1.917700E+01	  0.061482966	-2.018200E+01
209	  0.061683368	-5.827000E+00	  0.061683368	-1.317100E+02	  0.061683368	1.902100E+01	  0.061683368	-1.965500E+01
210	  0.061883770	-5.828000E+00	  0.061883770	-1.329210E+02	  0.061883770	1.886600E+01	  0.061883770	-1.912200E+01
211	  0.062084168	-5.829000E+00	  0.062084168	-1.341140E+02	  0.062084168	1.872300E+01	  0.062084168	-1.860000E+01
212	  0.062284570	-5.825000E+00	  0.062284570	-1.353040E+02	  0.062284570	1.856800E+01	  0.062284570	-1.808700E+01
213	  0.062484972	-5.816000E+00	  0.062484972	-1.364470E+02	  0.062484972	1.841200E+01	  0.062484972	-1.759900E+01
214	  0.062685370	-5.818000E+00	  0.062685370	-1.376480E+02	  0.062685370	1.828500E+01	  0.062685370	-1.708100E+01
215	  0.062885776	-5.814000E+00	  0.062885776	-1.388500E+02	  0.062885776	1.814500E+01	  0.062885776	-1.657000E+01
216	  0.063086174	-5.812000E+00	  0.063086174	-1.399970E+02	  0.063086174	1.802100E+01	  0.063086174	-1.608300E+01
217	  0.063286573	-5.809000E+00	  0.063286573	-1.411990E+02	  0.063286573	1.789400E+01	  0.063286573	-1.557500E+01
218	  0.063486971	-5.812000E+00	  0.063486971	-1.423570E+02	  0.063486971	1.778900E+01	  0.063486971	-1.508600E+01
219	  0.063687377	-5.805000E+00	  0.063687377	-1.434840E+02	  0.063687377	1.766700E+01	  0.063687377	-1.461600E+01
220	  0.063887775	-5.805000E+00	  0.063887775	-1.446210E+02	  0.063887775	1.756600E+01	  0.063887775	-1.414100E+01
221	  0.064088173	-5.808000E+00	  0.064088173	-1.458140E+02	  0.064088173	1.747400E+01	  0.064088173	-1.364200E+01
222	  0.064288579	-5.802000E+00	  0.064288579	-1.469710E+02	  0.064288579	1.736500E+01	  0.064288579	-1.316500E+01
223	  0.064488977	-5.801000E+00	  0.064488977	-1.481020E+02	  0.064488977	1.727100E+01	  0.064488977	-1.269900E+01
224	  0.064689375	-5.800000E+00	  0.064689375	-1.492490E+02	  0.064689375	1.718200E+01	  0.064689375	-1.222700E+01
225	  0.064889781	-5.798000E+00	  0.064889781	-1.503760E+02	  0.064889781	1.709800E+01	  0.064889781	-1.176600E+01
226	  0.065090179	-5.795000E+00	  0.065090179	-1.514980E+02	  0.065090179	1.701300E+01	  0.065090179	-1.130800E+01
227	  0.065290578	-5.794000E+00	  0.065290578	-1.525820E+02	  0.065290578	1.693700E+01	  0.065290578	-1.086700E+01
228	  0.065490983	-5.793000E+00	  0.065490983	-1.537080E+02	  0.065490983	1.686500E+01	  0.065490983	-1.041000E+01
229	  0.065691382	-5.794000E+00	  0.065691382	-1.548380E+02	  0.065691382	1.680000E+01	  0.065691382	-9.952000E+00
230	  0.065891780	-5.792000E+00	  0.065891780	-1.559950E+02	  0.065891780	1.673000E+01	  0.065891780	-9.485000E+00
231	  0.066092186	-5.792000E+00	  0.066092186	-1.570650E+02	  0.066092186	1.667000E+01	  0.066092186	-9.055000E+00
232	  0.066292584	-5.790000E+00	  0.066292584	-1.581610E+02	  0.066292584	1.660800E+01	  0.066292584	-8.615000E+00
233	  0.066492982	-5.789000E+00	  0.066492982	-1.592660E+02	  0.066492982	1.655200E+01	  0.066492982	-8.173000E+00
234	  0.066693388	-5.789000E+00	  0.066693388	-1.603400E+02	  0.066693388	1.650500E+01	  0.066693388	-7.743000E+00
235	  0.066893786	-5.787000E+00	  0.066893786	-1.613870E+02	  0.066893786	1.645400E+01	  0.066893786	-7.326000E+00
236	  0.067094192	-5.787000E+00	  0.067094192	-1.624640E+02	  0.067094192	1.641000E+01	  0.067094192	-6.898000E+00
237	  0.067294590	-5.787000E+00	  0.067294590	-1.635380E+02	  0.067294590	1.636800E+01	  0.067294590	-6.471000E+00
238	  0.067494988	-5.790000E+00	  0.067494988	-1.645970E+02	  0.067494988	1.633900E+01	  0.067494988	-6.051000E+00
239	  0.067695394	-5.790000E+00	  0.067695394	-1.656580E+02	  0.067695394	1.630200E+01	  0.067695394	-5.631000E+00
240	  0.067895792	-5.786000E+00	  0.067895792	-1.667030E+02	  0.067895792	1.626000E+01	  0.067895792	-5.219000E+00
241	  0.068096191	-5.791000E+00	  0.068096191	-1.677660E+02	  0.068096191	1.624300E+01	  0.068096191	-4.798000E+00
242	  0.068296596	-5.798000E+00	  0.068296596	-1.688190E+02	  0.068296596	1.623300E+01	  0.068296596	-4.382000E+00
243	  0.068496995	-5.798000E+00	  0.068496995	-1.698460E+02	  0.068496995	1.620800E+01	  0.068496995	-3.978000E+00
244	  0.068697393	-5.798000E+00	  0.068697393	-1.708860E+02	  0.068697393	1.618600E+01	  0.068697393	-3.569000E+00
245	  0.068897791	-5.797000E+00	  0.068897791	-1.719310E+02	  0.068897791	1.616500E+01	  0.068897791	-3.159000E+00
246	  0.069098189	-5.797000E+00	  0.069098189	-1.729440E+02	  0.069098189	1.614900E+01	  0.069098189	-2.761000E+00
247	  0.069298595	-5.797000E+00	  0.069298595	-1.739940E+02	  0.069298595	1.613300E+01	  0.069298595	-2.350000E+00
248	  0.069498993	-5.800000E+00	  0.069498993	-1.750190E+02	  0.069498993	1.612800E+01	  0.069498993	-1.948000E+00
249	  0.069699399	-5.804000E+00	  0.069699399	-1.760500E+02	  0.069699399	1.612700E+01	  0.069699399	-1.544000E+00
250	  0.069899797	-5.808000E+00	  0.069899797	-1.770650E+02	  0.069899797	1.613000E+01	  0.069899797	-1.147000E+00
251	  0.070100196	-5.812000E+00	  0.070100196	-1.780740E+02	  0.070100196	1.613600E+01	  0.070100196	-7.520000E-01
252	  0.070300601	-5.812000E+00	  0.070300601	-1.790700E+02	  0.070300601	1.613200E+01	  0.070300601	-3.630000E-01
253	  0.070501000	-5.814000E+00	  0.070501000	1.799350E+02	  0.070501000	1.613600E+01	  0.070501000	2.500000E-02
254	  0.070701398	-5.815000E+00	  0.070701398	1.789210E+02	  0.070701398	1.614000E+01	  0.070701398	4.210000E-01
255	  0.070901804	-5.818000E+00	  0.070901804	1.779260E+02	  0.070901804	1.615100E+01	  0.070901804	8.100000E-01
256	  0.071102202	-5.823000E+00	  0.071102202	1.769280E+02	  0.071102202	1.617100E+01	  0.071102202	1.200000E+00
257	  0.071302600	-5.825000E+00	  0.071302600	1.759180E+02	  0.071302600	1.618300E+01	  0.071302600	1.595000E+00
258	  0.071503006	-5.826000E+00	  0.071503006	1.749420E+02	  0.071503006	1.619600E+01	  0.071503006	1.977000E+00
259	  0.071703404	-5.835000E+00	  0.071703404	1.739800E+02	  0.071703404	1.623100E+01	  0.071703404	2.352000E+00
260	  0.071903802	-5.837000E+00	  0.071903802	1.729910E+02	  0.071903802	1.625200E+01	  0.071903802	2.739000E+00
261	  0.072104208	-5.842000E+00	  0.072104208	1.720020E+02	  0.072104208	1.628000E+01	  0.072104208	3.126000E+00
262	  0.072304606	-5.844000E+00	  0.072304606	1.710340E+02	  0.072304606	1.630400E+01	  0.072304606	3.505000E+00
263	  0.072505005	-5.847000E+00	  0.072505005	1.701050E+02	  0.072505005	1.633100E+01	  0.072505005	3.869000E+00
264	  0.072705410	-5.851000E+00	  0.072705410	1.691380E+02	  0.072705410	1.636400E+01	  0.072705410	4.248000E+00
265	  0.072905809	-5.854000E+00	  0.072905809	1.681610E+02	  0.072905809	1.639700E+01	  0.072905809	4.631000E+00
266	  0.073106214	-5.858000E+00	  0.073106214	1.672140E+02	  0.073106214	1.643300E+01	  0.073106214	5.003000E+00
267	  0.073306613	-5.865000E+00	  0.073306613	1.662650E+02	  0.073306613	1.647900E+01	  0.073306613	5.375000E+00
268	  0.073507011	-5.872000E+00	  0.073507011	1.653090E+02	  0.073507011	1.652700E+01	  0.073507011	5.751000E+00
269	  0.073707417	-5.875000E+00	  0.073707417	1.643820E+02	  0.073707417	1.656800E+01	  0.073707417	6.116000E+00
270	  0.073907815	-5.880000E+00	  0.073907815	1.634510E+02	  0.073907815	1.661500E+01	  0.073907815	6.483000E+00
271	  0.074108213	-5.884000E+00	  0.074108213	1.625330E+02	  0.074108213	1.666100E+01	  0.074108213	6.845000E+00
272	  0.074308619	-5.888000E+00	  0.074308619	1.616030E+02	  0.074308619	1.670900E+01	  0.074308619	7.213000E+00
273	  0.074509017	-5.893000E+00	  0.074509017	1.606710E+02	  0.074509017	1.676200E+01	  0.074509017	7.581000E+00
274	  0.074709415	-5.897000E+00	  0.074709415	1.597860E+02	  0.074709415	1.681400E+01	  0.074709415	7.932000E+00
275	  0.074909821	-5.904000E+00	  0.074909821	1.588440E+02	  0.074909821	1.687500E+01	  0.074909821	8.305000E+00
276	  0.075110219	-5.910000E+00	  0.075110219	1.579210E+02	  0.075110219	1.693800E+01	  0.075110219	8.671000E+00
277	  0.075310618	-5.909000E+00	  0.075310618	1.569990E+02	  0.075310618	1.698400E+01	  0.075310618	9.040000E+00
278	  0.075511023	-5.921000E+00	  0.075511023	1.561240E+02	  0.075511023	1.706300E+01	  0.075511023	9.386000E+00
279	  0.075711422	-5.920000E+00	  0.075711422	1.552430E+02	  0.075711422	1.711200E+01	  0.075711422	9.740000E+00
280	  0.075911827	-5.925000E+00	  0.075911827	1.543510E+02	  0.075911827	1.717800E+01	  0.075911827	1.009700E+01
281	  0.076112226	-5.933000E+00	  0.076112226	1.534330E+02	  0.076112226	1.725400E+01	  0.076112226	1.046400E+01
282	  0.076312624	-5.935000E+00	  0.076312624	1.525700E+02	  0.076312624	1.731600E+01	  0.076312624	1.081200E+01
283	  0.076513030	-5.940000E+00	  0.076513030	1.516710E+02	  0.076513030	1.738900E+01	  0.076513030	1.117400E+01
284	  0.076713428	-5.950000E+00	  0.076713428	1.507590E+02	  0.076713428	1.747900E+01	  0.076713428	1.153900E+01
285	  0.076913826	-5.955000E+00	  0.076913826	1.498790E+02	  0.076913826	1.755500E+01	  0.076913826	1.189500E+01
286	  0.077114232	-5.961000E+00	  0.077114232	1.490030E+02	  0.077114232	1.763700E+01	  0.077114232	1.224800E+01
287	  0.077314630	-5.969000E+00	  0.077314630	1.481240E+02	  0.077314630	1.772500E+01	  0.077314630	1.260400E+01
288	  0.077515028	-5.974000E+00	  0.077515028	1.472890E+02	  0.077515028	1.780500E+01	  0.077515028	1.294400E+01
289	  0.077715434	-5.982000E+00	  0.077715434	1.463860E+02	  0.077715434	1.790000E+01	  0.077715434	1.331000E+01
290	  0.077915832	-5.989000E+00	  0.077915832	1.455040E+02	  0.077915832	1.799300E+01	  0.077915832	1.367000E+01
291	  0.078116231	-5.995000E+00	  0.078116231	1.446280E+02	  0.078116231	1.808700E+01	  0.078116231	1.402800E+01
292	  0.078316636	-6.002000E+00	  0.078316636	1.437470E+02	  0.078316636	1.818500E+01	  0.078316636	1.438800E+01
293	  0.078517035	-6.007000E+00	  0.078517035	1.428680E+02	  0.078517035	1.828200E+01	  0.078517035	1.475000E+01
294	  0.078717433	-6.018000E+00	  0.078717433	1.419950E+02	  0.078717433	1.839400E+01	  0.078717433	1.510700E+01
295	  0.078917839	-6.025000E+00	  0.078917839	1.411350E+02	  0.078917839	1.850000E+01	  0.078917839	1.546200E+01
296	  0.079118237	-6.035000E+00	  0.079118237	1.402780E+02	  0.079118237	1.861200E+01	  0.079118237	1.581400E+01
297	  0.079318643	-6.043000E+00	  0.079318643	1.394040E+02	  0.079318643	1.872600E+01	  0.079318643	1.617600E+01
298	  0.079519041	-6.049000E+00	  0.079519041	1.385650E+02	  0.079519041	1.883200E+01	  0.079519041	1.652500E+01
299	  0.079719439	-6.056000E+00	  0.079719439	1.377160E+02	  0.079719439	1.894700E+01	  0.079719439	1.687900E+01
300	  0.079919845	-6.068000E+00	  0.079919845	1.368490E+02	  0.079919845	1.907800E+01	  0.079919845	1.723800E+01
301	  0.080120243	-6.077000E+00	  0.080120243	1.359640E+02	  0.080120243	1.920500E+01	  0.080120243	1.760700E+01
302	  0.080320641	-6.085000E+00	  0.080320641	1.351050E+02	  0.080320641	1.933100E+01	  0.080320641	1.796700E+01
303	  0.080521047	-6.099000E+00	  0.080521047	1.342740E+02	  0.080521047	1.947200E+01	  0.080521047	1.831200E+01
304	  0.080721445	-6.108000E+00	  0.080721445	1.334030E+02	  0.080721445	1.960900E+01	  0.080721445	1.867800E+01
305	  0.080921844	-6.119000E+00	  0.080921844	1.325690E+02	  0.080921844	1.974800E+01	  0.080921844	1.902800E+01
306	  0.081122249	-6.126000E+00	  0.081122249	1.317350E+02	  0.081122249	1.987900E+01	  0.081122249	1.938200E+01
307	  0.081322648	-6.139000E+00	  0.081322648	1.308990E+02	  0.081322648	2.002800E+01	  0.081322648	1.973400E+01
308	  0.081523046	-6.148000E+00	  0.081523046	1.300400E+02	  0.081523046	2.017500E+01	  0.081523046	2.009900E+01
309	  0.081723452	-6.157000E+00	  0.081723452	1.292240E+02	  0.081723452	2.031800E+01	  0.081723452	2.044600E+01
310	  0.081923850	-6.165000E+00	  0.081923850	1.283650E+02	  0.081923850	2.046600E+01	  0.081923850	2.081500E+01
311	  0.082124248	-6.177000E+00	  0.082124248	1.275660E+02	  0.082124248	2.062300E+01	  0.082124248	2.115400E+01
312	  0.082324654	-6.188000E+00	  0.082324654	1.267300E+02	  0.082324654	2.078200E+01	  0.082324654	2.151200E+01
313	  0.082525052	-6.201000E+00	  0.082525052	1.259110E+02	  0.082525052	2.095000E+01	  0.082525052	2.186100E+01
314	  0.082725458	-6.214000E+00	  0.082725458	1.251140E+02	  0.082725458	2.111800E+01	  0.082725458	2.220100E+01
315	  0.082925856	-6.228000E+00	  0.082925856	1.243170E+02	  0.082925856	2.128900E+01	  0.082925856	2.254000E+01
316	  0.083126254	-6.242000E+00	  0.083126254	1.234930E+02	  0.083126254	2.147100E+01	  0.083126254	2.289300E+01
317	  0.083326660	-6.250000E+00	  0.083326660	1.226640E+02	  0.083326660	2.163700E+01	  0.083326660	2.325500E+01
318	  0.083527058	-6.268000E+00	  0.083527058	1.218660E+02	  0.083527058	2.183400E+01	  0.083527058	2.359300E+01
319	  0.083727457	-6.282000E+00	  0.083727457	1.210610E+02	  0.083727457	2.202300E+01	  0.083727457	2.393800E+01
320	  0.083927862	-6.296000E+00	  0.083927862	1.202310E+02	  0.083927862	2.221700E+01	  0.083927862	2.429800E+01
321	  0.084128261	-6.307000E+00	  0.084128261	1.194290E+02	  0.084128261	2.240400E+01	  0.084128261	2.464800E+01
322	  0.084328659	-6.326000E+00	  0.084328659	1.186470E+02	  0.084328659	2.261300E+01	  0.084328659	2.497900E+01
323	  0.084529065	-6.344000E+00	  0.084529065	1.178620E+02	  0.084529065	2.282600E+01	  0.084529065	2.531300E+01
324	  0.084729463	-6.360000E+00	  0.084729463	1.170360E+02	  0.084729463	2.304100E+01	  0.084729463	2.567100E+01
325	  0.084929854	-6.376000E+00	  0.084929854	1.162240E+02	  0.084929854	2.326100E+01	  0.084929854	2.602100E+01
326	  0.085130259	-6.391000E+00	  0.085130259	1.154130E+02	  0.085130259	2.347800E+01	  0.085130259	2.637400E+01
327	  0.085330658	-6.406000E+00	  0.085330658	1.146120E+02	  0.085330658	2.370100E+01	  0.085330658	2.672200E+01
328	  0.085531056	-6.426000E+00	  0.085531056	1.138040E+02	  0.085531056	2.394000E+01	  0.085531056	2.706800E+01
329	  0.085731462	-6.445000E+00	  0.085731462	1.130160E+02	  0.085731462	2.418100E+01	  0.085731462	2.740400E+01
330	  0.085931860	-6.464000E+00	  0.085931860	1.122080E+02	  0.085931860	2.442600E+01	  0.085931860	2.775300E+01
331	  0.086132258	-6.481000E+00	  0.086132258	1.114180E+02	  0.086132258	2.466800E+01	  0.086132258	2.809500E+01
332	  0.086332664	-6.499000E+00	  0.086332664	1.106730E+02	  0.086332664	2.490800E+01	  0.086332664	2.841400E+01
333	  0.086533062	-6.515000E+00	  0.086533062	1.098440E+02	  0.086533062	2.516300E+01	  0.086533062	2.877800E+01
334	  0.086733460	-6.534000E+00	  0.086733460	1.090610E+02	  0.086733460	2.542200E+01	  0.086733460	2.911500E+01
335	  0.086933866	-6.557000E+00	  0.086933866	1.082680E+02	  0.086933866	2.570200E+01	  0.086933866	2.944800E+01
336	  0.087134264	-6.574000E+00	  0.087134264	1.074900E+02	  0.087134264	2.596100E+01	  0.087134264	2.978700E+01
337	  0.087334670	-6.595000E+00	  0.087334670	1.067030E+02	  0.087334670	2.624200E+01	  0.087334670	3.012200E+01
338	  0.087535068	-6.612000E+00	  0.087535068	1.059250E+02	  0.087535068	2.651200E+01	  0.087535068	3.046100E+01
339	  0.087735467	-6.638000E+00	  0.087735467	1.051770E+02	  0.087735467	2.680700E+01	  0.087735467	3.076800E+01
340	  0.087935872	-6.656000E+00	  0.087935872	1.043820E+02	  0.087935872	2.709600E+01	  0.087935872	3.111100E+01
341	  0.088136271	-6.678000E+00	  0.088136271	1.036320E+02	  0.088136271	2.738900E+01	  0.088136271	3.142600E+01
342	  0.088336669	-6.698000E+00	  0.088336669	1.028350E+02	  0.088336669	2.769400E+01	  0.088336669	3.176800E+01
343	  0.088537075	-6.718000E+00	  0.088537075	1.020760E+02	  0.088537075	2.799200E+01	  0.088537075	3.209000E+01
344	  0.088737473	-6.739000E+00	  0.088737473	1.013160E+02	  0.088737473	2.829900E+01	  0.088737473	3.241100E+01
345	  0.088937871	-6.759000E+00	  0.088937871	1.005440E+02	  0.088937871	2.861300E+01	  0.088937871	3.273900E+01
346	  0.089138277	-6.780000E+00	  0.089138277	9.977200E+01	  0.089138277	2.893500E+01	  0.089138277	3.306400E+01
347	  0.089338675	-6.805000E+00	  0.089338675	9.905400E+01	  0.089338675	2.925600E+01	  0.089338675	3.335400E+01
348	  0.089539073	-6.829000E+00	  0.089539073	9.829000E+01	  0.089539073	2.959400E+01	  0.089539073	3.366800E+01
349	  0.089739479	-6.858000E+00	  0.089739479	9.753400E+01	  0.089739479	2.995200E+01	  0.089739479	3.396500E+01
350	  0.089939877	-6.880000E+00	  0.089939877	9.678800E+01	  0.089939877	3.028900E+01	  0.089939877	3.427200E+01
351	  0.090140276	-6.907000E+00	  0.090140276	9.607200E+01	  0.090140276	3.063600E+01	  0.090140276	3.455100E+01
352	  0.090340681	-6.934000E+00	  0.090340681	9.531400E+01	  0.090340681	3.100400E+01	  0.090340681	3.484900E+01
353	  0.090541080	-6.963000E+00	  0.090541080	9.456900E+01	  0.090541080	3.138200E+01	  0.090541080	3.513300E+01
354	  0.090741485	-6.995000E+00	  0.090741485	9.381400E+01	  0.090741485	3.177500E+01	  0.090741485	3.541400E+01
355	  0.090941884	-7.025000E+00	  0.090941884	9.310200E+01	  0.090941884	3.215300E+01	  0.090941884	3.567600E+01
356	  0.091142282	-7.063000E+00	  0.091142282	9.236400E+01	  0.091142282	3.257000E+01	  0.091142282	3.592700E+01
357	  0.091342688	-7.094000E+00	  0.091342688	9.162300E+01	  0.091342688	3.297500E+01	  0.091342688	3.619300E+01
358	  0.091543086	-7.126000E+00	  0.091543086	9.090200E+01	  0.091543086	3.337700E+01	  0.091543086	3.644800E+01
359	  0.091743484	-7.163000E+00	  0.091743484	9.017700E+01	  0.091743484	3.380300E+01	  0.091743484	3.668700E+01
360	  0.091943890	-7.198000E+00	  0.091943890	8.944500E+01	  0.091943890	3.423300E+01	  0.091943890	3.693000E+01
361	  0.092144288	-7.230000E+00	  0.092144288	8.871000E+01	  0.092144288	3.466000E+01	  0.092144288	3.718000E+01
362	  0.092344686	-7.267000E+00	  0.092344686	8.800600E+01	  0.092344686	3.509300E+01	  0.092344686	3.739800E+01
363	  0.092545092	-7.302000E+00	  0.092545092	8.727000E+01	  0.092545092	3.554100E+01	  0.092545092	3.763300E+01
364	  0.092745490	-7.342000E+00	  0.092745490	8.659300E+01	  0.092745490	3.598100E+01	  0.092745490	3.782100E+01
365	  0.092945889	-7.380000E+00	  0.092945889	8.587500E+01	  0.092945889	3.644100E+01	  0.092945889	3.802900E+01
366	  0.093146294	-7.418000E+00	  0.093146294	8.517700E+01	  0.093146294	3.689400E+01	  0.093146294	3.822600E+01
367	  0.093346693	-7.455000E+00	  0.093346693	8.450000E+01	  0.093346693	3.734100E+01	  0.093346693	3.841100E+01
368	  0.093547091	-7.494000E+00	  0.093547091	8.383100E+01	  0.093547091	3.779300E+01	  0.093547091	3.858200E+01
369	  0.093747497	-7.530000E+00	  0.093747497	8.314400E+01	  0.093747497	3.825200E+01	  0.093747497	3.876600E+01
370	  0.093947895	-7.569000E+00	  0.093947895	8.245300E+01	  0.093947895	3.872700E+01	  0.093947895	3.893500E+01
371	  0.094148301	-7.608000E+00	  0.094148301	8.181800E+01	  0.094148301	3.917600E+01	  0.094148301	3.907700E+01
372	  0.094348699	-7.649000E+00	  0.094348699	8.112400E+01	  0.094348699	3.966600E+01	  0.094348699	3.923200E+01
373	  0.094549097	-7.691000E+00	  0.094549097	8.050700E+01	  0.094549097	4.012300E+01	  0.094549097	3.934400E+01
374	  0.094749503	-7.733000E+00	  0.094749503	7.986700E+01	  0.094749503	4.059600E+01	  0.094749503	3.946000E+01
375	  0.094949901	-7.769000E+00	  0.094949901	7.923200E+01	  0.094949901	4.105400E+01	  0.094949901	3.959100E+01
376	  0.095150299	-7.815000E+00	  0.095150299	7.859500E+01	  0.095150299	4.154200E+01	  0.095150299	3.968200E+01
377	  0.095350705	-7.847000E+00	  0.095350705	7.795900E+01	  0.095350705	4.199800E+01	  0.095350705	3.981700E+01
378	  0.095551103	-7.893000E+00	  0.095551103	7.735100E+01	  0.095551103	4.247600E+01	  0.095551103	3.988400E+01
379	  0.095751502	-7.928000E+00	  0.095751502	7.675800E+01	  0.095751502	4.292100E+01	  0.095751502	3.998100E+01
380	  0.095951907	-7.970000E+00	  0.095951907	7.615900E+01	  0.095951907	4.338900E+01	  0.095951907	4.005100E+01
381	  0.096152306	-8.016000E+00	  0.096152306	7.557100E+01	  0.096152306	4.386400E+01	  0.096152306	4.009200E+01
382	  0.096352704	-8.056000E+00	  0.096352704	7.500600E+01	  0.096352704	4.431300E+01	  0.096352704	4.014100E+01
383	  0.096553110	-8.097000E+00	  0.096553110	7.444500E+01	  0.096553110	4.476400E+01	  0.096553110	4.018200E+01
384	  0.096753508	-8.143000E+00	  0.096753508	7.388200E+01	  0.096753508	4.523100E+01	  0.096753508	4.019400E+01
385	  0.096953906	-8.184000E+00	  0.096953906	7.331800E+01	  0.096953906	4.568800E+01	  0.096953906	4.022200E+01
386	  0.097154312	-8.225000E+00	  0.097154312	7.279200E+01	  0.097154312	4.612200E+01	  0.097154312	4.023300E+01
387	  0.097354710	-8.272000E+00	  0.097354710	7.227500E+01	  0.097354710	4.656500E+01	  0.097354710	4.020900E+01
388	  0.097555116	-8.313000E+00	  0.097555116	7.173600E+01	  0.097555116	4.700900E+01	  0.097555116	4.021600E+01
389	  0.097755514	-8.362000E+00	  0.097755514	7.120200E+01	  0.097755514	4.746900E+01	  0.097755514	4.017700E+01
390	  0.097955912	-8.405000E+00	  0.097955912	7.071400E+01	  0.097955912	4.788600E+01	  0.097955912	4.014400E+01
391	  0.098156318	-8.448000E+00	  0.098156318	7.021600E+01	  0.098156318	4.831100E+01	  0.098156318	4.010700E+01
392	  0.098356716	-8.491000E+00	  0.098356716	6.973300E+01	  0.098356716	4.872600E+01	  0.098356716	4.006100E+01
393	  0.098557115	-8.537000E+00	  0.098557115	6.923400E+01	  0.098557115	4.915700E+01	  0.098557115	4.000500E+01
394	  0.098757520	-8.581000E+00	  0.098757520	6.872800E+01	  0.098757520	4.959000E+01	  0.098757520	3.995100E+01
395	  0.098957919	-8.630000E+00	  0.098957919	6.824300E+01	  0.098957919	5.001800E+01	  0.098957919	3.986100E+01
396	  0.099158317	-8.669000E+00	  0.099158317	6.778400E+01	  0.099158317	5.040800E+01	  0.099158317	3.980900E+01
397	  0.099358723	-8.712000E+00	  0.099358723	6.729900E+01	  0.099358723	5.082500E+01	  0.099358723	3.973500E+01
398	  0.099559121	-8.758000E+00	  0.099559121	6.684900E+01	  0.099559121	5.122100E+01	  0.099559121	3.963600E+01
399	  0.099759519	-8.799000E+00	  0.099759519	6.638400E+01	  0.099759519	5.161900E+01	  0.099759519	3.956200E+01
400	  0.099959925	-8.838000E+00	  0.099959925	6.591200E+01	  0.099959925	5.201800E+01	  0.099959925	3.949200E+01
401	  0.100160323	-8.882000E+00	  0.100160323	6.551800E+01	  0.100160323	5.236800E+01	  0.100160323	3.937600E+01
402	  0.100360721	-8.920000E+00	  0.100360721	6.507800E+01	  0.100360721	5.274200E+01	  0.100360721	3.929200E+01
403	  0.100561127	-8.964000E+00	  0.100561127	6.463500E+01	  0.100561127	5.312600E+01	  0.100561127	3.917700E+01
404	  0.100761525	-9.000000E+00	  0.100761525	6.420400E+01	  0.100761525	5.348900E+01	  0.100761525	3.909600E+01
405	  0.100961931	-9.048000E+00	  0.100961931	6.381500E+01	  0.100961931	5.383700E+01	  0.100961931	3.893900E+01
406	  0.101162329	-9.081000E+00	  0.101162329	6.340900E+01	  0.101162329	5.417500E+01	  0.101162329	3.886000E+01
407	  0.101362728	-9.114000E+00	  0.101362728	6.299400E+01	  0.101362728	5.452100E+01	  0.101362728	3.877600E+01
408	  0.101563133	-9.158000E+00	  0.101563133	6.266300E+01	  0.101563133	5.481700E+01	  0.101563133	3.862000E+01
409	  0.101763532	-9.184000E+00	  0.101763532	6.226700E+01	  0.101763532	5.514000E+01	  0.101763532	3.855600E+01
410	  0.101963930	-9.223000E+00	  0.101963930	6.186200E+01	  0.101963930	5.548200E+01	  0.101963930	3.843000E+01
411	  0.102164328	-9.254000E+00	  0.102164328	6.149000E+01	  0.102164328	5.579000E+01	  0.102164328	3.833800E+01
412	  0.102364726	-9.287000E+00	  0.102364726	6.111000E+01	  0.102364726	5.610700E+01	  0.102364726	3.822700E+01
413	  0.102565125	-9.317000E+00	  0.102565125	6.083200E+01	  0.102565125	5.634300E+01	  0.102565125	3.811700E+01
414	  0.102765530	-9.342000E+00	  0.102765530	6.045300E+01	  0.102765530	5.664900E+01	  0.102765530	3.804800E+01
415	  0.102965929	-9.378000E+00	  0.102965929	6.010200E+01	  0.102965929	5.694200E+01	  0.102965929	3.791300E+01
416	  0.103166327	-9.396000E+00	  0.103166327	5.980400E+01	  0.103166327	5.718100E+01	  0.103166327	3.785600E+01
417	  0.103366733	-9.427000E+00	  0.103366733	5.947900E+01	  0.103366733	5.745000E+01	  0.103366733	3.774100E+01
418	  0.103567131	-9.447000E+00	  0.103567131	5.913600E+01	  0.103567131	5.772400E+01	  0.103567131	3.767600E+01
419	  0.103767529	-9.478000E+00	  0.103767529	5.877100E+01	  0.103767529	5.802200E+01	  0.103767529	3.755400E+01
420	  0.103967935	-9.498000E+00	  0.103967935	5.847000E+01	  0.103967935	5.826300E+01	  0.103967935	3.748100E+01
421	  0.104168333	-9.519000E+00	  0.104168333	5.818700E+01	  0.104168333	5.849100E+01	  0.104168333	3.740300E+01
422	  0.104368731	-9.541000E+00	  0.104368731	5.784200E+01	  0.104368731	5.876700E+01	  0.104368731	3.731600E+01
423	  0.104569137	-9.552000E+00	  0.104569137	5.753200E+01	  0.104569137	5.901000E+01	  0.104569137	3.728700E+01
424	  0.104769535	-9.561000E+00	  0.104769535	5.727200E+01	  0.104769535	5.921300E+01	  0.104769535	3.725600E+01
425	  0.104969934	-9.584000E+00	  0.104969934	5.693500E+01	  0.104969934	5.948300E+01	  0.104969934	3.716100E+01
426	  0.105170339	-9.590000E+00	  0.105170339	5.666300E+01	  0.105170339	5.969500E+01	  0.105170339	3.714700E+01
427	  0.105370738	-9.610000E+00	  0.105370738	5.635500E+01	  0.105370738	5.994100E+01	  0.105370738	3.706200E+01
428	  0.105571143	-9.620000E+00	  0.105571143	5.604500E+01	  0.105571143	6.018500E+01	  0.105571143	3.702400E+01
429	  0.105771542	-9.634000E+00	  0.105771542	5.567300E+01	  0.105771542	6.047800E+01	  0.105771542	3.696800E+01
430	  0.105971940	-9.640000E+00	  0.105971940	5.536800E+01	  0.105971940	6.071800E+01	  0.105971940	3.694600E+01
431	  0.106172346	-9.652000E+00	  0.106172346	5.504700E+01	  0.106172346	6.097200E+01	  0.106172346	3.689200E+01
432	  0.106372744	-9.658000E+00	  0.106372744	5.466600E+01	  0.106372744	6.127200E+01	  0.106372744	3.687000E+01
433	  0.106573142	-9.655000E+00	  0.106573142	5.441500E+01	  0.106573142	6.147000E+01	  0.106573142	3.689100E+01
434	  0.106773548	-9.658000E+00	  0.106773548	5.405500E+01	  0.106773548	6.175700E+01	  0.106773548	3.688000E+01
435	  0.106973946	-9.664000E+00	  0.106973946	5.375600E+01	  0.106973946	6.199400E+01	  0.106973946	3.684700E+01
436	  0.107174344	-9.663000E+00	  0.107174344	5.341500E+01	  0.107174344	6.226700E+01	  0.107174344	3.685600E+01
437	  0.107374750	-9.658000E+00	  0.107374750	5.306900E+01	  0.107374750	6.254500E+01	  0.107374750	3.688000E+01
438	  0.107575148	-9.654000E+00	  0.107575148	5.270100E+01	  0.107575148	6.284200E+01	  0.107575148	3.689200E+01
439	  0.107775547	-9.647000E+00	  0.107775547	5.229800E+01	  0.107775547	6.317100E+01	  0.107775547	3.692300E+01
440	  0.107975952	-9.645000E+00	  0.107975952	5.192200E+01	  0.107975952	6.347800E+01	  0.107975952	3.692800E+01
441	  0.108176351	-9.632000E+00	  0.108176351	5.163100E+01	  0.108176351	6.371900E+01	  0.108176351	3.698600E+01
442	  0.108376749	-9.630000E+00	  0.108376749	5.120700E+01	  0.108376749	6.407000E+01	  0.108376749	3.698400E+01
443	  0.108577155	-9.611000E+00	  0.108577155	5.077800E+01	  0.108577155	6.443100E+01	  0.108577155	3.706600E+01
444	  0.108777553	-9.600000E+00	  0.108777553	5.040100E+01	  0.108777553	6.475100E+01	  0.108777553	3.710700E+01
445	  0.108977959	-9.596000E+00	  0.108977959	5.001000E+01	  0.108977959	6.508100E+01	  0.108977959	3.710500E+01
446	  0.109178357	-9.583000E+00	  0.109178357	4.959800E+01	  0.109178357	6.543500E+01	  0.109178357	3.715000E+01
447	  0.109378755	-9.561000E+00	  0.109378755	4.913600E+01	  0.109378755	6.583900E+01	  0.109378755	3.724100E+01
448	  0.109579161	-9.543000E+00	  0.109579161	4.869600E+01	  0.109579161	6.622700E+01	  0.109579161	3.730600E+01
449	  0.109779559	-9.537000E+00	  0.109779559	4.825700E+01	  0.109779559	6.661100E+01	  0.109779559	3.730400E+01
450	  0.109979957	-9.515000E+00	  0.109979957	4.780500E+01	  0.109979957	6.701800E+01	  0.109979957	3.738400E+01
451	  0.110180363	-9.497000E+00	  0.110180363	4.737000E+01	  0.110180363	6.741400E+01	  0.110180363	3.744200E+01
452	  0.110380761	-9.478000E+00	  0.110380761	4.688800E+01	  0.110380761	6.785400E+01	  0.110380761	3.749300E+01
453	  0.110581160	-9.463000E+00	  0.110581160	4.640800E+01	  0.110581160	6.829400E+01	  0.110581160	3.752000E+01
454	  0.110781565	-9.447000E+00	  0.110781565	4.586400E+01	  0.110781565	6.879800E+01	  0.110781565	3.754500E+01
455	  0.110981964	-9.428000E+00	  0.110981964	4.535900E+01	  0.110981964	6.927300E+01	  0.110981964	3.757900E+01
456	  0.111182362	-9.402000E+00	  0.111182362	4.483900E+01	  0.111182362	6.977600E+01	  0.111182362	3.765500E+01
457	  0.111382768	-9.392000E+00	  0.111382768	4.433000E+01	  0.111382768	7.025500E+01	  0.111382768	3.762500E+01
458	  0.111583166	-9.368000E+00	  0.111583166	4.375300E+01	  0.111583166	7.081900E+01	  0.111583166	3.766400E+01
459	  0.111783572	-9.352000E+00	  0.111783572	4.316700E+01	  0.111783572	7.138800E+01	  0.111783572	3.765000E+01
460	  0.111983970	-9.335000E+00	  0.111983970	4.257900E+01	  0.111983970	7.196600E+01	  0.111983970	3.762800E+01
461	  0.112184368	-9.316000E+00	  0.112184368	4.200300E+01	  0.112184368	7.254100E+01	  0.112184368	3.761800E+01
462	  0.112384774	-9.296000E+00	  0.112384774	4.135800E+01	  0.112384774	7.318900E+01	  0.112384774	3.758300E+01
463	  0.112585172	-9.280000E+00	  0.112585172	4.072000E+01	  0.112585172	7.383300E+01	  0.112585172	3.752300E+01
464	  0.112785570	-9.260000E+00	  0.112785570	4.008100E+01	  0.112785570	7.448900E+01	  0.112785570	3.746900E+01
465	  0.112985976	-9.242000E+00	  0.112985976	3.941700E+01	  0.112985976	7.517300E+01	  0.112985976	3.739100E+01
466	  0.113186374	-9.226000E+00	  0.113186374	3.876700E+01	  0.113186374	7.584700E+01	  0.113186374	3.729100E+01
467	  0.113386773	-9.212000E+00	  0.113386773	3.808500E+01	  0.113386773	7.655400E+01	  0.113386773	3.715400E+01
468	  0.113587178	-9.204000E+00	  0.113587178	3.739300E+01	  0.113587178	7.726000E+01	  0.113587178	3.695900E+01
469	  0.113787577	-9.179000E+00	  0.113787577	3.662900E+01	  0.113787577	7.808600E+01	  0.113787577	3.683300E+01
470	  0.113987975	-9.161000E+00	  0.113987975	3.590100E+01	  0.113987975	7.886800E+01	  0.113987975	3.666200E+01
471	  0.114188381	-9.149000E+00	  0.114188381	3.513200E+01	  0.114188381	7.968000E+01	  0.114188381	3.641500E+01
472	  0.114388779	-9.140000E+00	  0.114388779	3.436500E+01	  0.114388779	8.048400E+01	  0.114388779	3.612600E+01
473	  0.114589177	-9.127000E+00	  0.114589177	3.352900E+01	  0.114589177	8.137300E+01	  0.114589177	3.580700E+01
474	  0.114789583	-9.110000E+00	  0.114789583	3.273300E+01	  0.114789583	8.224200E+01	  0.114789583	3.551800E+01
475	  0.114989981	-9.105000E+00	  0.114989981	3.197100E+01	  0.114989981	8.303800E+01	  0.114989981	3.514400E+01
476	  0.115190387	-9.096000E+00	  0.115190387	3.106100E+01	  0.115190387	8.399500E+01	  0.115190387	3.468300E+01
477	  0.115390785	-9.082000E+00	  0.115390785	3.021500E+01	  0.115390785	8.491100E+01	  0.115390785	3.426800E+01
478	  0.115591183	-9.075000E+00	  0.115591183	2.932100E+01	  0.115591183	8.584600E+01	  0.115591183	3.374800E+01
479	  0.115791589	-9.062000E+00	  0.115791589	2.842700E+01	  0.115791589	8.681000E+01	  0.115791589	3.324200E+01
480	  0.115991987	-9.068000E+00	  0.115991987	2.756000E+01	  0.115991987	8.764800E+01	  0.115991987	3.258900E+01
481	  0.116192386	-9.058000E+00	  0.116192386	2.662500E+01	  0.116192386	8.862700E+01	  0.116192386	3.196700E+01
482	  0.116392791	-9.056000E+00	  0.116392791	2.573300E+01	  0.116392791	8.951400E+01	  0.116392791	3.128900E+01
483	  0.116593190	-9.063000E+00	  0.116593190	2.473500E+01	  0.116593190	9.044100E+01	  0.116593190	3.043300E+01
484	  0.116793588	-9.069000E+00	  0.116793588	2.378700E+01	  0.116793588	9.131500E+01	  0.116793588	2.959600E+01
485	  0.116993994	-9.068000E+00	  0.116993994	2.278200E+01	  0.116993994	9.225500E+01	  0.116993994	2.870700E+01
486	  0.117194392	-9.078000E+00	  0.117194392	2.180600E+01	  0.117194392	9.308800E+01	  0.117194392	2.774800E+01
487	  0.117394790	-9.076000E+00	  0.117394790	2.077000E+01	  0.117394790	9.401900E+01	  0.117394790	2.676100E+01
488	  0.117595196	-9.092000E+00	  0.117595196	1.977300E+01	  0.117595196	9.477800E+01	  0.117595196	2.567500E+01
489	  0.117795594	-9.103000E+00	  0.117795594	1.868300E+01	  0.117795594	9.561200E+01	  0.117795594	2.448700E+01
490	  0.117995992	-9.122000E+00	  0.117995992	1.762800E+01	  0.117995992	9.632500E+01	  0.117995992	2.325900E+01
491	  0.118196398	-9.140000E+00	  0.118196398	1.655400E+01	  0.118196398	9.701200E+01	  0.118196398	2.197900E+01
492	  0.118396796	-9.166000E+00	  0.118396796	1.542800E+01	  0.118396796	9.762500E+01	  0.118396796	2.057200E+01
493	  0.118597202	-9.185000E+00	  0.118597202	1.432000E+01	  0.118597202	9.823800E+01	  0.118597202	1.919500E+01
494	  0.118797600	-9.213000E+00	  0.118797600	1.313900E+01	  0.118797600	9.876200E+01	  0.118797600	1.766100E+01
