! Anritsu VNA Master:             	Model: MS2036C/10/77
! SN:             	1601066
! /bd0/18may09/254.ew.m1.txt
! Existing Calibration Information:
! TYPE:             	Current Settings	Active Cal Settings
! TIME:             	05/09/2018 10:11:22 AM	05/09/2018 10:08:40 AM
! INTERNAL TEMP:    	48.3 C	48.0 C
! # POINTS:         	500	500
! START FREQ:       	20.000 MHz	20.000 MHz
! STOP FREQ:        	120.000 MHz	120.000 MHz
! SOURCE POWER:     	High	High
! IFBW:             	50 Hz	50 Hz
! AVG FACTOR:       	  1 	  1 
! REF PLANE 1:      	0 mm	0 mm
! REF PLANE 2:      	0 mm	0 mm
! CAL TYPE:         	Full S11	Full S11
! CAL METHOD:       	SOLT	SOLT
! CAL LINE TYPE:    	Coax	Coax
! DUT PORT 1:       	K-Conn(F)	K-Conn(F)
! DUT PORT 2:       	K-Conn(F)	K-Conn(F)
! CAL STATUS:       	OK: Accuracy High	--
! PROP-V:       	0.700
! CABLE LOSS:       	0.000 dB/m
! REF IMPEDANCE:       	50.0
! Trace Specific Parameters:	TR1	TR2	TR3	TR4
! TRACE.#.Y (GRAPH TYPE)	LOG MAG	PHASE	REAL IMPEDANCE	IMAGINARY IMPEDANCE
! TRACE.#.X 	FREQ.GHZ	FREQ.GHZ	FREQ.GHZ	FREQ.GHZ
! S-PARAMETER	S11	S11	S11	S11
! SMOOTH/APERTURE %	0	0	0	0
! WINDOW	NSL	NSL	NSL	NSL
! GATING	OFF	OFF	OFF	OFF
! FGTD	OFF	OFF	OFF	OFF
Marker Information per Trace:	TR1	TR2	TR3	TR4
!MK1	--	"MK1 TR2:  20.000 MHz,PH:-125.14°"	--	--
!MK2	--	--	"MK2 TR3:  70.100 200 MHz,Z:(15.965 ohm, -3.291 ohm)"	--
!MK3	--	--	--	--
!MK4	--	--	--	--
!MK5	--	--	--	--
!MK6	--	--	--	--
!MK7	--	--	--	--
!MK8	--	--	--	--
PNT	TR1.FREQ.GHZ	TR1.LOG MAG.dB	TR2.FREQ.GHZ	TR2.PHASE.deg	TR3.FREQ.GHZ	TR3.REAL IMPEDANCE.ohm	TR4.FREQ.GHZ	TR4.IMAGINARY IMPEDANCE.ohm
1	  0.020000000	-6.060000E-01	  0.020000000	-1.251390E+02	  0.020000000	2.214000E+00	  0.020000000	-2.591100E+01
2	  0.020200402	-6.040000E-01	  0.020200402	-1.265930E+02	  0.020200402	2.177000E+00	  0.020200402	-2.511300E+01
3	  0.020400802	-6.040000E-01	  0.020400802	-1.280370E+02	  0.020400802	2.149000E+00	  0.020400802	-2.432900E+01
4	  0.020601204	-6.040000E-01	  0.020601204	-1.295090E+02	  0.020601204	2.124000E+00	  0.020601204	-2.354100E+01
5	  0.020801604	-6.070000E-01	  0.020801604	-1.309920E+02	  0.020801604	2.110000E+00	  0.020801604	-2.275600E+01
6	  0.021002004	-6.120000E-01	  0.021002004	-1.325040E+02	  0.021002004	2.104000E+00	  0.021002004	-2.196500E+01
7	  0.021202406	-6.180000E-01	  0.021202406	-1.340370E+02	  0.021202406	2.099000E+00	  0.021202406	-2.117200E+01
8	  0.021402806	-6.240000E-01	  0.021402806	-1.355680E+02	  0.021402806	2.097000E+00	  0.021402806	-2.038900E+01
9	  0.021603208	-6.250000E-01	  0.021603208	-1.370980E+02	  0.021603208	2.076000E+00	  0.021603208	-1.961600E+01
10	  0.021803608	-6.300000E-01	  0.021803608	-1.386280E+02	  0.021803608	2.071000E+00	  0.021803608	-1.885000E+01
11	  0.022004008	-6.340000E-01	  0.022004008	-1.401720E+02	  0.022004008	2.064000E+00	  0.022004008	-1.808600E+01
12	  0.022204408	-6.420000E-01	  0.022204408	-1.417200E+02	  0.022204408	2.071000E+00	  0.022204408	-1.732600E+01
13	  0.022404809	-6.460000E-01	  0.022404809	-1.432870E+02	  0.022404809	2.064000E+00	  0.022404809	-1.656400E+01
14	  0.022605211	-6.500000E-01	  0.022605211	-1.448850E+02	  0.022605211	2.057000E+00	  0.022605211	-1.579500E+01
15	  0.022805611	-6.530000E-01	  0.022805611	-1.464700E+02	  0.022805611	2.049000E+00	  0.022805611	-1.503900E+01
16	  0.023006011	-6.550000E-01	  0.023006011	-1.480560E+02	  0.023006011	2.040000E+00	  0.023006011	-1.428800E+01
17	  0.023206413	-6.560000E-01	  0.023206413	-1.496410E+02	  0.023206413	2.027000E+00	  0.023206413	-1.354400E+01
18	  0.023406813	-6.580000E-01	  0.023406813	-1.512230E+02	  0.023406813	2.019000E+00	  0.023406813	-1.280700E+01
19	  0.023607215	-6.650000E-01	  0.023607215	-1.528100E+02	  0.023607215	2.027000E+00	  0.023607215	-1.207200E+01
20	  0.023807615	-6.710000E-01	  0.023807615	-1.544130E+02	  0.023807615	2.030000E+00	  0.023807615	-1.133500E+01
21	  0.024008015	-6.790000E-01	  0.024008015	-1.560300E+02	  0.024008015	2.042000E+00	  0.024008015	-1.059700E+01
22	  0.024208417	-6.880000E-01	  0.024208417	-1.576740E+02	  0.024208417	2.056000E+00	  0.024208417	-9.850000E+00
23	  0.024408817	-6.950000E-01	  0.024408817	-1.593150E+02	  0.024408817	2.067000E+00	  0.024408817	-9.109000E+00
24	  0.024609219	-7.010000E-01	  0.024609219	-1.609580E+02	  0.024609219	2.075000E+00	  0.024609219	-8.371000E+00
25	  0.024809619	-7.100000E-01	  0.024809619	-1.626150E+02	  0.024809619	2.091000E+00	  0.024809619	-7.631000E+00
26	  0.025010020	-7.180000E-01	  0.025010020	-1.642550E+02	  0.025010020	2.106000E+00	  0.025010020	-6.901000E+00
27	  0.025210422	-7.290000E-01	  0.025210422	-1.659220E+02	  0.025210422	2.129000E+00	  0.025210422	-6.162000E+00
28	  0.025410822	-7.400000E-01	  0.025410822	-1.675920E+02	  0.025410822	2.155000E+00	  0.025410822	-5.424000E+00
29	  0.025611224	-7.520000E-01	  0.025611224	-1.692910E+02	  0.025611224	2.184000E+00	  0.025611224	-4.677000E+00
30	  0.025811624	-7.630000E-01	  0.025811624	-1.710040E+02	  0.025811624	2.209000E+00	  0.025811624	-3.925000E+00
31	  0.026012026	-7.710000E-01	  0.026012026	-1.727300E+02	  0.026012026	2.228000E+00	  0.026012026	-3.169000E+00
32	  0.026212426	-7.800000E-01	  0.026212426	-1.744450E+02	  0.026212426	2.249000E+00	  0.026212426	-2.420000E+00
33	  0.026412826	-7.930000E-01	  0.026412826	-1.761680E+02	  0.026412826	2.284000E+00	  0.026412826	-1.668000E+00
34	  0.026613226	-8.050000E-01	  0.026613226	-1.779020E+02	  0.026613226	2.318000E+00	  0.026613226	-9.130000E-01
35	  0.026813626	-8.180000E-01	  0.026813626	-1.796590E+02	  0.026813626	2.354000E+00	  0.026813626	-1.480000E-01
36	  0.027014028	-8.340000E-01	  0.027014028	1.785800E+02	  0.027014028	2.400000E+00	  0.027014028	6.170000E-01
37	  0.027214428	-8.480000E-01	  0.027214428	1.768110E+02	  0.027214428	2.440000E+00	  0.027214428	1.388000E+00
38	  0.027414829	-8.620000E-01	  0.027414829	1.750230E+02	  0.027414829	2.486000E+00	  0.027414829	2.167000E+00
39	  0.027615231	-8.770000E-01	  0.027615231	1.732280E+02	  0.027615231	2.531000E+00	  0.027615231	2.950000E+00
40	  0.027815631	-8.940000E-01	  0.027815631	1.714290E+02	  0.027815631	2.587000E+00	  0.027815631	3.736000E+00
41	  0.028016033	-9.140000E-01	  0.028016033	1.696060E+02	  0.028016033	2.650000E+00	  0.028016033	4.534000E+00
42	  0.028216433	-9.340000E-01	  0.028216433	1.677800E+02	  0.028216433	2.718000E+00	  0.028216433	5.336000E+00
43	  0.028416833	-9.530000E-01	  0.028416833	1.659450E+02	  0.028416833	2.783000E+00	  0.028416833	6.144000E+00
44	  0.028617235	-9.710000E-01	  0.028617235	1.641180E+02	  0.028617235	2.847000E+00	  0.028617235	6.952000E+00
45	  0.028817635	-9.880000E-01	  0.028817635	1.622810E+02	  0.028817635	2.912000E+00	  0.028817635	7.767000E+00
46	  0.029018037	-1.007000E+00	  0.029018037	1.604500E+02	  0.029018037	2.982000E+00	  0.029018037	8.583000E+00
47	  0.029218437	-1.027000E+00	  0.029218437	1.586300E+02	  0.029218437	3.057000E+00	  0.029218437	9.399000E+00
48	  0.029418837	-1.047000E+00	  0.029418837	1.568010E+02	  0.029418837	3.137000E+00	  0.029418837	1.022400E+01
49	  0.029619239	-1.071000E+00	  0.029619239	1.549560E+02	  0.029619239	3.232000E+00	  0.029619239	1.106000E+01
50	  0.029819639	-1.099000E+00	  0.029819639	1.530850E+02	  0.029819639	3.340000E+00	  0.029819639	1.191300E+01
51	  0.030020041	-1.128000E+00	  0.030020041	1.511910E+02	  0.030020041	3.456000E+00	  0.030020041	1.278400E+01
52	  0.030220442	-1.156000E+00	  0.030220442	1.492610E+02	  0.030220442	3.572000E+00	  0.030220442	1.367800E+01
53	  0.030420844	-1.182000E+00	  0.030420844	1.473340E+02	  0.030420844	3.687000E+00	  0.030420844	1.457800E+01
54	  0.030621244	-1.212000E+00	  0.030621244	1.454260E+02	  0.030621244	3.818000E+00	  0.030621244	1.547700E+01
55	  0.030821644	-1.241000E+00	  0.030821644	1.435190E+02	  0.030821644	3.953000E+00	  0.030821644	1.638400E+01
56	  0.031022044	-1.273000E+00	  0.031022044	1.415960E+02	  0.031022044	4.101000E+00	  0.031022044	1.730800E+01
57	  0.031222444	-1.302000E+00	  0.031222444	1.396640E+02	  0.031222444	4.243000E+00	  0.031222444	1.824700E+01
58	  0.031422846	-1.338000E+00	  0.031422846	1.376890E+02	  0.031422846	4.415000E+00	  0.031422846	1.921700E+01
59	  0.031623244	-1.371000E+00	  0.031623244	1.357010E+02	  0.031623244	4.586000E+00	  0.031623244	2.020500E+01
60	  0.031823646	-1.404000E+00	  0.031823646	1.337090E+02	  0.031823646	4.765000E+00	  0.031823646	2.120800E+01
61	  0.032024048	-1.435000E+00	  0.032024048	1.317080E+02	  0.032024048	4.945000E+00	  0.032024048	2.223100E+01
62	  0.032224450	-1.467000E+00	  0.032224450	1.297230E+02	  0.032224450	5.133000E+00	  0.032224450	2.325900E+01
63	  0.032424849	-1.498000E+00	  0.032424849	1.277420E+02	  0.032424849	5.327000E+00	  0.032424849	2.430100E+01
64	  0.032625251	-1.529000E+00	  0.032625251	1.257790E+02	  0.032625251	5.529000E+00	  0.032625251	2.534900E+01
65	  0.032825653	-1.563000E+00	  0.032825653	1.238010E+02	  0.032825653	5.754000E+00	  0.032825653	2.642000E+01
66	  0.033026051	-1.603000E+00	  0.033026051	1.218280E+02	  0.033026051	6.009000E+00	  0.033026051	2.750500E+01
67	  0.033226453	-1.643000E+00	  0.033226453	1.198450E+02	  0.033226453	6.281000E+00	  0.033226453	2.861400E+01
68	  0.033426855	-1.690000E+00	  0.033426855	1.178620E+02	  0.033426855	6.587000E+00	  0.033426855	2.973900E+01
69	  0.033627257	-1.738000E+00	  0.033627257	1.158480E+02	  0.033627257	6.919000E+00	  0.033627257	3.090300E+01
70	  0.033827655	-1.786000E+00	  0.033827655	1.138130E+02	  0.033827655	7.269000E+00	  0.033827655	3.210000E+01
71	  0.034028057	-1.834000E+00	  0.034028057	1.117250E+02	  0.034028057	7.640000E+00	  0.034028057	3.335400E+01
72	  0.034228459	-1.878000E+00	  0.034228459	1.096160E+02	  0.034228459	8.017000E+00	  0.034228459	3.465100E+01
73	  0.034428857	-1.925000E+00	  0.034428857	1.075060E+02	  0.034428857	8.429000E+00	  0.034428857	3.597500E+01
74	  0.034629259	-1.969000E+00	  0.034629259	1.053610E+02	  0.034629259	8.859000E+00	  0.034629259	3.735300E+01
75	  0.034829661	-2.011000E+00	  0.034829661	1.032500E+02	  0.034829661	9.298000E+00	  0.034829661	3.874500E+01
76	  0.035030060	-2.050000E+00	  0.035030060	1.011350E+02	  0.035030060	9.758000E+00	  0.035030060	4.017400E+01
77	  0.035230462	-2.090000E+00	  0.035230462	9.902100E+01	  0.035230462	1.024700E+01	  0.035230462	4.163900E+01
78	  0.035430863	-2.131000E+00	  0.035430863	9.693700E+01	  0.035430863	1.076800E+01	  0.035430863	4.312000E+01
79	  0.035631265	-2.171000E+00	  0.035631265	9.485800E+01	  0.035631265	1.131400E+01	  0.035631265	4.463700E+01
80	  0.035831664	-2.209000E+00	  0.035831664	9.278600E+01	  0.035831664	1.189100E+01	  0.035831664	4.619200E+01
81	  0.036032066	-2.251000E+00	  0.036032066	9.072400E+01	  0.036032066	1.252600E+01	  0.036032066	4.777600E+01
82	  0.036232468	-2.295000E+00	  0.036232468	8.868100E+01	  0.036232468	1.320700E+01	  0.036232468	4.938800E+01
83	  0.036432866	-2.343000E+00	  0.036432866	8.664900E+01	  0.036432866	1.395900E+01	  0.036432866	5.102800E+01
84	  0.036633268	-2.393000E+00	  0.036633268	8.459900E+01	  0.036633268	1.477600E+01	  0.036633268	5.272600E+01
85	  0.036833670	-2.446000E+00	  0.036833670	8.257900E+01	  0.036833670	1.566900E+01	  0.036833670	5.443700E+01
86	  0.037034072	-2.503000E+00	  0.037034072	8.051700E+01	  0.037034072	1.666100E+01	  0.037034072	5.622800E+01
87	  0.037234470	-2.562000E+00	  0.037234470	7.846500E+01	  0.037234470	1.773200E+01	  0.037234470	5.805400E+01
88	  0.037434869	-2.619000E+00	  0.037434869	7.635800E+01	  0.037434869	1.890200E+01	  0.037434869	5.998700E+01
89	  0.037635271	-2.673000E+00	  0.037635271	7.425100E+01	  0.037635271	2.014000E+01	  0.037635271	6.198600E+01
90	  0.037835669	-2.731000E+00	  0.037835669	7.209500E+01	  0.037835669	2.153000E+01	  0.037835669	6.408400E+01
91	  0.038036071	-2.792000E+00	  0.038036071	6.993900E+01	  0.038036071	2.306200E+01	  0.038036071	6.623200E+01
92	  0.038236473	-2.851000E+00	  0.038236473	6.780600E+01	  0.038236473	2.469500E+01	  0.038236473	6.842100E+01
93	  0.038436871	-2.903000E+00	  0.038436871	6.565700E+01	  0.038436871	2.642900E+01	  0.038436871	7.071600E+01
94	  0.038637273	-2.954000E+00	  0.038637273	6.354800E+01	  0.038637273	2.828400E+01	  0.038637273	7.303000E+01
95	  0.038837675	-2.997000E+00	  0.038837675	6.144100E+01	  0.038837675	3.023800E+01	  0.038837675	7.544500E+01
96	  0.039038073	-3.043000E+00	  0.039038073	5.938700E+01	  0.039038073	3.234200E+01	  0.039038073	7.784600E+01
97	  0.039238475	-3.088000E+00	  0.039238475	5.734500E+01	  0.039238475	3.463000E+01	  0.039238475	8.028700E+01
98	  0.039438877	-3.136000E+00	  0.039438877	5.532900E+01	  0.039438877	3.711900E+01	  0.039438877	8.273100E+01
99	  0.039639279	-3.186000E+00	  0.039639279	5.333000E+01	  0.039639279	3.984100E+01	  0.039639279	8.517100E+01
100	  0.039839678	-3.243000E+00	  0.039839678	5.131600E+01	  0.039839678	4.288700E+01	  0.039839678	8.760800E+01
101	  0.040040080	-3.301000E+00	  0.040040080	4.927000E+01	  0.040040080	4.628100E+01	  0.040040080	9.007700E+01
102	  0.040240481	-3.359000E+00	  0.040240481	4.723100E+01	  0.040240481	4.997400E+01	  0.040240481	9.252800E+01
103	  0.040440880	-3.419000E+00	  0.040440880	4.516700E+01	  0.040440880	5.408400E+01	  0.040440880	9.493900E+01
104	  0.040641282	-3.474000E+00	  0.040641282	4.310700E+01	  0.040641282	5.850900E+01	  0.040641282	9.734800E+01
105	  0.040841684	-3.533000E+00	  0.040841684	4.103300E+01	  0.040841684	6.343300E+01	  0.040841684	9.960400E+01
106	  0.041042086	-3.587000E+00	  0.041042086	3.900300E+01	  0.041042086	6.865500E+01	  0.041042086	1.017130E+02
107	  0.041242484	-3.640000E+00	  0.041242484	3.692700E+01	  0.041242484	7.446900E+01	  0.041242484	1.036800E+02
108	  0.041442886	-3.694000E+00	  0.041442886	3.487300E+01	  0.041442886	8.073800E+01	  0.041442886	1.053360E+02
109	  0.041643288	-3.745000E+00	  0.041643288	3.278800E+01	  0.041643288	8.763100E+01	  0.041643288	1.067020E+02
110	  0.041843686	-3.793000E+00	  0.041843686	3.074700E+01	  0.041843686	9.490900E+01	  0.041843686	1.076420E+02
111	  0.042044088	-3.842000E+00	  0.042044088	2.870300E+01	  0.042044088	1.027610E+02	  0.042044088	1.080030E+02
112	  0.042244490	-3.890000E+00	  0.042244490	2.667300E+01	  0.042244490	1.110810E+02	  0.042244490	1.076910E+02
113	  0.042444889	-3.936000E+00	  0.042444889	2.467500E+01	  0.042444889	1.197460E+02	  0.042444889	1.066150E+02
114	  0.042645290	-3.983000E+00	  0.042645290	2.266600E+01	  0.042645290	1.288590E+02	  0.042645290	1.045660E+02
115	  0.042845692	-4.031000E+00	  0.042845692	2.068000E+01	  0.042845692	1.381390E+02	  0.042845692	1.014390E+02
116	  0.043046094	-4.077000E+00	  0.043046094	1.867900E+01	  0.043046094	1.476270E+02	  0.043046094	9.712100E+01
117	  0.043246493	-4.124000E+00	  0.043246493	1.669000E+01	  0.043246493	1.569750E+02	  0.043246493	9.147200E+01
118	  0.043446895	-4.169000E+00	  0.043446895	1.469400E+01	  0.043446895	1.660530E+02	  0.043446895	8.446200E+01
119	  0.043647297	-4.213000E+00	  0.043647297	1.271300E+01	  0.043647297	1.745120E+02	  0.043647297	7.615200E+01
120	  0.043847695	-4.259000E+00	  0.043847695	1.073900E+01	  0.043847695	1.820050E+02	  0.043847695	6.646700E+01
121	  0.044048097	-4.306000E+00	  0.044048097	8.786000E+00	  0.044048097	1.881940E+02	  0.044048097	5.566600E+01
122	  0.044248499	-4.353000E+00	  0.044248499	6.816000E+00	  0.044248499	1.930190E+02	  0.044248499	4.384200E+01
123	  0.044448901	-4.399000E+00	  0.044448901	4.887000E+00	  0.044448901	1.961850E+02	  0.044448901	3.163000E+01
124	  0.044649299	-4.443000E+00	  0.044649299	2.946000E+00	  0.044649299	1.977610E+02	  0.044649299	1.903200E+01
125	  0.044849701	-4.485000E+00	  0.044849701	1.013000E+00	  0.044849701	1.977210E+02	  0.044849701	6.483000E+00
126	  0.045050103	-4.522000E+00	  0.045050103	-9.020000E-01	  0.045050103	1.961920E+02	  0.045050103	-5.674000E+00
127	  0.045250501	-4.562000E+00	  0.045250501	-2.827000E+00	  0.045250501	1.930820E+02	  0.045250501	-1.732800E+01
128	  0.045450903	-4.599000E+00	  0.045450903	-4.720000E+00	  0.045450903	1.887610E+02	  0.045450903	-2.800700E+01
129	  0.045651305	-4.640000E+00	  0.045651305	-6.587000E+00	  0.045651305	1.833310E+02	  0.045651305	-3.755300E+01
130	  0.045851704	-4.680000E+00	  0.045851704	-8.462000E+00	  0.045851704	1.770960E+02	  0.045851704	-4.610800E+01
131	  0.046052106	-4.717000E+00	  0.046052106	-1.032100E+01	  0.046052106	1.703780E+02	  0.046052106	-5.353100E+01
132	  0.046252504	-4.756000E+00	  0.046252504	-1.216000E+01	  0.046252504	1.633090E+02	  0.046252504	-5.978300E+01
133	  0.046452906	-4.793000E+00	  0.046452906	-1.400100E+01	  0.046452906	1.560880E+02	  0.046452906	-6.508100E+01
134	  0.046653304	-4.828000E+00	  0.046653304	-1.586400E+01	  0.046653304	1.487620E+02	  0.046653304	-6.952000E+01
135	  0.046853706	-4.859000E+00	  0.046853706	-1.768700E+01	  0.046853706	1.416770E+02	  0.046853706	-7.305800E+01
136	  0.047054108	-4.893000E+00	  0.047054108	-1.950400E+01	  0.047054108	1.347270E+02	  0.047054108	-7.577700E+01
137	  0.047254506	-4.924000E+00	  0.047254506	-2.130100E+01	  0.047254506	1.280740E+02	  0.047254506	-7.782500E+01
138	  0.047454908	-4.953000E+00	  0.047454908	-2.310300E+01	  0.047454908	1.216680E+02	  0.047454908	-7.933600E+01
139	  0.047655310	-4.983000E+00	  0.047655310	-2.488800E+01	  0.047655310	1.155890E+02	  0.047655310	-8.031100E+01
140	  0.047855709	-5.010000E+00	  0.047855709	-2.661700E+01	  0.047855709	1.099870E+02	  0.047855709	-8.087200E+01
141	  0.048056111	-5.039000E+00	  0.048056111	-2.835100E+01	  0.048056111	1.046450E+02	  0.048056111	-8.102500E+01
142	  0.048256513	-5.072000E+00	  0.048256513	-3.008700E+01	  0.048256513	9.958300E+01	  0.048256513	-8.081100E+01
143	  0.048456915	-5.100000E+00	  0.048456915	-3.182100E+01	  0.048456915	9.482600E+01	  0.048456915	-8.044100E+01
144	  0.048657313	-5.130000E+00	  0.048657313	-3.354800E+01	  0.048657313	9.036400E+01	  0.048657313	-7.983200E+01
145	  0.048857715	-5.152000E+00	  0.048857715	-3.527400E+01	  0.048857715	8.616400E+01	  0.048857715	-7.916300E+01
146	  0.049058117	-5.180000E+00	  0.049058117	-3.699000E+01	  0.049058117	8.224800E+01	  0.049058117	-7.824700E+01
147	  0.049258515	-5.202000E+00	  0.049258515	-3.867400E+01	  0.049258515	7.862200E+01	  0.049258515	-7.731700E+01
148	  0.049458917	-5.228000E+00	  0.049458917	-4.037600E+01	  0.049458917	7.518700E+01	  0.049458917	-7.623400E+01
149	  0.049659319	-5.251000E+00	  0.049659319	-4.205400E+01	  0.049659319	7.200100E+01	  0.049659319	-7.511200E+01
150	  0.049859721	-5.273000E+00	  0.049859721	-4.372700E+01	  0.049859721	6.901200E+01	  0.049859721	-7.394000E+01
151	  0.050060119	-5.298000E+00	  0.050060119	-4.538800E+01	  0.050060119	6.623100E+01	  0.050060119	-7.270500E+01
152	  0.050260521	-5.316000E+00	  0.050260521	-4.708300E+01	  0.050260521	6.353800E+01	  0.050260521	-7.147000E+01
153	  0.050460923	-5.337000E+00	  0.050460923	-4.874000E+01	  0.050460923	6.107100E+01	  0.050460923	-7.021200E+01
154	  0.050661322	-5.352000E+00	  0.050661322	-5.039900E+01	  0.050661322	5.872400E+01	  0.050661322	-6.897700E+01
155	  0.050861724	-5.366000E+00	  0.050861724	-5.203800E+01	  0.050861724	5.653500E+01	  0.050861724	-6.774400E+01
156	  0.051062126	-5.380000E+00	  0.051062126	-5.365400E+01	  0.051062126	5.449300E+01	  0.051062126	-6.652100E+01
157	  0.051262524	-5.395000E+00	  0.051262524	-5.522800E+01	  0.051262524	5.262200E+01	  0.051262524	-6.530700E+01
158	  0.051462926	-5.407000E+00	  0.051462926	-5.678500E+01	  0.051462926	5.085800E+01	  0.051462926	-6.412400E+01
159	  0.051663328	-5.418000E+00	  0.051663328	-5.833100E+01	  0.051663328	4.919500E+01	  0.051663328	-6.295200E+01
160	  0.051863730	-5.433000E+00	  0.051863730	-5.985500E+01	  0.051863730	4.765600E+01	  0.051863730	-6.177700E+01
161	  0.052064128	-5.448000E+00	  0.052064128	-6.140300E+01	  0.052064128	4.617500E+01	  0.052064128	-6.058300E+01
162	  0.052264530	-5.465000E+00	  0.052264530	-6.292200E+01	  0.052264530	4.480600E+01	  0.052264530	-5.941000E+01
163	  0.052464932	-5.479000E+00	  0.052464932	-6.443800E+01	  0.052464932	4.349900E+01	  0.052464932	-5.826200E+01
164	  0.052665330	-5.496000E+00	  0.052665330	-6.598700E+01	  0.052665330	4.224100E+01	  0.052665330	-5.708500E+01
165	  0.052865732	-5.509000E+00	  0.052865732	-6.751800E+01	  0.052865732	4.104400E+01	  0.052865732	-5.595500E+01
166	  0.053066134	-5.523000E+00	  0.053066134	-6.902800E+01	  0.053066134	3.992200E+01	  0.053066134	-5.485000E+01
167	  0.053266536	-5.537000E+00	  0.053266536	-7.054500E+01	  0.053266536	3.885100E+01	  0.053266536	-5.375000E+01
168	  0.053466935	-5.545000E+00	  0.053466935	-7.203200E+01	  0.053466935	3.783000E+01	  0.053466935	-5.270700E+01
169	  0.053667337	-5.551000E+00	  0.053667337	-7.355700E+01	  0.053667337	3.682000E+01	  0.053667337	-5.166100E+01
170	  0.053867739	-5.558000E+00	  0.053867739	-7.504000E+01	  0.053867739	3.588800E+01	  0.053867739	-5.064900E+01
171	  0.054068137	-5.561000E+00	  0.054068137	-7.653100E+01	  0.054068137	3.497600E+01	  0.054068137	-4.965800E+01
172	  0.054268539	-5.565000E+00	  0.054268539	-7.799000E+01	  0.054268539	3.412800E+01	  0.054268539	-4.869400E+01
173	  0.054468941	-5.569000E+00	  0.054468941	-7.940500E+01	  0.054468941	3.334100E+01	  0.054468941	-4.776700E+01
174	  0.054669339	-5.573000E+00	  0.054669339	-8.085400E+01	  0.054669339	3.256700E+01	  0.054669339	-4.683200E+01
175	  0.054869737	-5.579000E+00	  0.054869737	-8.225600E+01	  0.054869737	3.186400E+01	  0.054869737	-4.592400E+01
176	  0.055070139	-5.584000E+00	  0.055070139	-8.364500E+01	  0.055070139	3.118700E+01	  0.055070139	-4.504400E+01
177	  0.055270538	-5.594000E+00	  0.055270538	-8.504000E+01	  0.055270538	3.055700E+01	  0.055270538	-4.415100E+01
178	  0.055470940	-5.596000E+00	  0.055470940	-8.642700E+01	  0.055470940	2.992500E+01	  0.055470940	-4.329900E+01
179	  0.055671342	-5.602000E+00	  0.055671342	-8.781800E+01	  0.055671342	2.933500E+01	  0.055671342	-4.243800E+01
180	  0.055871744	-5.610000E+00	  0.055871744	-8.923400E+01	  0.055871744	2.876300E+01	  0.055871744	-4.157200E+01
181	  0.056072142	-5.621000E+00	  0.056072142	-9.059200E+01	  0.056072142	2.824800E+01	  0.056072142	-4.074100E+01
182	  0.056272544	-5.624000E+00	  0.056272544	-9.199500E+01	  0.056272544	2.770900E+01	  0.056272544	-3.991300E+01
183	  0.056472946	-5.630000E+00	  0.056472946	-9.338000E+01	  0.056472946	2.720600E+01	  0.056472946	-3.910000E+01
184	  0.056673344	-5.633000E+00	  0.056673344	-9.474700E+01	  0.056673344	2.671800E+01	  0.056673344	-3.831300E+01
185	  0.056873746	-5.634000E+00	  0.056873746	-9.612800E+01	  0.056873746	2.624000E+01	  0.056873746	-3.752900E+01
186	  0.057074148	-5.637000E+00	  0.057074148	-9.751700E+01	  0.057074148	2.578200E+01	  0.057074148	-3.674600E+01
187	  0.057274550	-5.638000E+00	  0.057274550	-9.888800E+01	  0.057274550	2.534000E+01	  0.057274550	-3.598700E+01
188	  0.057474948	-5.637000E+00	  0.057474948	-1.002300E+02	  0.057474948	2.491600E+01	  0.057474948	-3.525400E+01
189	  0.057675350	-5.636000E+00	  0.057675350	-1.015560E+02	  0.057675350	2.451500E+01	  0.057675350	-3.453600E+01
190	  0.057875752	-5.635000E+00	  0.057875752	-1.028760E+02	  0.057875752	2.412900E+01	  0.057875752	-3.382900E+01
191	  0.058076151	-5.636000E+00	  0.058076151	-1.041550E+02	  0.058076151	2.377400E+01	  0.058076151	-3.314700E+01
192	  0.058276553	-5.637000E+00	  0.058276553	-1.054570E+02	  0.058276553	2.342400E+01	  0.058276553	-3.246000E+01
193	  0.058476955	-5.635000E+00	  0.058476955	-1.067020E+02	  0.058476955	2.309500E+01	  0.058476955	-3.181200E+01
194	  0.058677353	-5.640000E+00	  0.058677353	-1.079740E+02	  0.058677353	2.278900E+01	  0.058677353	-3.114700E+01
195	  0.058877755	-5.643000E+00	  0.058877755	-1.092420E+02	  0.058877755	2.249100E+01	  0.058877755	-3.049100E+01
196	  0.059078157	-5.647000E+00	  0.059078157	-1.105000E+02	  0.059078157	2.220800E+01	  0.059078157	-2.984600E+01
197	  0.059278559	-5.650000E+00	  0.059278559	-1.117560E+02	  0.059278559	2.193400E+01	  0.059278559	-2.920900E+01
198	  0.059478957	-5.653000E+00	  0.059478957	-1.130090E+02	  0.059478957	2.166600E+01	  0.059478957	-2.858000E+01
199	  0.059679359	-5.660000E+00	  0.059679359	-1.142540E+02	  0.059679359	2.142600E+01	  0.059679359	-2.795300E+01
200	  0.059879761	-5.662000E+00	  0.059879761	-1.155230E+02	  0.059879761	2.117200E+01	  0.059879761	-2.732800E+01
201	  0.060080159	-5.664000E+00	  0.060080159	-1.167480E+02	  0.060080159	2.093300E+01	  0.060080159	-2.673000E+01
202	  0.060280561	-5.666000E+00	  0.060280561	-1.180010E+02	  0.060280561	2.070000E+01	  0.060280561	-2.612200E+01
203	  0.060480963	-5.669000E+00	  0.060480963	-1.192270E+02	  0.060480963	2.048100E+01	  0.060480963	-2.553200E+01
204	  0.060681365	-5.670000E+00	  0.060681365	-1.204510E+02	  0.060681365	2.026400E+01	  0.060681365	-2.495000E+01
205	  0.060881764	-5.671000E+00	  0.060881764	-1.216760E+02	  0.060881764	2.005600E+01	  0.060881764	-2.437000E+01
206	  0.061082166	-5.671000E+00	  0.061082166	-1.228830E+02	  0.061082166	1.985400E+01	  0.061082166	-2.380500E+01
207	  0.061282568	-5.670000E+00	  0.061282568	-1.241030E+02	  0.061282568	1.965200E+01	  0.061282568	-2.324000E+01
208	  0.061482966	-5.670000E+00	  0.061482966	-1.252830E+02	  0.061482966	1.946600E+01	  0.061482966	-2.269500E+01
209	  0.061683368	-5.670000E+00	  0.061683368	-1.264320E+02	  0.061683368	1.929300E+01	  0.061683368	-2.216800E+01
210	  0.061883770	-5.669000E+00	  0.061883770	-1.276350E+02	  0.061883770	1.911300E+01	  0.061883770	-2.162000E+01
211	  0.062084168	-5.668000E+00	  0.062084168	-1.287690E+02	  0.062084168	1.895100E+01	  0.062084168	-2.110800E+01
212	  0.062284570	-5.673000E+00	  0.062284570	-1.299330E+02	  0.062284570	1.880400E+01	  0.062284570	-2.058000E+01
213	  0.062484972	-5.661000E+00	  0.062484972	-1.310210E+02	  0.062484972	1.862500E+01	  0.062484972	-2.010300E+01
214	  0.062685370	-5.672000E+00	  0.062685370	-1.322130E+02	  0.062685370	1.850200E+01	  0.062685370	-1.956400E+01
215	  0.062885776	-5.669000E+00	  0.062885776	-1.333660E+02	  0.062885776	1.835100E+01	  0.062885776	-1.905700E+01
216	  0.063086174	-5.674000E+00	  0.063086174	-1.345110E+02	  0.063086174	1.822700E+01	  0.063086174	-1.855000E+01
217	  0.063286573	-5.673000E+00	  0.063286573	-1.356550E+02	  0.063286573	1.809300E+01	  0.063286573	-1.805000E+01
218	  0.063486971	-5.675000E+00	  0.063486971	-1.368330E+02	  0.063486971	1.796600E+01	  0.063486971	-1.753600E+01
219	  0.063687377	-5.674000E+00	  0.063687377	-1.379580E+02	  0.063687377	1.784200E+01	  0.063687377	-1.705000E+01
220	  0.063887775	-5.671000E+00	  0.063887775	-1.390890E+02	  0.063887775	1.771600E+01	  0.063887775	-1.656500E+01
221	  0.064088173	-5.670000E+00	  0.064088173	-1.402340E+02	  0.064088173	1.759800E+01	  0.064088173	-1.607600E+01
222	  0.064288579	-5.669000E+00	  0.064288579	-1.413700E+02	  0.064288579	1.748400E+01	  0.064288579	-1.559200E+01
223	  0.064488977	-5.670000E+00	  0.064488977	-1.424930E+02	  0.064488977	1.738100E+01	  0.064488977	-1.511500E+01
224	  0.064689375	-5.668000E+00	  0.064689375	-1.435650E+02	  0.064689375	1.728000E+01	  0.064689375	-1.466300E+01
225	  0.064889781	-5.665000E+00	  0.064889781	-1.446670E+02	  0.064889781	1.717500E+01	  0.064889781	-1.420100E+01
226	  0.065090179	-5.664000E+00	  0.065090179	-1.457470E+02	  0.065090179	1.708300E+01	  0.065090179	-1.374900E+01
227	  0.065290578	-5.666000E+00	  0.065290578	-1.468380E+02	  0.065290578	1.700000E+01	  0.065290578	-1.329200E+01
228	  0.065490983	-5.665000E+00	  0.065490983	-1.478920E+02	  0.065490983	1.691700E+01	  0.065490983	-1.285400E+01
229	  0.065691382	-5.663000E+00	  0.065691382	-1.489880E+02	  0.065691382	1.683100E+01	  0.065691382	-1.240000E+01
230	  0.065891780	-5.664000E+00	  0.065891780	-1.500700E+02	  0.065891780	1.675500E+01	  0.065891780	-1.195300E+01
231	  0.066092186	-5.668000E+00	  0.066092186	-1.510890E+02	  0.066092186	1.669700E+01	  0.066092186	-1.153200E+01
232	  0.066292584	-5.669000E+00	  0.066292584	-1.521640E+02	  0.066292584	1.662700E+01	  0.066292584	-1.109100E+01
233	  0.066492982	-5.669000E+00	  0.066492982	-1.532070E+02	  0.066492982	1.656400E+01	  0.066492982	-1.066400E+01
234	  0.066693388	-5.670000E+00	  0.066693388	-1.542670E+02	  0.066693388	1.650300E+01	  0.066693388	-1.023100E+01
235	  0.066893786	-5.674000E+00	  0.066893786	-1.552980E+02	  0.066893786	1.645400E+01	  0.066893786	-9.811000E+00
236	  0.067094192	-5.675000E+00	  0.067094192	-1.563600E+02	  0.067094192	1.639700E+01	  0.067094192	-9.380000E+00
237	  0.067294590	-5.677000E+00	  0.067294590	-1.573720E+02	  0.067294590	1.635000E+01	  0.067294590	-8.970000E+00
238	  0.067494988	-5.680000E+00	  0.067494988	-1.584440E+02	  0.067494988	1.630500E+01	  0.067494988	-8.537000E+00
239	  0.067695394	-5.682000E+00	  0.067695394	-1.594810E+02	  0.067695394	1.625900E+01	  0.067695394	-8.120000E+00
240	  0.067895792	-5.681000E+00	  0.067895792	-1.605240E+02	  0.067895792	1.621000E+01	  0.067895792	-7.701000E+00
241	  0.068096191	-5.687000E+00	  0.068096191	-1.615440E+02	  0.068096191	1.618300E+01	  0.068096191	-7.291000E+00
242	  0.068296596	-5.689000E+00	  0.068296596	-1.625820E+02	  0.068296596	1.614600E+01	  0.068296596	-6.876000E+00
243	  0.068496995	-5.690000E+00	  0.068496995	-1.635980E+02	  0.068496995	1.611100E+01	  0.068496995	-6.471000E+00
244	  0.068697393	-5.694000E+00	  0.068697393	-1.646080E+02	  0.068697393	1.608700E+01	  0.068697393	-6.068000E+00
245	  0.068897791	-5.698000E+00	  0.068897791	-1.656420E+02	  0.068897791	1.606300E+01	  0.068897791	-5.656000E+00
246	  0.069098189	-5.699000E+00	  0.069098189	-1.666180E+02	  0.069098189	1.603600E+01	  0.069098189	-5.269000E+00
247	  0.069298595	-5.699000E+00	  0.069298595	-1.676350E+02	  0.069298595	1.600700E+01	  0.069298595	-4.866000E+00
248	  0.069498993	-5.703000E+00	  0.069498993	-1.686230E+02	  0.069498993	1.599100E+01	  0.069498993	-4.475000E+00
249	  0.069699399	-5.706000E+00	  0.069699399	-1.696360E+02	  0.069699399	1.597400E+01	  0.069699399	-4.074000E+00
250	  0.069899797	-5.711000E+00	  0.069899797	-1.706330E+02	  0.069899797	1.596600E+01	  0.069899797	-3.680000E+00
251	  0.070100196	-5.718000E+00	  0.070100196	-1.716190E+02	  0.070100196	1.596500E+01	  0.070100196	-3.291000E+00
252	  0.070300601	-5.714000E+00	  0.070300601	-1.725990E+02	  0.070300601	1.593800E+01	  0.070300601	-2.906000E+00
253	  0.070501000	-5.717000E+00	  0.070501000	-1.735950E+02	  0.070501000	1.593000E+01	  0.070501000	-2.514000E+00
254	  0.070701398	-5.721000E+00	  0.070701398	-1.745830E+02	  0.070701398	1.592900E+01	  0.070701398	-2.125000E+00
255	  0.070901804	-5.719000E+00	  0.070901804	-1.755550E+02	  0.070901804	1.591400E+01	  0.070901804	-1.744000E+00
256	  0.071102202	-5.726000E+00	  0.071102202	-1.765180E+02	  0.071102202	1.592200E+01	  0.071102202	-1.365000E+00
257	  0.071302600	-5.731000E+00	  0.071302600	-1.774850E+02	  0.071302600	1.592900E+01	  0.071302600	-9.850000E-01
258	  0.071503006	-5.733000E+00	  0.071503006	-1.784200E+02	  0.071503006	1.593000E+01	  0.071503006	-6.190000E-01
259	  0.071703404	-5.738000E+00	  0.071703404	-1.793840E+02	  0.071703404	1.594000E+01	  0.071703404	-2.410000E-01
260	  0.071903802	-5.745000E+00	  0.071903802	1.796530E+02	  0.071903802	1.595900E+01	  0.071903802	1.350000E-01
261	  0.072104208	-5.748000E+00	  0.072104208	1.787050E+02	  0.072104208	1.596700E+01	  0.072104208	5.070000E-01
262	  0.072304606	-5.752000E+00	  0.072304606	1.777970E+02	  0.072304606	1.598200E+01	  0.072304606	8.620000E-01
263	  0.072505005	-5.758000E+00	  0.072505005	1.768360E+02	  0.072505005	1.600200E+01	  0.072505005	1.239000E+00
264	  0.072705410	-5.765000E+00	  0.072705410	1.759300E+02	  0.072705410	1.602800E+01	  0.072705410	1.594000E+00
265	  0.072905809	-5.770000E+00	  0.072905809	1.749920E+02	  0.072905809	1.605000E+01	  0.072905809	1.961000E+00
266	  0.073106214	-5.776000E+00	  0.073106214	1.740730E+02	  0.073106214	1.607800E+01	  0.073106214	2.321000E+00
267	  0.073306613	-5.782000E+00	  0.073306613	1.731580E+02	  0.073306613	1.610600E+01	  0.073306613	2.679000E+00
268	  0.073507011	-5.790000E+00	  0.073507011	1.722480E+02	  0.073507011	1.614200E+01	  0.073507011	3.035000E+00
269	  0.073707417	-5.792000E+00	  0.073707417	1.713170E+02	  0.073707417	1.616200E+01	  0.073707417	3.401000E+00
270	  0.073907815	-5.799000E+00	  0.073907815	1.704080E+02	  0.073907815	1.619900E+01	  0.073907815	3.757000E+00
271	  0.074108213	-5.804000E+00	  0.074108213	1.695240E+02	  0.074108213	1.623200E+01	  0.074108213	4.104000E+00
272	  0.074308619	-5.810000E+00	  0.074308619	1.686150E+02	  0.074308619	1.626900E+01	  0.074308619	4.460000E+00
273	  0.074509017	-5.818000E+00	  0.074509017	1.676780E+02	  0.074509017	1.631500E+01	  0.074509017	4.828000E+00
274	  0.074709415	-5.825000E+00	  0.074709415	1.668000E+02	  0.074709415	1.635700E+01	  0.074709415	5.173000E+00
275	  0.074909821	-5.831000E+00	  0.074909821	1.658970E+02	  0.074909821	1.640100E+01	  0.074909821	5.527000E+00
276	  0.075110219	-5.840000E+00	  0.075110219	1.650140E+02	  0.075110219	1.645300E+01	  0.075110219	5.875000E+00
277	  0.075310618	-5.847000E+00	  0.075310618	1.640950E+02	  0.075310618	1.650500E+01	  0.075310618	6.236000E+00
278	  0.075511023	-5.854000E+00	  0.075511023	1.632200E+02	  0.075511023	1.655600E+01	  0.075511023	6.581000E+00
279	  0.075711422	-5.860000E+00	  0.075711422	1.623430E+02	  0.075711422	1.660600E+01	  0.075711422	6.926000E+00
280	  0.075911827	-5.868000E+00	  0.075911827	1.614860E+02	  0.075911827	1.666200E+01	  0.075911827	7.264000E+00
281	  0.076112226	-5.877000E+00	  0.076112226	1.605500E+02	  0.076112226	1.672500E+01	  0.076112226	7.634000E+00
282	  0.076312624	-5.883000E+00	  0.076312624	1.596880E+02	  0.076312624	1.678000E+01	  0.076312624	7.975000E+00
283	  0.076513030	-5.891000E+00	  0.076513030	1.587720E+02	  0.076513030	1.684700E+01	  0.076513030	8.338000E+00
284	  0.076713428	-5.899000E+00	  0.076713428	1.578860E+02	  0.076713428	1.691000E+01	  0.076713428	8.689000E+00
285	  0.076913826	-5.905000E+00	  0.076913826	1.569930E+02	  0.076913826	1.697300E+01	  0.076913826	9.044000E+00
286	  0.077114232	-5.910000E+00	  0.077114232	1.561210E+02	  0.077114232	1.703500E+01	  0.077114232	9.391000E+00
287	  0.077314630	-5.915000E+00	  0.077314630	1.552410E+02	  0.077314630	1.709800E+01	  0.077314630	9.743000E+00
288	  0.077515028	-5.923000E+00	  0.077515028	1.544130E+02	  0.077515028	1.716800E+01	  0.077515028	1.007300E+01
289	  0.077715434	-5.924000E+00	  0.077715434	1.535270E+02	  0.077715434	1.722600E+01	  0.077715434	1.043000E+01
290	  0.077915832	-5.936000E+00	  0.077915832	1.526940E+02	  0.077915832	1.731100E+01	  0.077915832	1.076100E+01
291	  0.078116231	-5.943000E+00	  0.078116231	1.518270E+02	  0.078116231	1.738800E+01	  0.078116231	1.110900E+01
292	  0.078316636	-5.951000E+00	  0.078316636	1.509740E+02	  0.078316636	1.746700E+01	  0.078316636	1.145100E+01
293	  0.078517035	-5.963000E+00	  0.078517035	1.501120E+02	  0.078517035	1.756000E+01	  0.078517035	1.179600E+01
294	  0.078717433	-5.970000E+00	  0.078717433	1.492640E+02	  0.078717433	1.764000E+01	  0.078717433	1.213800E+01
295	  0.078917839	-5.980000E+00	  0.078917839	1.484160E+02	  0.078917839	1.773400E+01	  0.078917839	1.247900E+01
296	  0.079118237	-5.991000E+00	  0.079118237	1.475930E+02	  0.079118237	1.782800E+01	  0.079118237	1.281000E+01
297	  0.079318643	-6.004000E+00	  0.079318643	1.467260E+02	  0.079318643	1.793200E+01	  0.079318643	1.315800E+01
298	  0.079519041	-6.012000E+00	  0.079519041	1.459190E+02	  0.079519041	1.802100E+01	  0.079519041	1.348600E+01
299	  0.079719439	-6.024000E+00	  0.079719439	1.450730E+02	  0.079719439	1.812700E+01	  0.079719439	1.382700E+01
300	  0.079919845	-6.037000E+00	  0.079919845	1.442460E+02	  0.079919845	1.823700E+01	  0.079919845	1.416100E+01
301	  0.080120243	-6.047000E+00	  0.080120243	1.433960E+02	  0.080120243	1.834100E+01	  0.080120243	1.450700E+01
302	  0.080320641	-6.057000E+00	  0.080320641	1.425250E+02	  0.080320641	1.845100E+01	  0.080320641	1.486200E+01
303	  0.080521047	-6.067000E+00	  0.080521047	1.417150E+02	  0.080521047	1.855700E+01	  0.080521047	1.519200E+01
304	  0.080721445	-6.080000E+00	  0.080721445	1.408630E+02	  0.080721445	1.867700E+01	  0.080721445	1.553900E+01
305	  0.080921844	-6.089000E+00	  0.080921844	1.400280E+02	  0.080921844	1.878700E+01	  0.080921844	1.588200E+01
306	  0.081122249	-6.100000E+00	  0.081122249	1.392090E+02	  0.081122249	1.890600E+01	  0.081122249	1.621700E+01
307	  0.081322648	-6.115000E+00	  0.081322648	1.384040E+02	  0.081322648	1.903300E+01	  0.081322648	1.654600E+01
308	  0.081523046	-6.129000E+00	  0.081523046	1.375650E+02	  0.081523046	1.916500E+01	  0.081523046	1.688900E+01
309	  0.081723452	-6.138000E+00	  0.081723452	1.367280E+02	  0.081723452	1.928700E+01	  0.081723452	1.723600E+01
310	  0.081923850	-6.154000E+00	  0.081923850	1.358990E+02	  0.081923850	1.943000E+01	  0.081923850	1.757500E+01
311	  0.082124248	-6.168000E+00	  0.082124248	1.350940E+02	  0.082124248	1.956500E+01	  0.082124248	1.790600E+01
312	  0.082324654	-6.180000E+00	  0.082324654	1.343070E+02	  0.082324654	1.969700E+01	  0.082324654	1.823100E+01
313	  0.082525052	-6.198000E+00	  0.082525052	1.334970E+02	  0.082525052	1.985000E+01	  0.082525052	1.856200E+01
314	  0.082725458	-6.211000E+00	  0.082725458	1.327130E+02	  0.082725458	1.999000E+01	  0.082725458	1.888600E+01
315	  0.082925856	-6.229000E+00	  0.082925856	1.318930E+02	  0.082925856	2.015100E+01	  0.082925856	1.922300E+01
316	  0.083126254	-6.247000E+00	  0.083126254	1.310630E+02	  0.083126254	2.031500E+01	  0.083126254	1.956400E+01
317	  0.083326660	-6.262000E+00	  0.083326660	1.302430E+02	  0.083326660	2.047100E+01	  0.083326660	1.990400E+01
318	  0.083527058	-6.278000E+00	  0.083527058	1.294160E+02	  0.083527058	2.063800E+01	  0.083527058	2.024700E+01
319	  0.083727457	-6.297000E+00	  0.083727457	1.285790E+02	  0.083727457	2.081500E+01	  0.083727457	2.059200E+01
320	  0.083927862	-6.310000E+00	  0.083927862	1.278020E+02	  0.083927862	2.097100E+01	  0.083927862	2.091700E+01
321	  0.084128261	-6.325000E+00	  0.084128261	1.269610E+02	  0.084128261	2.114400E+01	  0.084128261	2.126900E+01
322	  0.084328659	-6.343000E+00	  0.084328659	1.261780E+02	  0.084328659	2.132200E+01	  0.084328659	2.159200E+01
323	  0.084529065	-6.356000E+00	  0.084529065	1.253820E+02	  0.084529065	2.148900E+01	  0.084529065	2.192800E+01
324	  0.084729463	-6.374000E+00	  0.084729463	1.246030E+02	  0.084729463	2.166800E+01	  0.084729463	2.225200E+01
325	  0.084929861	-6.392000E+00	  0.084929861	1.237950E+02	  0.084929861	2.185900E+01	  0.084929861	2.258800E+01
326	  0.085130267	-6.412000E+00	  0.085130267	1.230120E+02	  0.085130267	2.205300E+01	  0.085130267	2.291200E+01
327	  0.085330658	-6.428000E+00	  0.085330658	1.222110E+02	  0.085330658	2.224300E+01	  0.085330658	2.324800E+01
328	  0.085531056	-6.451000E+00	  0.085531056	1.214570E+02	  0.085531056	2.244800E+01	  0.085531056	2.355600E+01
329	  0.085731462	-6.469000E+00	  0.085731462	1.206730E+02	  0.085731462	2.264800E+01	  0.085731462	2.388300E+01
330	  0.085931860	-6.490000E+00	  0.085931860	1.198920E+02	  0.085931860	2.286100E+01	  0.085931860	2.420500E+01
331	  0.086132258	-6.513000E+00	  0.086132258	1.191310E+02	  0.086132258	2.307600E+01	  0.086132258	2.451700E+01
332	  0.086332664	-6.535000E+00	  0.086332664	1.183780E+02	  0.086332664	2.329100E+01	  0.086332664	2.482600E+01
333	  0.086533062	-6.560000E+00	  0.086533062	1.175990E+02	  0.086533062	2.352400E+01	  0.086533062	2.514200E+01
334	  0.086733460	-6.581000E+00	  0.086733460	1.167880E+02	  0.086733460	2.375600E+01	  0.086733460	2.547900E+01
335	  0.086933866	-6.600000E+00	  0.086933866	1.160350E+02	  0.086933866	2.397400E+01	  0.086933866	2.579200E+01
336	  0.087134264	-6.624000E+00	  0.087134264	1.152580E+02	  0.087134264	2.421500E+01	  0.087134264	2.610900E+01
337	  0.087334670	-6.645000E+00	  0.087334670	1.144660E+02	  0.087334670	2.445400E+01	  0.087334670	2.643800E+01
338	  0.087535068	-6.668000E+00	  0.087535068	1.136980E+02	  0.087535068	2.470000E+01	  0.087535068	2.675100E+01
339	  0.087735467	-6.689000E+00	  0.087735467	1.129370E+02	  0.087735467	2.494000E+01	  0.087735467	2.706600E+01
340	  0.087935872	-6.710000E+00	  0.087935872	1.121840E+02	  0.087935872	2.518200E+01	  0.087935872	2.737600E+01
341	  0.088136271	-6.739000E+00	  0.088136271	1.114170E+02	  0.088136271	2.545600E+01	  0.088136271	2.768000E+01
342	  0.088336669	-6.758000E+00	  0.088336669	1.106790E+02	  0.088336669	2.569800E+01	  0.088336669	2.798600E+01
343	  0.088537075	-6.783000E+00	  0.088537075	1.099200E+02	  0.088537075	2.596400E+01	  0.088537075	2.829300E+01
344	  0.088737473	-6.802000E+00	  0.088737473	1.091920E+02	  0.088737473	2.621100E+01	  0.088737473	2.859400E+01
345	  0.088937871	-6.830000E+00	  0.088937871	1.084420E+02	  0.088937871	2.649300E+01	  0.088937871	2.889000E+01
346	  0.089138277	-6.856000E+00	  0.089138277	1.077270E+02	  0.089138277	2.676600E+01	  0.089138277	2.917200E+01
347	  0.089338675	-6.881000E+00	  0.089338675	1.069960E+02	  0.089338675	2.704400E+01	  0.089338675	2.946200E+01
348	  0.089539073	-6.909000E+00	  0.089539073	1.062810E+02	  0.089539073	2.732900E+01	  0.089539073	2.973900E+01
349	  0.089739479	-6.940000E+00	  0.089739479	1.055320E+02	  0.089739479	2.763800E+01	  0.089739479	3.002500E+01
350	  0.089939877	-6.970000E+00	  0.089939877	1.047850E+02	  0.089939877	2.794600E+01	  0.089939877	3.031200E+01
351	  0.090140276	-7.002000E+00	  0.090140276	1.040420E+02	  0.090140276	2.826600E+01	  0.090140276	3.059100E+01
352	  0.090340681	-7.033000E+00	  0.090340681	1.033470E+02	  0.090340681	2.857200E+01	  0.090340681	3.084900E+01
353	  0.090541080	-7.061000E+00	  0.090541080	1.025740E+02	  0.090541080	2.889900E+01	  0.090541080	3.114600E+01
354	  0.090741485	-7.096000E+00	  0.090741485	1.018390E+02	  0.090741485	2.923800E+01	  0.090741485	3.141000E+01
355	  0.090941884	-7.127000E+00	  0.090941884	1.011430E+02	  0.090941884	2.955600E+01	  0.090941884	3.166500E+01
356	  0.091142282	-7.161000E+00	  0.091142282	1.004230E+02	  0.091142282	2.989700E+01	  0.091142282	3.192000E+01
357	  0.091342688	-7.195000E+00	  0.091342688	9.970000E+01	  0.091342688	3.024200E+01	  0.091342688	3.217700E+01
358	  0.091543086	-7.232000E+00	  0.091543086	9.896600E+01	  0.091543086	3.060600E+01	  0.091543086	3.242800E+01
359	  0.091743484	-7.260000E+00	  0.091743484	9.824800E+01	  0.091743484	3.094000E+01	  0.091743484	3.269100E+01
360	  0.091943890	-7.299000E+00	  0.091943890	9.757500E+01	  0.091943890	3.129900E+01	  0.091943890	3.290400E+01
361	  0.092144288	-7.334000E+00	  0.092144288	9.687900E+01	  0.092144288	3.165600E+01	  0.092144288	3.313700E+01
362	  0.092344686	-7.370000E+00	  0.092344686	9.619900E+01	  0.092344686	3.201300E+01	  0.092344686	3.335800E+01
363	  0.092545092	-7.407000E+00	  0.092545092	9.553600E+01	  0.092545092	3.237300E+01	  0.092545092	3.356400E+01
364	  0.092745490	-7.445000E+00	  0.092745490	9.486500E+01	  0.092745490	3.274200E+01	  0.092745490	3.377100E+01
365	  0.092945889	-7.487000E+00	  0.092945889	9.422700E+01	  0.092945889	3.311600E+01	  0.092945889	3.394600E+01
366	  0.093146294	-7.532000E+00	  0.093146294	9.354500E+01	  0.093146294	3.351600E+01	  0.093146294	3.413400E+01
367	  0.093346693	-7.569000E+00	  0.093346693	9.287700E+01	  0.093346693	3.389400E+01	  0.093346693	3.433000E+01
368	  0.093547091	-7.609000E+00	  0.093547091	9.221000E+01	  0.093547091	3.428300E+01	  0.093547091	3.451600E+01
369	  0.093747497	-7.650000E+00	  0.093747497	9.154500E+01	  0.093747497	3.467900E+01	  0.093747497	3.469400E+01
370	  0.093947895	-7.693000E+00	  0.093947895	9.087700E+01	  0.093947895	3.508600E+01	  0.093947895	3.486400E+01
371	  0.094148301	-7.736000E+00	  0.094148301	9.024900E+01	  0.094148301	3.547800E+01	  0.094148301	3.501400E+01
372	  0.094348699	-7.778000E+00	  0.094348699	8.961000E+01	  0.094348699	3.587700E+01	  0.094348699	3.516600E+01
373	  0.094549097	-7.823000E+00	  0.094549097	8.898200E+01	  0.094549097	3.628200E+01	  0.094549097	3.530200E+01
374	  0.094749503	-7.860000E+00	  0.094749503	8.834600E+01	  0.094749503	3.667000E+01	  0.094749503	3.546300E+01
375	  0.094949901	-7.900000E+00	  0.094949901	8.773700E+01	  0.094949901	3.706000E+01	  0.094949901	3.559600E+01
376	  0.095150299	-7.937000E+00	  0.095150299	8.713600E+01	  0.095150299	3.744000E+01	  0.095150299	3.573400E+01
377	  0.095350705	-7.986000E+00	  0.095350705	8.653400E+01	  0.095350705	3.785500E+01	  0.095350705	3.583100E+01
378	  0.095551103	-8.023000E+00	  0.095551103	8.592800E+01	  0.095551103	3.824500E+01	  0.095551103	3.596100E+01
379	  0.095751502	-8.061000E+00	  0.095751502	8.537200E+01	  0.095751502	3.861700E+01	  0.095751502	3.606400E+01
380	  0.095951907	-8.105000E+00	  0.095951907	8.479900E+01	  0.095951907	3.901200E+01	  0.095951907	3.615200E+01
381	  0.096152306	-8.152000E+00	  0.096152306	8.424000E+01	  0.096152306	3.941300E+01	  0.096152306	3.622000E+01
382	  0.096352704	-8.195000E+00	  0.096352704	8.367900E+01	  0.096352704	3.980400E+01	  0.096352704	3.629900E+01
383	  0.096553110	-8.236000E+00	  0.096553110	8.315700E+01	  0.096553110	4.017400E+01	  0.096553110	3.636300E+01
384	  0.096753508	-8.280000E+00	  0.096753508	8.262500E+01	  0.096753508	4.055800E+01	  0.096753508	3.641800E+01
385	  0.096953906	-8.328000E+00	  0.096953906	8.211300E+01	  0.096953906	4.094300E+01	  0.096953906	3.644900E+01
386	  0.097154312	-8.370000E+00	  0.097154312	8.156100E+01	  0.097154312	4.133600E+01	  0.097154312	3.650900E+01
387	  0.097354710	-8.414000E+00	  0.097354710	8.103800E+01	  0.097354710	4.171900E+01	  0.097354710	3.654800E+01
388	  0.097555116	-8.460000E+00	  0.097555116	8.053200E+01	  0.097555116	4.210100E+01	  0.097555116	3.656800E+01
389	  0.097755514	-8.507000E+00	  0.097755514	8.002300E+01	  0.097755514	4.248700E+01	  0.097755514	3.658300E+01
390	  0.097955912	-8.549000E+00	  0.097955912	7.952900E+01	  0.097955912	4.285200E+01	  0.097955912	3.660900E+01
391	  0.098156318	-8.596000E+00	  0.098156318	7.903900E+01	  0.098156318	4.323100E+01	  0.098156318	3.660500E+01
392	  0.098356716	-8.639000E+00	  0.098356716	7.853300E+01	  0.098356716	4.360700E+01	  0.098356716	3.662200E+01
393	  0.098557115	-8.678000E+00	  0.098557115	7.809700E+01	  0.098557115	4.393800E+01	  0.098557115	3.662300E+01
394	  0.098757520	-8.729000E+00	  0.098757520	7.758700E+01	  0.098757520	4.433600E+01	  0.098757520	3.660500E+01
395	  0.098957919	-8.766000E+00	  0.098957919	7.712900E+01	  0.098957919	4.467600E+01	  0.098957919	3.661500E+01
396	  0.099158317	-8.811000E+00	  0.099158317	7.668700E+01	  0.099158317	4.502500E+01	  0.099158317	3.658300E+01
397	  0.099358723	-8.857000E+00	  0.099358723	7.627500E+01	  0.099358723	4.535800E+01	  0.099358723	3.653600E+01
398	  0.099559121	-8.902000E+00	  0.099559121	7.583200E+01	  0.099559121	4.570500E+01	  0.099559121	3.650300E+01
399	  0.099759519	-8.944000E+00	  0.099759519	7.540300E+01	  0.099759519	4.604000E+01	  0.099759519	3.646900E+01
400	  0.099959925	-8.984000E+00	  0.099959925	7.502400E+01	  0.099959925	4.634000E+01	  0.099959925	3.642600E+01
401	  0.100160323	-9.033000E+00	  0.100160323	7.462800E+01	  0.100160323	4.666800E+01	  0.100160323	3.635100E+01
402	  0.100360721	-9.065000E+00	  0.100360721	7.420000E+01	  0.100360721	4.698300E+01	  0.100360721	3.634500E+01
403	  0.100561127	-9.108000E+00	  0.100561127	7.377300E+01	  0.100561127	4.731600E+01	  0.100561127	3.629700E+01
404	  0.100761525	-9.150000E+00	  0.100761525	7.339200E+01	  0.100761525	4.762200E+01	  0.100761525	3.623200E+01
405	  0.100961931	-9.182000E+00	  0.100961931	7.297400E+01	  0.100961931	4.793000E+01	  0.100961931	3.621700E+01
406	  0.101162329	-9.221000E+00	  0.101162329	7.265200E+01	  0.101162329	4.819400E+01	  0.101162329	3.614400E+01
407	  0.101362728	-9.257000E+00	  0.101362728	7.226400E+01	  0.101362728	4.849000E+01	  0.101362728	3.609900E+01
408	  0.101563133	-9.299000E+00	  0.101563133	7.188100E+01	  0.101563133	4.879400E+01	  0.101563133	3.602700E+01
409	  0.101763532	-9.340000E+00	  0.101763532	7.156800E+01	  0.101763532	4.905200E+01	  0.101763532	3.593900E+01
410	  0.101963930	-9.367000E+00	  0.101963930	7.117800E+01	  0.101963930	4.933600E+01	  0.101963930	3.591900E+01
411	  0.102164336	-9.410000E+00	  0.102164336	7.075700E+01	  0.102164336	4.966200E+01	  0.102164336	3.584400E+01
412	  0.102364734	-9.438000E+00	  0.102364734	7.042400E+01	  0.102364734	4.991200E+01	  0.102364734	3.580400E+01
413	  0.102565132	-9.469000E+00	  0.102565132	7.009100E+01	  0.102565132	5.016600E+01	  0.102565132	3.575000E+01
414	  0.102765530	-9.492000E+00	  0.102765530	6.977100E+01	  0.102765530	5.039900E+01	  0.102765530	3.572600E+01
415	  0.102965929	-9.529000E+00	  0.102965929	6.939300E+01	  0.102965929	5.068900E+01	  0.102965929	3.565200E+01
416	  0.103166327	-9.548000E+00	  0.103166327	6.910500E+01	  0.103166327	5.089800E+01	  0.103166327	3.563100E+01
417	  0.103366733	-9.576000E+00	  0.103366733	6.881400E+01	  0.103366733	5.112000E+01	  0.103366733	3.557200E+01
418	  0.103567131	-9.594000E+00	  0.103567131	6.850900E+01	  0.103567131	5.133800E+01	  0.103567131	3.555800E+01
419	  0.103767529	-9.626000E+00	  0.103767529	6.813100E+01	  0.103767529	5.161900E+01	  0.103767529	3.549900E+01
420	  0.103967935	-9.650000E+00	  0.103967935	6.785800E+01	  0.103967935	5.182500E+01	  0.103967935	3.544600E+01
421	  0.104168333	-9.669000E+00	  0.104168333	6.758300E+01	  0.104168333	5.202500E+01	  0.104168333	3.541700E+01
422	  0.104368731	-9.696000E+00	  0.104368731	6.729600E+01	  0.104368731	5.224100E+01	  0.104368731	3.535600E+01
423	  0.104569137	-9.708000E+00	  0.104569137	6.698000E+01	  0.104569137	5.245900E+01	  0.104569137	3.535900E+01
424	  0.104769535	-9.724000E+00	  0.104769535	6.670800E+01	  0.104769535	5.265400E+01	  0.104769535	3.533900E+01
425	  0.104969934	-9.743000E+00	  0.104969934	6.641700E+01	  0.104969934	5.286400E+01	  0.104969934	3.530400E+01
426	  0.105170339	-9.758000E+00	  0.105170339	6.610500E+01	  0.105170339	5.308400E+01	  0.105170339	3.529100E+01
427	  0.105370738	-9.762000E+00	  0.105370738	6.584000E+01	  0.105370738	5.326100E+01	  0.105370738	3.531900E+01
428	  0.105571143	-9.771000E+00	  0.105571143	6.544900E+01	  0.105571143	5.352900E+01	  0.105571143	3.533700E+01
429	  0.105771542	-9.786000E+00	  0.105771542	6.524300E+01	  0.105771542	5.368000E+01	  0.105771542	3.530700E+01
430	  0.105971940	-9.786000E+00	  0.105971940	6.493800E+01	  0.105971940	5.388200E+01	  0.105971940	3.535200E+01
431	  0.106172346	-9.795000E+00	  0.106172346	6.459200E+01	  0.106172346	5.412100E+01	  0.106172346	3.536200E+01
432	  0.106372744	-9.804000E+00	  0.106372744	6.435600E+01	  0.106372744	5.428800E+01	  0.106372744	3.535300E+01
433	  0.106573142	-9.813000E+00	  0.106573142	6.398500E+01	  0.106573142	5.454500E+01	  0.106573142	3.536700E+01
434	  0.106773548	-9.817000E+00	  0.106773548	6.371000E+01	  0.106773548	5.473400E+01	  0.106773548	3.538700E+01
435	  0.106973946	-9.811000E+00	  0.106973946	6.341700E+01	  0.106973946	5.492800E+01	  0.106973946	3.544900E+01
436	  0.107174344	-9.813000E+00	  0.107174344	6.309000E+01	  0.107174344	5.515200E+01	  0.107174344	3.548400E+01
437	  0.107374750	-9.811000E+00	  0.107374750	6.273200E+01	  0.107374750	5.539600E+01	  0.107374750	3.553600E+01
438	  0.107575148	-9.801000E+00	  0.107575148	6.235400E+01	  0.107575148	5.564900E+01	  0.107575148	3.562700E+01
439	  0.107775547	-9.803000E+00	  0.107775547	6.210000E+01	  0.107775547	5.582700E+01	  0.107775547	3.564800E+01
440	  0.107975952	-9.794000E+00	  0.107975952	6.167900E+01	  0.107975952	5.611300E+01	  0.107975952	3.573800E+01
441	  0.108176351	-9.787000E+00	  0.108176351	6.133800E+01	  0.108176351	5.634800E+01	  0.108176351	3.580400E+01
442	  0.108376749	-9.777000E+00	  0.108376749	6.101700E+01	  0.108376749	5.656700E+01	  0.108376749	3.588700E+01
443	  0.108577155	-9.775000E+00	  0.108577155	6.057800E+01	  0.108577155	5.687900E+01	  0.108577155	3.593800E+01
444	  0.108777553	-9.766000E+00	  0.108777553	6.023100E+01	  0.108777553	5.712100E+01	  0.108777553	3.601600E+01
445	  0.108977959	-9.752000E+00	  0.108977959	5.982800E+01	  0.108977959	5.740300E+01	  0.108977959	3.611900E+01
446	  0.109178357	-9.739000E+00	  0.109178357	5.937800E+01	  0.109178357	5.772300E+01	  0.109178357	3.622100E+01
447	  0.109378755	-9.713000E+00	  0.109378755	5.897000E+01	  0.109378755	5.800800E+01	  0.109378755	3.637900E+01
448	  0.109579161	-9.707000E+00	  0.109579161	5.853300E+01	  0.109579161	5.832800E+01	  0.109579161	3.644200E+01
449	  0.109779559	-9.695000E+00	  0.109779559	5.812600E+01	  0.109779559	5.862600E+01	  0.109779559	3.652800E+01
450	  0.109979957	-9.679000E+00	  0.109979957	5.767100E+01	  0.109979957	5.896000E+01	  0.109979957	3.663800E+01
451	  0.110180363	-9.660000E+00	  0.110180363	5.720600E+01	  0.110180363	5.930500E+01	  0.110180363	3.676400E+01
452	  0.110380761	-9.644000E+00	  0.110380761	5.671000E+01	  0.110380761	5.967800E+01	  0.110380761	3.687200E+01
453	  0.110581160	-9.630000E+00	  0.110581160	5.626400E+01	  0.110581160	6.001700E+01	  0.110581160	3.696300E+01
454	  0.110781565	-9.602000E+00	  0.110781565	5.578400E+01	  0.110781565	6.038400E+01	  0.110781565	3.712700E+01
455	  0.110981964	-9.595000E+00	  0.110981964	5.525400E+01	  0.110981964	6.079800E+01	  0.110981964	3.718200E+01
456	  0.111182362	-9.573000E+00	  0.111182362	5.476800E+01	  0.111182362	6.117900E+01	  0.111182362	3.731300E+01
457	  0.111382768	-9.551000E+00	  0.111382768	5.423800E+01	  0.111382768	6.160000E+01	  0.111382768	3.744100E+01
458	  0.111583166	-9.532000E+00	  0.111583166	5.364900E+01	  0.111583166	6.207500E+01	  0.111583166	3.755200E+01
459	  0.111783572	-9.515000E+00	  0.111783572	5.314600E+01	  0.111783572	6.248600E+01	  0.111783572	3.764400E+01
460	  0.111983970	-9.495000E+00	  0.111983970	5.259800E+01	  0.111983970	6.293900E+01	  0.111983970	3.775400E+01
461	  0.112184368	-9.475000E+00	  0.112184368	5.199800E+01	  0.112184368	6.344000E+01	  0.112184368	3.785400E+01
462	  0.112384774	-9.458000E+00	  0.112384774	5.140600E+01	  0.112384774	6.394200E+01	  0.112384774	3.793900E+01
463	  0.112585172	-9.435000E+00	  0.112585172	5.076100E+01	  0.112585172	6.449600E+01	  0.112585172	3.805000E+01
464	  0.112785570	-9.419000E+00	  0.112785570	5.010700E+01	  0.112785570	6.506300E+01	  0.112785570	3.811100E+01
465	  0.112985976	-9.395000E+00	  0.112985976	4.942800E+01	  0.112985976	6.566300E+01	  0.112985976	3.820800E+01
466	  0.113186374	-9.385000E+00	  0.113186374	4.880000E+01	  0.113186374	6.622000E+01	  0.113186374	3.822500E+01
467	  0.113386773	-9.368000E+00	  0.113386773	4.812400E+01	  0.113386773	6.682900E+01	  0.113386773	3.826900E+01
468	  0.113587178	-9.358000E+00	  0.113587178	4.743100E+01	  0.113587178	6.745800E+01	  0.113587178	3.826600E+01
469	  0.113787577	-9.342000E+00	  0.113787577	4.674900E+01	  0.113787577	6.808600E+01	  0.113787577	3.828400E+01
470	  0.113987975	-9.322000E+00	  0.113987975	4.596300E+01	  0.113987975	6.882200E+01	  0.113987975	3.830600E+01
471	  0.114188381	-9.306000E+00	  0.114188381	4.522500E+01	  0.114188381	6.952000E+01	  0.114188381	3.830100E+01
472	  0.114388779	-9.294000E+00	  0.114388779	4.446900E+01	  0.114388779	7.023800E+01	  0.114388779	3.825000E+01
473	  0.114589177	-9.278000E+00	  0.114589177	4.370400E+01	  0.114589177	7.097800E+01	  0.114589177	3.821700E+01
474	  0.114789583	-9.272000E+00	  0.114789583	4.290400E+01	  0.114789583	7.174700E+01	  0.114789583	3.809500E+01
475	  0.114989981	-9.257000E+00	  0.114989981	4.210900E+01	  0.114989981	7.252900E+01	  0.114989981	3.801200E+01
476	  0.115190387	-9.260000E+00	  0.115190387	4.127400E+01	  0.115190387	7.333000E+01	  0.115190387	3.779200E+01
477	  0.115390785	-9.249000E+00	  0.115390785	4.044000E+01	  0.115390785	7.416000E+01	  0.115390785	3.764400E+01
478	  0.115591183	-9.245000E+00	  0.115591183	3.959500E+01	  0.115591183	7.499400E+01	  0.115591183	3.742800E+01
479	  0.115791589	-9.235000E+00	  0.115791589	3.866100E+01	  0.115791589	7.593200E+01	  0.115791589	3.719700E+01
480	  0.115991987	-9.235000E+00	  0.115991987	3.781000E+01	  0.115991987	7.677200E+01	  0.115991987	3.690500E+01
481	  0.116192386	-9.235000E+00	  0.116192386	3.690100E+01	  0.116192386	7.767100E+01	  0.116192386	3.656800E+01
482	  0.116392791	-9.233000E+00	  0.116392791	3.595100E+01	  0.116392791	7.862100E+01	  0.116392791	3.620500E+01
483	  0.116593190	-9.237000E+00	  0.116593190	3.503800E+01	  0.116593190	7.951700E+01	  0.116593190	3.578900E+01
484	  0.116793588	-9.239000E+00	  0.116793588	3.403300E+01	  0.116793588	8.051000E+01	  0.116793588	3.531500E+01
485	  0.116993994	-9.244000E+00	  0.116993994	3.306200E+01	  0.116993994	8.145600E+01	  0.116993994	3.480300E+01
486	  0.117194392	-9.257000E+00	  0.117194392	3.206200E+01	  0.117194392	8.239800E+01	  0.117194392	3.419000E+01
487	  0.117394790	-9.265000E+00	  0.117394790	3.106400E+01	  0.117394790	8.334500E+01	  0.117394790	3.357600E+01
488	  0.117595196	-9.282000E+00	  0.117595196	3.001700E+01	  0.117595196	8.429500E+01	  0.117595196	3.284100E+01
489	  0.117795594	-9.288000E+00	  0.117795594	2.897100E+01	  0.117795594	8.527700E+01	  0.117795594	3.214000E+01
490	  0.117995992	-9.314000E+00	  0.117995992	2.789100E+01	  0.117995992	8.618600E+01	  0.117995992	3.125300E+01
491	  0.118196398	-9.334000E+00	  0.118196398	2.682100E+01	  0.118196398	8.708900E+01	  0.118196398	3.037300E+01
492	  0.118396796	-9.355000E+00	  0.118396796	2.570300E+01	  0.118396796	8.800800E+01	  0.118396796	2.941300E+01
493	  0.118597202	-9.378000E+00	  0.118597202	2.451600E+01	  0.118597202	8.894900E+01	  0.118597202	2.834800E+01
494	  0.118797600	-9.409000E+00	  0.118797600	2.336200E+01	  0.118797600	8.977900E+01	  0.118797600	2.721800E+01
495	  0.118997999	-9.442000E+00	  0.118997999	2.220800E+01	  0.118997999	9.056000E+01	  0.118997999	2.604500E+01
496	  0.119198404	-9.479000E+00	  0.119198404	2.099000E+01	  0.119198404	9.132200E+01	  0.119198404	2.475700E+01
497	  0.119398803	-9.517000E+00	  0.119398803	1.978300E+01	  0.119398803	9.202300E+01	  0.119398803	2.344500E+01
498	  0.119599201	-9.556000E+00	  0.119599201	1.850500E+01	  0.119599201	9.271200E+01	  0.119599201	2.202500E+01
499	  0.119799607	-9.600000E+00	  0.119799607	1.729300E+01	  0.119799607	9.325900E+01	  0.119799607	2.061800E+01
500	  0.120000005	-9.650000E+00	  0.120000005	1.597600E+01	  0.120000005	9.377800E+01	  0.120000005	1.906100E+01
