! Anritsu VNA Master:             	Model: MS2036C/10/77
! SN:             	1601066
! /bd0/18may09/254.ew.m9.txt
! Existing Calibration Information:
! TYPE:             	Current Settings	Active Cal Settings
! TIME:             	05/09/2018 12:01:43 PM	05/09/2018 11:52:33 AM
! INTERNAL TEMP:    	54.3 C	53.5 C
! # POINTS:         	494	494
! START FREQ:       	20.000 MHz	20.000 MHz
! STOP FREQ:        	118.797 594 MHz	118.797 594 MHz
! SOURCE POWER:     	High	High
! IFBW:             	50 Hz	50 Hz
! AVG FACTOR:       	  1 	  1 
! REF PLANE 1:      	0 mm	0 mm
! REF PLANE 2:      	0 mm	0 mm
! CAL TYPE:         	Full S22	Full S22
! CAL METHOD:       	SOLT	SOLT
! CAL LINE TYPE:    	Coax	Coax
! DUT PORT 1:       	K-Conn(M)	K-Conn(M)
! DUT PORT 2:       	K-Conn(M)	K-Conn(M)
! CAL STATUS:       	OK: Accuracy High	--
! PROP-V:       	0.700
! CABLE LOSS:       	0.000 dB/m
! REF IMPEDANCE:       	50.0
! Trace Specific Parameters:	TR1	TR2	TR3	TR4
! TRACE.#.Y (GRAPH TYPE)	LOG MAG	PHASE	REAL IMPEDANCE	IMAGINARY IMPEDANCE
! TRACE.#.X 	FREQ.GHZ	FREQ.GHZ	FREQ.GHZ	FREQ.GHZ
! S-PARAMETER	S22	S22	S22	S22
! SMOOTH/APERTURE %	0	0	0	0
! WINDOW	NSL	NSL	NSL	NSL
! GATING	OFF	OFF	OFF	OFF
! FGTD	OFF	OFF	OFF	OFF
Marker Information per Trace:	TR1	TR2	TR3	TR4
!MK1	--	"MK1 TR2:  20.000 MHz,PH:-126.61°"	--	--
!MK2	--	--	"MK2 TR3:  70.100 200 MHz,Z:(16.131 ohm, -1.022 ohm)"	--
!MK3	--	--	--	--
!MK4	--	--	--	--
!MK5	--	--	--	--
!MK6	--	--	--	--
!MK7	--	--	--	--
!MK8	--	--	--	--
PNT	TR1.FREQ.GHZ	TR1.LOG MAG.dB	TR2.FREQ.GHZ	TR2.PHASE.deg	TR3.FREQ.GHZ	TR3.REAL IMPEDANCE.ohm	TR4.FREQ.GHZ	TR4.IMAGINARY IMPEDANCE.ohm
1	  0.020000000	-6.400000E-01	  0.020000000	-1.266070E+02	  0.020000000	2.308000E+00	  0.020000000	-2.510000E+01
2	  0.020200402	-6.400000E-01	  0.020200402	-1.280840E+02	  0.020200402	2.279000E+00	  0.020200402	-2.430000E+01
3	  0.020400802	-6.440000E-01	  0.020400802	-1.295570E+02	  0.020400802	2.264000E+00	  0.020400802	-2.351100E+01
4	  0.020601204	-6.460000E-01	  0.020601204	-1.310640E+02	  0.020601204	2.246000E+00	  0.020601204	-2.271400E+01
5	  0.020801604	-6.490000E-01	  0.020801604	-1.326000E+02	  0.020801604	2.229000E+00	  0.020801604	-2.191100E+01
6	  0.021002004	-6.510000E-01	  0.021002004	-1.341440E+02	  0.021002004	2.209000E+00	  0.021002004	-2.111400E+01
7	  0.021202406	-6.520000E-01	  0.021202406	-1.356930E+02	  0.021202406	2.189000E+00	  0.021202406	-2.032300E+01
8	  0.021402806	-6.570000E-01	  0.021402806	-1.372400E+02	  0.021402806	2.182000E+00	  0.021402806	-1.954100E+01
9	  0.021603208	-6.580000E-01	  0.021603208	-1.387700E+02	  0.021603208	2.161000E+00	  0.021603208	-1.877700E+01
10	  0.021803608	-6.620000E-01	  0.021803608	-1.403170E+02	  0.021803608	2.153000E+00	  0.021803608	-1.801200E+01
11	  0.022004008	-6.670000E-01	  0.022004008	-1.418650E+02	  0.022004008	2.149000E+00	  0.022004008	-1.725300E+01
12	  0.022204408	-6.690000E-01	  0.022204408	-1.434440E+02	  0.022204408	2.135000E+00	  0.022204408	-1.648700E+01
13	  0.022404809	-6.780000E-01	  0.022404809	-1.450140E+02	  0.022404809	2.146000E+00	  0.022404809	-1.573100E+01
14	  0.022605211	-6.820000E-01	  0.022605211	-1.466090E+02	  0.022605211	2.141000E+00	  0.022605211	-1.497000E+01
15	  0.022805611	-6.830000E-01	  0.022805611	-1.482020E+02	  0.022805611	2.125000E+00	  0.022805611	-1.421700E+01
16	  0.023006011	-6.850000E-01	  0.023006011	-1.498010E+02	  0.023006011	2.115000E+00	  0.023006011	-1.346700E+01
17	  0.023206413	-6.900000E-01	  0.023206413	-1.513770E+02	  0.023206413	2.115000E+00	  0.023206413	-1.273300E+01
18	  0.023406813	-6.960000E-01	  0.023406813	-1.529580E+02	  0.023406813	2.118000E+00	  0.023406813	-1.200200E+01
19	  0.023607215	-7.030000E-01	  0.023607215	-1.545350E+02	  0.023607215	2.126000E+00	  0.023607215	-1.127800E+01
20	  0.023807615	-7.120000E-01	  0.023807615	-1.561360E+02	  0.023807615	2.141000E+00	  0.023807615	-1.054700E+01
21	  0.024008015	-7.170000E-01	  0.024008015	-1.577660E+02	  0.024008015	2.143000E+00	  0.024008015	-9.807000E+00
22	  0.024208417	-7.230000E-01	  0.024208417	-1.594080E+02	  0.024208417	2.151000E+00	  0.024208417	-9.066000E+00
23	  0.024408817	-7.300000E-01	  0.024408817	-1.610550E+02	  0.024408817	2.158000E+00	  0.024408817	-8.327000E+00
24	  0.024609219	-7.360000E-01	  0.024609219	-1.626960E+02	  0.024609219	2.166000E+00	  0.024609219	-7.594000E+00
25	  0.024809619	-7.440000E-01	  0.024809619	-1.643470E+02	  0.024809619	2.182000E+00	  0.024809619	-6.859000E+00
26	  0.025010020	-7.530000E-01	  0.025010020	-1.660030E+02	  0.025010020	2.199000E+00	  0.025010020	-6.125000E+00
27	  0.025210422	-7.640000E-01	  0.025210422	-1.676760E+02	  0.025210422	2.224000E+00	  0.025210422	-5.387000E+00
28	  0.025410822	-7.740000E-01	  0.025410822	-1.693620E+02	  0.025410822	2.245000E+00	  0.025410822	-4.645000E+00
29	  0.025611224	-7.850000E-01	  0.025611224	-1.710630E+02	  0.025611224	2.272000E+00	  0.025611224	-3.899000E+00
30	  0.025811624	-7.950000E-01	  0.025811624	-1.727750E+02	  0.025811624	2.297000E+00	  0.025811624	-3.149000E+00
31	  0.026012026	-8.070000E-01	  0.026012026	-1.745060E+02	  0.026012026	2.326000E+00	  0.026012026	-2.393000E+00
32	  0.026212426	-8.180000E-01	  0.026212426	-1.762470E+02	  0.026212426	2.357000E+00	  0.026212426	-1.634000E+00
33	  0.026412826	-8.320000E-01	  0.026412826	-1.779900E+02	  0.026412826	2.394000E+00	  0.026412826	-8.750000E-01
34	  0.026613226	-8.460000E-01	  0.026613226	-1.797570E+02	  0.026613226	2.435000E+00	  0.026613226	-1.050000E-01
35	  0.026813626	-8.610000E-01	  0.026813626	1.784720E+02	  0.026813626	2.477000E+00	  0.026813626	6.640000E-01
36	  0.027014028	-8.760000E-01	  0.027014028	1.766920E+02	  0.027014028	2.521000E+00	  0.027014028	1.439000E+00
37	  0.027214428	-8.920000E-01	  0.027214428	1.749030E+02	  0.027214428	2.571000E+00	  0.027214428	2.219000E+00
38	  0.027414829	-9.070000E-01	  0.027414829	1.731190E+02	  0.027414829	2.620000E+00	  0.027414829	2.997000E+00
39	  0.027615231	-9.250000E-01	  0.027615231	1.712990E+02	  0.027615231	2.676000E+00	  0.027615231	3.792000E+00
40	  0.027815631	-9.410000E-01	  0.027815631	1.694760E+02	  0.027815631	2.731000E+00	  0.027815631	4.591000E+00
41	  0.028016033	-9.580000E-01	  0.028016033	1.676500E+02	  0.028016033	2.789000E+00	  0.028016033	5.392000E+00
42	  0.028216433	-9.780000E-01	  0.028216433	1.657940E+02	  0.028216433	2.857000E+00	  0.028216433	6.210000E+00
43	  0.028416833	-9.960000E-01	  0.028416833	1.639560E+02	  0.028416833	2.921000E+00	  0.028416833	7.022000E+00
44	  0.028617235	-1.016000E+00	  0.028617235	1.621080E+02	  0.028617235	2.993000E+00	  0.028617235	7.843000E+00
45	  0.028817635	-1.035000E+00	  0.028817635	1.602560E+02	  0.028817635	3.067000E+00	  0.028817635	8.669000E+00
46	  0.029018037	-1.056000E+00	  0.029018037	1.584140E+02	  0.029018037	3.147000E+00	  0.029018037	9.494000E+00
47	  0.029218437	-1.079000E+00	  0.029218437	1.565480E+02	  0.029218437	3.236000E+00	  0.029218437	1.033600E+01
48	  0.029418837	-1.102000E+00	  0.029418837	1.546620E+02	  0.029418837	3.329000E+00	  0.029418837	1.119100E+01
49	  0.029619239	-1.125000E+00	  0.029619239	1.527860E+02	  0.029619239	3.423000E+00	  0.029619239	1.204800E+01
50	  0.029819639	-1.150000E+00	  0.029819639	1.508970E+02	  0.029819639	3.529000E+00	  0.029819639	1.291800E+01
51	  0.030020041	-1.175000E+00	  0.030020041	1.489950E+02	  0.030020041	3.637000E+00	  0.030020041	1.380000E+01
52	  0.030220442	-1.200000E+00	  0.030220442	1.471070E+02	  0.030220442	3.747000E+00	  0.030220442	1.468300E+01
53	  0.030420844	-1.226000E+00	  0.030420844	1.452120E+02	  0.030420844	3.869000E+00	  0.030420844	1.557700E+01
54	  0.030621244	-1.254000E+00	  0.030621244	1.433290E+02	  0.030621244	3.996000E+00	  0.030621244	1.647400E+01
55	  0.030821642	-1.284000E+00	  0.030821642	1.414180E+02	  0.030821642	4.139000E+00	  0.030821642	1.739300E+01
56	  0.031022044	-1.314000E+00	  0.031022044	1.394930E+02	  0.031022044	4.288000E+00	  0.031022044	1.832900E+01
57	  0.031222444	-1.338000E+00	  0.031222444	1.375740E+02	  0.031222444	4.419000E+00	  0.031222444	1.927400E+01
58	  0.031422846	-1.371000E+00	  0.031422846	1.356210E+02	  0.031422846	4.591000E+00	  0.031422846	2.024600E+01
59	  0.031623244	-1.405000E+00	  0.031623244	1.336500E+02	  0.031623244	4.769000E+00	  0.031623244	2.123900E+01
60	  0.031823646	-1.439000E+00	  0.031823646	1.316830E+02	  0.031823646	4.958000E+00	  0.031823646	2.224300E+01
61	  0.032024048	-1.473000E+00	  0.032024048	1.296950E+02	  0.032024048	5.156000E+00	  0.032024048	2.327200E+01
62	  0.032224450	-1.508000E+00	  0.032224450	1.277250E+02	  0.032224450	5.363000E+00	  0.032224450	2.430700E+01
63	  0.032424849	-1.545000E+00	  0.032424849	1.257400E+02	  0.032424849	5.589000E+00	  0.032424849	2.536400E+01
64	  0.032625251	-1.583000E+00	  0.032625251	1.237160E+02	  0.032625251	5.830000E+00	  0.032625251	2.646100E+01
65	  0.032825653	-1.620000E+00	  0.032825653	1.216840E+02	  0.032825653	6.083000E+00	  0.032825653	2.757900E+01
66	  0.033026051	-1.656000E+00	  0.033026051	1.196360E+02	  0.033026051	6.343000E+00	  0.033026051	2.872800E+01
67	  0.033226453	-1.693000E+00	  0.033226453	1.176000E+02	  0.033226453	6.619000E+00	  0.033226453	2.989100E+01
68	  0.033426855	-1.732000E+00	  0.033426855	1.155690E+02	  0.033426855	6.915000E+00	  0.033426855	3.107200E+01
69	  0.033627257	-1.771000E+00	  0.033627257	1.135180E+02	  0.033627257	7.229000E+00	  0.033627257	3.228800E+01
70	  0.033827655	-1.811000E+00	  0.033827655	1.114770E+02	  0.033827655	7.567000E+00	  0.033827655	3.352200E+01
71	  0.034028057	-1.850000E+00	  0.034028057	1.094030E+02	  0.034028057	7.920000E+00	  0.034028057	3.480400E+01
72	  0.034228459	-1.892000E+00	  0.034228459	1.073380E+02	  0.034228459	8.306000E+00	  0.034228459	3.610700E+01
73	  0.034428857	-1.934000E+00	  0.034428857	1.052630E+02	  0.034428857	8.716000E+00	  0.034428857	3.744500E+01
74	  0.034629259	-1.976000E+00	  0.034629259	1.031730E+02	  0.034629259	9.153000E+00	  0.034629259	3.882600E+01
75	  0.034829661	-2.018000E+00	  0.034829661	1.010950E+02	  0.034829661	9.614000E+00	  0.034829661	4.023100E+01
76	  0.035030060	-2.065000E+00	  0.035030060	9.902600E+01	  0.035030060	1.012700E+01	  0.035030060	4.166100E+01
77	  0.035230462	-2.108000E+00	  0.035230462	9.693700E+01	  0.035230462	1.065500E+01	  0.035230462	4.314400E+01
78	  0.035430863	-2.156000E+00	  0.035430863	9.486400E+01	  0.035430863	1.124000E+01	  0.035430863	4.465000E+01
79	  0.035631265	-2.202000E+00	  0.035631265	9.278200E+01	  0.035631265	1.185600E+01	  0.035631265	4.620500E+01
80	  0.035831664	-2.251000E+00	  0.035831664	9.072500E+01	  0.035831664	1.252400E+01	  0.035831664	4.777700E+01
81	  0.036032066	-2.298000E+00	  0.036032066	8.862300E+01	  0.036032066	1.323500E+01	  0.036032066	4.943200E+01
82	  0.036232468	-2.347000E+00	  0.036232468	8.654000E+01	  0.036232468	1.401100E+01	  0.036232468	5.111400E+01
83	  0.036432866	-2.397000E+00	  0.036432866	8.444900E+01	  0.036432866	1.484500E+01	  0.036432866	5.285000E+01
84	  0.036633268	-2.449000E+00	  0.036633268	8.237700E+01	  0.036633268	1.574500E+01	  0.036633268	5.461700E+01
85	  0.036833670	-2.500000E+00	  0.036833670	8.029700E+01	  0.036833670	1.671500E+01	  0.036833670	5.644100E+01
86	  0.037034072	-2.554000E+00	  0.037034072	7.821900E+01	  0.037034072	1.777000E+01	  0.037034072	5.831200E+01
87	  0.037234470	-2.607000E+00	  0.037234470	7.613700E+01	  0.037234470	1.890700E+01	  0.037234470	6.024300E+01
88	  0.037434869	-2.661000E+00	  0.037434869	7.407000E+01	  0.037434869	2.013700E+01	  0.037434869	6.221000E+01
89	  0.037635271	-2.714000E+00	  0.037635271	7.200500E+01	  0.037635271	2.144900E+01	  0.037635271	6.423700E+01
90	  0.037835669	-2.767000E+00	  0.037835669	6.988100E+01	  0.037835669	2.291100E+01	  0.037835669	6.638300E+01
91	  0.038036071	-2.825000E+00	  0.038036071	6.776300E+01	  0.038036071	2.452700E+01	  0.038036071	6.856900E+01
92	  0.038236473	-2.880000E+00	  0.038236473	6.564500E+01	  0.038236473	2.625500E+01	  0.038236473	7.082900E+01
93	  0.038436871	-2.939000E+00	  0.038436871	6.353000E+01	  0.038436871	2.817600E+01	  0.038436871	7.312300E+01
94	  0.038637273	-2.998000E+00	  0.038637273	6.142100E+01	  0.038637273	3.026300E+01	  0.038637273	7.546400E+01
95	  0.038837675	-3.051000E+00	  0.038837675	5.931600E+01	  0.038837675	3.247800E+01	  0.038837675	7.788900E+01
96	  0.039038073	-3.105000E+00	  0.039038073	5.721200E+01	  0.039038073	3.491200E+01	  0.039038073	8.035600E+01
97	  0.039238475	-3.160000E+00	  0.039238475	5.510900E+01	  0.039238475	3.757400E+01	  0.039238475	8.286700E+01
98	  0.039438877	-3.213000E+00	  0.039438877	5.301900E+01	  0.039438877	4.046500E+01	  0.039438877	8.540100E+01
99	  0.039639279	-3.268000E+00	  0.039639279	5.091100E+01	  0.039639279	4.367000E+01	  0.039639279	8.797500E+01
100	  0.039839678	-3.322000E+00	  0.039839678	4.880000E+01	  0.039839678	4.717800E+01	  0.039839678	9.056900E+01
101	  0.040040080	-3.375000E+00	  0.040040080	4.668700E+01	  0.040040080	5.102500E+01	  0.040040080	9.316300E+01
102	  0.040240481	-3.426000E+00	  0.040240481	4.458000E+01	  0.040240481	5.521700E+01	  0.040240481	9.574100E+01
103	  0.040440880	-3.475000E+00	  0.040440880	4.247900E+01	  0.040440880	5.979500E+01	  0.040440880	9.826300E+01
104	  0.040641282	-3.527000E+00	  0.040641282	4.041500E+01	  0.040641282	6.475600E+01	  0.040641282	1.006030E+02
105	  0.040841684	-3.578000E+00	  0.040841684	3.834300E+01	  0.040841684	7.021200E+01	  0.040841684	1.027820E+02
106	  0.041042086	-3.631000E+00	  0.041042086	3.627700E+01	  0.041042086	7.616400E+01	  0.041042086	1.047220E+02
107	  0.041242484	-3.681000E+00	  0.041242484	3.421800E+01	  0.041242484	8.261400E+01	  0.041242484	1.063910E+02
108	  0.041442886	-3.732000E+00	  0.041442886	3.215600E+01	  0.041442886	8.962900E+01	  0.041442886	1.076690E+02
109	  0.041643288	-3.782000E+00	  0.041643288	3.009200E+01	  0.041643288	9.722100E+01	  0.041643288	1.084710E+02
110	  0.041843686	-3.831000E+00	  0.041843686	2.802100E+01	  0.041843686	1.053980E+02	  0.041843686	1.086990E+02
111	  0.042044088	-3.879000E+00	  0.042044088	2.597800E+01	  0.042044088	1.140100E+02	  0.042044088	1.081830E+02
112	  0.042244490	-3.928000E+00	  0.042244490	2.394400E+01	  0.042244490	1.230590E+02	  0.042244490	1.067490E+02
113	  0.042444889	-3.978000E+00	  0.042444889	2.192800E+01	  0.042444889	1.323940E+02	  0.042444889	1.042660E+02
114	  0.042645290	-4.030000E+00	  0.042645290	1.990400E+01	  0.042645290	1.419760E+02	  0.042645290	1.005300E+02
115	  0.042845692	-4.081000E+00	  0.042845692	1.789000E+01	  0.042845692	1.515460E+02	  0.042845692	9.552200E+01
116	  0.043046094	-4.130000E+00	  0.043046094	1.588500E+01	  0.043046094	1.609090E+02	  0.043046094	8.922300E+01
117	  0.043246493	-4.180000E+00	  0.043246493	1.385900E+01	  0.043246493	1.698730E+02	  0.043246493	8.135900E+01
118	  0.043446895	-4.227000E+00	  0.043446895	1.184800E+01	  0.043446895	1.780920E+02	  0.043446895	7.224600E+01
119	  0.043647297	-4.274000E+00	  0.043647297	9.858000E+00	  0.043647297	1.851430E+02	  0.043647297	6.187700E+01
120	  0.043847695	-4.321000E+00	  0.043847695	7.882000E+00	  0.043847695	1.908630E+02	  0.043847695	5.050300E+01
121	  0.044048097	-4.371000E+00	  0.044048097	5.902000E+00	  0.044048097	1.948760E+02	  0.044048097	3.818300E+01
122	  0.044248499	-4.420000E+00	  0.044248499	3.926000E+00	  0.044248499	1.972150E+02	  0.044248499	2.542500E+01
123	  0.044448901	-4.467000E+00	  0.044448901	1.955000E+00	  0.044448901	1.978580E+02	  0.044448901	1.256600E+01
124	  0.044649299	-4.515000E+00	  0.044649299	9.000000E-03	  0.044649299	1.966790E+02	  0.044649299	5.800000E-02
125	  0.044849701	-4.559000E+00	  0.044849701	-1.948000E+00	  0.044849701	1.940430E+02	  0.044849701	-1.200600E+01
126	  0.045050103	-4.603000E+00	  0.045050103	-3.902000E+00	  0.045050103	1.900190E+02	  0.045050103	-2.329500E+01
127	  0.045250501	-4.642000E+00	  0.045250501	-5.854000E+00	  0.045250501	1.849240E+02	  0.045250501	-3.366500E+01
128	  0.045450903	-4.684000E+00	  0.045450903	-7.790000E+00	  0.045450903	1.788130E+02	  0.045450903	-4.283200E+01
129	  0.045651305	-4.725000E+00	  0.045651305	-9.726000E+00	  0.045651305	1.720120E+02	  0.045651305	-5.086800E+01
130	  0.045851704	-4.766000E+00	  0.045851704	-1.163300E+01	  0.045851704	1.648460E+02	  0.045851704	-5.764000E+01
131	  0.046052102	-4.805000E+00	  0.046052102	-1.353000E+01	  0.046052102	1.574830E+02	  0.046052102	-6.331300E+01
132	  0.046252504	-4.846000E+00	  0.046252504	-1.541200E+01	  0.046252504	1.500540E+02	  0.046252504	-6.788600E+01
133	  0.046452906	-4.883000E+00	  0.046452906	-1.727000E+01	  0.046452906	1.428370E+02	  0.046452906	-7.159500E+01
134	  0.046653304	-4.921000E+00	  0.046653304	-1.914500E+01	  0.046653304	1.356730E+02	  0.046653304	-7.448700E+01
135	  0.046853706	-4.957000E+00	  0.046853706	-2.099500E+01	  0.046853706	1.288290E+02	  0.046853706	-7.664700E+01
136	  0.047054108	-4.991000E+00	  0.047054108	-2.283100E+01	  0.047054108	1.223090E+02	  0.047054108	-7.820000E+01
137	  0.047254506	-5.025000E+00	  0.047254506	-2.468100E+01	  0.047254506	1.160340E+02	  0.047254506	-7.924200E+01
138	  0.047454908	-5.054000E+00	  0.047454908	-2.650200E+01	  0.047454908	1.101780E+02	  0.047454908	-7.989400E+01
139	  0.047655310	-5.087000E+00	  0.047655310	-2.831100E+01	  0.047655310	1.046540E+02	  0.047655310	-8.009000E+01
140	  0.047855709	-5.118000E+00	  0.047855709	-3.009700E+01	  0.047855709	9.950600E+01	  0.047855709	-7.996400E+01
141	  0.048056111	-5.152000E+00	  0.048056111	-3.185900E+01	  0.048056111	9.472200E+01	  0.048056111	-7.953400E+01
142	  0.048256513	-5.183000E+00	  0.048256513	-3.362500E+01	  0.048256513	9.021200E+01	  0.048256513	-7.893700E+01
143	  0.048456915	-5.215000E+00	  0.048456915	-3.538600E+01	  0.048456915	8.599400E+01	  0.048456915	-7.814900E+01
144	  0.048657313	-5.244000E+00	  0.048657313	-3.713400E+01	  0.048657313	8.205800E+01	  0.048657313	-7.726400E+01
145	  0.048857715	-5.273000E+00	  0.048857715	-3.888900E+01	  0.048857715	7.835400E+01	  0.048857715	-7.625000E+01
146	  0.049058117	-5.299000E+00	  0.049058117	-4.063600E+01	  0.049058117	7.488600E+01	  0.049058117	-7.518000E+01
147	  0.049258515	-5.326000E+00	  0.049258515	-4.235400E+01	  0.049258515	7.169000E+01	  0.049258515	-7.403900E+01
148	  0.049458917	-5.352000E+00	  0.049458917	-4.405300E+01	  0.049458917	6.872300E+01	  0.049458917	-7.284400E+01
149	  0.049659319	-5.382000E+00	  0.049659319	-4.574800E+01	  0.049659319	6.595400E+01	  0.049659319	-7.157300E+01
150	  0.049859721	-5.408000E+00	  0.049859721	-4.744300E+01	  0.049859721	6.334100E+01	  0.049859721	-7.030400E+01
151	  0.050060119	-5.433000E+00	  0.050060119	-4.912000E+01	  0.050060119	6.091200E+01	  0.050060119	-6.902500E+01
152	  0.050260521	-5.458000E+00	  0.050260521	-5.081700E+01	  0.050260521	5.859200E+01	  0.050260521	-6.773000E+01
153	  0.050460923	-5.478000E+00	  0.050460923	-5.248600E+01	  0.050460923	5.643100E+01	  0.050460923	-6.647100E+01
154	  0.050661322	-5.499000E+00	  0.050661322	-5.415100E+01	  0.050661322	5.440400E+01	  0.050661322	-6.519800E+01
155	  0.050861724	-5.518000E+00	  0.050861724	-5.582600E+01	  0.050861724	5.246800E+01	  0.050861724	-6.393500E+01
156	  0.051062126	-5.538000E+00	  0.051062126	-5.748500E+01	  0.051062126	5.066700E+01	  0.051062126	-6.267000E+01
157	  0.051262524	-5.561000E+00	  0.051262524	-5.909000E+01	  0.051262524	4.903600E+01	  0.051262524	-6.142500E+01
158	  0.051462926	-5.581000E+00	  0.051462926	-6.068400E+01	  0.051462926	4.749300E+01	  0.051462926	-6.021100E+01
159	  0.051663328	-5.597000E+00	  0.051663328	-6.231100E+01	  0.051663328	4.598000E+01	  0.051663328	-5.901200E+01
160	  0.051863730	-5.616000E+00	  0.051863730	-6.388800E+01	  0.051863730	4.460900E+01	  0.051863730	-5.783300E+01
161	  0.052064128	-5.628000E+00	  0.052064128	-6.548700E+01	  0.052064128	4.326000E+01	  0.052064128	-5.668600E+01
162	  0.052264530	-5.638000E+00	  0.052264530	-6.705600E+01	  0.052264530	4.199400E+01	  0.052264530	-5.558100E+01
163	  0.052464932	-5.650000E+00	  0.052464932	-6.860200E+01	  0.052464932	4.081400E+01	  0.052464932	-5.449300E+01
164	  0.052665330	-5.665000E+00	  0.052665330	-7.014400E+01	  0.052665330	3.971400E+01	  0.052665330	-5.339400E+01
165	  0.052865732	-5.675000E+00	  0.052865732	-7.166300E+01	  0.052865732	3.865500E+01	  0.052865732	-5.235300E+01
166	  0.053066134	-5.686000E+00	  0.053066134	-7.316500E+01	  0.053066134	3.766800E+01	  0.053066134	-5.132100E+01
167	  0.053266536	-5.697000E+00	  0.053266536	-7.467000E+01	  0.053266536	3.672100E+01	  0.053266536	-5.030300E+01
168	  0.053466935	-5.705000E+00	  0.053466935	-7.616000E+01	  0.053466935	3.581500E+01	  0.053466935	-4.931700E+01
169	  0.053667337	-5.716000E+00	  0.053667337	-7.763800E+01	  0.053667337	3.496800E+01	  0.053667337	-4.833800E+01
170	  0.053867739	-5.720000E+00	  0.053867739	-7.910100E+01	  0.053867739	3.414300E+01	  0.053867739	-4.740200E+01
171	  0.054068137	-5.727000E+00	  0.054068137	-8.056300E+01	  0.054068137	3.336200E+01	  0.054068137	-4.646700E+01
172	  0.054268539	-5.732000E+00	  0.054268539	-8.203800E+01	  0.054268539	3.260000E+01	  0.054268539	-4.554300E+01
173	  0.054468941	-5.739000E+00	  0.054468941	-8.345600E+01	  0.054468941	3.190800E+01	  0.054468941	-4.465400E+01
174	  0.054669335	-5.751000E+00	  0.054669335	-8.490300E+01	  0.054669335	3.125000E+01	  0.054669335	-4.374300E+01
175	  0.054869737	-5.758000E+00	  0.054869737	-8.632500E+01	  0.054869737	3.061300E+01	  0.054869737	-4.287300E+01
176	  0.055070139	-5.766000E+00	  0.055070139	-8.773200E+01	  0.055070139	3.001300E+01	  0.055070139	-4.201800E+01
177	  0.055270538	-5.772000E+00	  0.055270538	-8.915900E+01	  0.055270538	2.942300E+01	  0.055270538	-4.116600E+01
178	  0.055470940	-5.779000E+00	  0.055470940	-9.057200E+01	  0.055470940	2.886300E+01	  0.055470940	-4.033100E+01
179	  0.055671342	-5.784000E+00	  0.055671342	-9.199900E+01	  0.055671342	2.831200E+01	  0.055671342	-3.950200E+01
180	  0.055871744	-5.791000E+00	  0.055871744	-9.340900E+01	  0.055871744	2.780000E+01	  0.055871744	-3.868600E+01
181	  0.056072142	-5.794000E+00	  0.056072142	-9.480900E+01	  0.056072142	2.729300E+01	  0.056072142	-3.789700E+01
182	  0.056272544	-5.803000E+00	  0.056272544	-9.621000E+01	  0.056272544	2.683200E+01	  0.056272544	-3.709800E+01
183	  0.056472946	-5.808000E+00	  0.056472946	-9.762100E+01	  0.056472946	2.637000E+01	  0.056472946	-3.631300E+01
184	  0.056673344	-5.813000E+00	  0.056673344	-9.900300E+01	  0.056673344	2.593100E+01	  0.056673344	-3.555500E+01
185	  0.056873746	-5.818000E+00	  0.056873746	-1.003970E+02	  0.056873746	2.550900E+01	  0.056873746	-3.479600E+01
186	  0.057074148	-5.819000E+00	  0.057074148	-1.017740E+02	  0.057074148	2.509400E+01	  0.057074148	-3.406200E+01
187	  0.057274550	-5.825000E+00	  0.057274550	-1.031740E+02	  0.057274550	2.470700E+01	  0.057274550	-3.331200E+01
188	  0.057474948	-5.829000E+00	  0.057474948	-1.045340E+02	  0.057474948	2.433500E+01	  0.057474948	-3.259800E+01
189	  0.057675350	-5.832000E+00	  0.057675350	-1.059090E+02	  0.057675350	2.397300E+01	  0.057675350	-3.188200E+01
190	  0.057875752	-5.833000E+00	  0.057875752	-1.072770E+02	  0.057875752	2.361700E+01	  0.057875752	-3.118200E+01
191	  0.058076151	-5.833000E+00	  0.058076151	-1.086440E+02	  0.058076151	2.327300E+01	  0.058076151	-3.048900E+01
192	  0.058276553	-5.834000E+00	  0.058276553	-1.099880E+02	  0.058276553	2.295000E+01	  0.058276553	-2.981300E+01
193	  0.058476955	-5.832000E+00	  0.058476955	-1.113010E+02	  0.058476955	2.263600E+01	  0.058476955	-2.916300E+01
194	  0.058677353	-5.831000E+00	  0.058677353	-1.126530E+02	  0.058677353	2.232600E+01	  0.058677353	-2.849700E+01
195	  0.058877755	-5.832000E+00	  0.058877755	-1.139680E+02	  0.058877755	2.204200E+01	  0.058877755	-2.785300E+01
196	  0.059078157	-5.825000E+00	  0.059078157	-1.152710E+02	  0.059078157	2.174400E+01	  0.059078157	-2.723200E+01
197	  0.059278559	-5.822000E+00	  0.059278559	-1.165710E+02	  0.059278559	2.147300E+01	  0.059278559	-2.660900E+01
198	  0.059478957	-5.820000E+00	  0.059478957	-1.178300E+02	  0.059478957	2.121800E+01	  0.059478957	-2.601100E+01
199	  0.059679359	-5.817000E+00	  0.059679359	-1.191350E+02	  0.059679359	2.096100E+01	  0.059679359	-2.539600E+01
200	  0.059879761	-5.816000E+00	  0.059879761	-1.203730E+02	  0.059879761	2.073200E+01	  0.059879761	-2.481500E+01
201	  0.060080159	-5.814000E+00	  0.060080159	-1.215990E+02	  0.060080159	2.050900E+01	  0.060080159	-2.424500E+01
202	  0.060280561	-5.811000E+00	  0.060280561	-1.228530E+02	  0.060280561	2.028700E+01	  0.060280561	-2.366600E+01
203	  0.060480963	-5.810000E+00	  0.060480963	-1.240780E+02	  0.060480963	2.008100E+01	  0.060480963	-2.310300E+01
204	  0.060681365	-5.811000E+00	  0.060681365	-1.252940E+02	  0.060681365	1.989200E+01	  0.060681365	-2.254500E+01
205	  0.060881764	-5.805000E+00	  0.060881764	-1.264910E+02	  0.060881764	1.969000E+01	  0.060881764	-2.200700E+01
206	  0.061082166	-5.807000E+00	  0.061082166	-1.277180E+02	  0.061082166	1.951200E+01	  0.061082166	-2.145100E+01
207	  0.061282568	-5.804000E+00	  0.061282568	-1.289190E+02	  0.061282568	1.933100E+01	  0.061282568	-2.091500E+01
208	  0.061482966	-5.805000E+00	  0.061482966	-1.300950E+02	  0.061482966	1.917200E+01	  0.061482966	-2.038900E+01
209	  0.061683368	-5.808000E+00	  0.061683368	-1.312940E+02	  0.061683368	1.901900E+01	  0.061683368	-1.985500E+01
210	  0.061883770	-5.807000E+00	  0.061883770	-1.324710E+02	  0.061883770	1.886400E+01	  0.061883770	-1.933700E+01
211	  0.062084168	-5.809000E+00	  0.062084168	-1.336500E+02	  0.062084168	1.872100E+01	  0.062084168	-1.881900E+01
212	  0.062284570	-5.811000E+00	  0.062284570	-1.348380E+02	  0.062284570	1.858400E+01	  0.062284570	-1.830000E+01
213	  0.062484972	-5.803000E+00	  0.062484972	-1.359780E+02	  0.062484972	1.842700E+01	  0.062484972	-1.781200E+01
214	  0.062685370	-5.803000E+00	  0.062685370	-1.371710E+02	  0.062685370	1.829500E+01	  0.062685370	-1.729700E+01
215	  0.062885776	-5.802000E+00	  0.062885776	-1.383510E+02	  0.062885776	1.816300E+01	  0.062885776	-1.679200E+01
216	  0.063086174	-5.805000E+00	  0.063086174	-1.395370E+02	  0.063086174	1.804700E+01	  0.063086174	-1.628300E+01
217	  0.063286573	-5.802000E+00	  0.063286573	-1.407160E+02	  0.063286573	1.792100E+01	  0.063286573	-1.578400E+01
218	  0.063486971	-5.804000E+00	  0.063486971	-1.418720E+02	  0.063486971	1.781500E+01	  0.063486971	-1.529400E+01
219	  0.063687377	-5.805000E+00	  0.063687377	-1.430280E+02	  0.063687377	1.771000E+01	  0.063687377	-1.480700E+01
220	  0.063887775	-5.799000E+00	  0.063887775	-1.441870E+02	  0.063887775	1.758800E+01	  0.063887775	-1.432500E+01
221	  0.064088173	-5.802000E+00	  0.064088173	-1.453770E+02	  0.064088173	1.749400E+01	  0.064088173	-1.382700E+01
222	  0.064288579	-5.801000E+00	  0.064288579	-1.465510E+02	  0.064288579	1.739300E+01	  0.064288579	-1.334000E+01
223	  0.064488977	-5.801000E+00	  0.064488977	-1.477010E+02	  0.064488977	1.730400E+01	  0.064488977	-1.286400E+01
224	  0.064689375	-5.797000E+00	  0.064689375	-1.488440E+02	  0.064689375	1.720500E+01	  0.064689375	-1.239500E+01
225	  0.064889781	-5.793000E+00	  0.064889781	-1.500140E+02	  0.064889781	1.710800E+01	  0.064889781	-1.191600E+01
226	  0.065090179	-5.792000E+00	  0.065090179	-1.511190E+02	  0.065090179	1.703000E+01	  0.065090179	-1.146400E+01
227	  0.065290578	-5.790000E+00	  0.065290578	-1.522550E+02	  0.065290578	1.694800E+01	  0.065290578	-1.100200E+01
228	  0.065490983	-5.787000E+00	  0.065490983	-1.533710E+02	  0.065490983	1.687100E+01	  0.065490983	-1.054900E+01
229	  0.065691382	-5.782000E+00	  0.065691382	-1.544790E+02	  0.065691382	1.678800E+01	  0.065691382	-1.010200E+01
230	  0.065891780	-5.778000E+00	  0.065891780	-1.556020E+02	  0.065891780	1.671400E+01	  0.065891780	-9.649000E+00
231	  0.066092186	-5.777000E+00	  0.066092186	-1.566740E+02	  0.066092186	1.665300E+01	  0.066092186	-9.217000E+00
232	  0.066292584	-5.774000E+00	  0.066292584	-1.577660E+02	  0.066292584	1.658700E+01	  0.066292584	-8.779000E+00
233	  0.066492982	-5.770000E+00	  0.066492982	-1.588600E+02	  0.066492982	1.652200E+01	  0.066492982	-8.341000E+00
234	  0.066693388	-5.769000E+00	  0.066693388	-1.599140E+02	  0.066693388	1.647100E+01	  0.066693388	-7.920000E+00
235	  0.066893786	-5.767000E+00	  0.066893786	-1.609410E+02	  0.066893786	1.642000E+01	  0.066893786	-7.510000E+00
236	  0.067094192	-5.765000E+00	  0.067094192	-1.620090E+02	  0.067094192	1.636900E+01	  0.067094192	-7.085000E+00
237	  0.067294590	-5.762000E+00	  0.067294590	-1.630500E+02	  0.067294590	1.632100E+01	  0.067294590	-6.671000E+00
238	  0.067494988	-5.767000E+00	  0.067494988	-1.640870E+02	  0.067494988	1.629400E+01	  0.067494988	-6.258000E+00
239	  0.067695394	-5.766000E+00	  0.067695394	-1.651200E+02	  0.067695394	1.625700E+01	  0.067695394	-5.849000E+00
240	  0.067895792	-5.768000E+00	  0.067895792	-1.661230E+02	  0.067895792	1.623200E+01	  0.067895792	-5.451000E+00
241	  0.068096191	-5.771000E+00	  0.068096191	-1.671770E+02	  0.068096191	1.620800E+01	  0.068096191	-5.034000E+00
242	  0.068296596	-5.770000E+00	  0.068296596	-1.682240E+02	  0.068296596	1.617500E+01	  0.068296596	-4.621000E+00
243	  0.068496995	-5.776000E+00	  0.068496995	-1.692180E+02	  0.068496995	1.616700E+01	  0.068496995	-4.228000E+00
244	  0.068697393	-5.781000E+00	  0.068697393	-1.702180E+02	  0.068697393	1.615700E+01	  0.068697393	-3.834000E+00
245	  0.068897791	-5.782000E+00	  0.068897791	-1.712480E+02	  0.068897791	1.614000E+01	  0.068897791	-3.429000E+00
246	  0.069098189	-5.785000E+00	  0.069098189	-1.722680E+02	  0.069098189	1.612700E+01	  0.069098189	-3.028000E+00
247	  0.069298595	-5.793000E+00	  0.069298595	-1.732770E+02	  0.069298595	1.613300E+01	  0.069298595	-2.631000E+00
248	  0.069498993	-5.794000E+00	  0.069498993	-1.743070E+02	  0.069498993	1.612100E+01	  0.069498993	-2.227000E+00
249	  0.069699399	-5.799000E+00	  0.069699399	-1.753460E+02	  0.069699399	1.612200E+01	  0.069699399	-1.820000E+00
250	  0.069899797	-5.806000E+00	  0.069899797	-1.763590E+02	  0.069899797	1.612900E+01	  0.069899797	-1.423000E+00
251	  0.070100196	-5.809000E+00	  0.070100196	-1.773850E+02	  0.070100196	1.613100E+01	  0.070100196	-1.022000E+00
252	  0.070300601	-5.814000E+00	  0.070300601	-1.784080E+02	  0.070300601	1.614100E+01	  0.070300601	-6.210000E-01
253	  0.070501000	-5.822000E+00	  0.070501000	-1.794150E+02	  0.070501000	1.615700E+01	  0.070501000	-2.280000E-01
254	  0.070701398	-5.824000E+00	  0.070701398	1.795750E+02	  0.070701398	1.616400E+01	  0.070701398	1.650000E-01
255	  0.070901804	-5.826000E+00	  0.070901804	1.785680E+02	  0.070901804	1.616900E+01	  0.070901804	5.590000E-01
256	  0.071102202	-5.829000E+00	  0.071102202	1.775360E+02	  0.071102202	1.618200E+01	  0.071102202	9.620000E-01
257	  0.071302600	-5.834000E+00	  0.071302600	1.765280E+02	  0.071302600	1.620200E+01	  0.071302600	1.356000E+00
258	  0.071503006	-5.836000E+00	  0.071503006	1.755160E+02	  0.071503006	1.621600E+01	  0.071503006	1.751000E+00
259	  0.071703404	-5.840000E+00	  0.071703404	1.745490E+02	  0.071703404	1.623600E+01	  0.071703404	2.129000E+00
260	  0.071903802	-5.843000E+00	  0.071903802	1.735450E+02	  0.071903802	1.625900E+01	  0.071903802	2.522000E+00
261	  0.072104208	-5.848000E+00	  0.072104208	1.725730E+02	  0.072104208	1.628600E+01	  0.072104208	2.901000E+00
262	  0.072304606	-5.844000E+00	  0.072304606	1.715960E+02	  0.072304606	1.629400E+01	  0.072304606	3.285000E+00
263	  0.072505005	-5.850000E+00	  0.072505005	1.706080E+02	  0.072505005	1.632700E+01	  0.072505005	3.671000E+00
264	  0.072705410	-5.851000E+00	  0.072705410	1.696520E+02	  0.072705410	1.635100E+01	  0.072705410	4.046000E+00
265	  0.072905809	-5.854000E+00	  0.072905809	1.686900E+02	  0.072905809	1.638200E+01	  0.072905809	4.423000E+00
266	  0.073106214	-5.857000E+00	  0.073106214	1.677470E+02	  0.073106214	1.641600E+01	  0.073106214	4.794000E+00
267	  0.073306613	-5.858000E+00	  0.073306613	1.668170E+02	  0.073306613	1.644500E+01	  0.073306613	5.159000E+00
268	  0.073507011	-5.863000E+00	  0.073507011	1.658870E+02	  0.073507011	1.648600E+01	  0.073507011	5.525000E+00
269	  0.073707417	-5.869000E+00	  0.073707417	1.649560E+02	  0.073707417	1.653100E+01	  0.073707417	5.891000E+00
270	  0.073907815	-5.870000E+00	  0.073907815	1.640360E+02	  0.073907815	1.656700E+01	  0.073907815	6.254000E+00
271	  0.074108213	-5.871000E+00	  0.074108213	1.631470E+02	  0.074108213	1.660300E+01	  0.074108213	6.605000E+00
272	  0.074308619	-5.878000E+00	  0.074308619	1.622470E+02	  0.074308619	1.665600E+01	  0.074308619	6.960000E+00
273	  0.074509017	-5.884000E+00	  0.074509017	1.613360E+02	  0.074509017	1.671000E+01	  0.074509017	7.319000E+00
274	  0.074709415	-5.883000E+00	  0.074709415	1.604380E+02	  0.074709415	1.674700E+01	  0.074709415	7.677000E+00
275	  0.074909821	-5.891000E+00	  0.074909821	1.595630E+02	  0.074909821	1.680800E+01	  0.074909821	8.023000E+00
276	  0.075110219	-5.898000E+00	  0.075110219	1.586570E+02	  0.075110219	1.687000E+01	  0.075110219	8.381000E+00
277	  0.075310618	-5.905000E+00	  0.075310618	1.577640E+02	  0.075310618	1.693300E+01	  0.075310618	8.736000E+00
278	  0.075511023	-5.911000E+00	  0.075511023	1.569020E+02	  0.075511023	1.699300E+01	  0.075511023	9.078000E+00
279	  0.075711422	-5.918000E+00	  0.075711422	1.560140E+02	  0.075711422	1.706100E+01	  0.075711422	9.432000E+00
280	  0.075911827	-5.926000E+00	  0.075911827	1.551420E+02	  0.075911827	1.713400E+01	  0.075911827	9.778000E+00
281	  0.076112226	-5.937000E+00	  0.076112226	1.542490E+02	  0.076112226	1.721400E+01	  0.076112226	1.013300E+01
282	  0.076312624	-5.940000E+00	  0.076312624	1.533690E+02	  0.076312624	1.727900E+01	  0.076312624	1.048700E+01
283	  0.076513030	-5.954000E+00	  0.076513030	1.524940E+02	  0.076513030	1.737200E+01	  0.076513030	1.083400E+01
284	  0.076713428	-5.963000E+00	  0.076713428	1.515770E+02	  0.076713428	1.745800E+01	  0.076713428	1.120100E+01
285	  0.076913826	-5.969000E+00	  0.076913826	1.506690E+02	  0.076913826	1.753800E+01	  0.076913826	1.156600E+01
286	  0.077114232	-5.978000E+00	  0.077114232	1.497950E+02	  0.077114232	1.762400E+01	  0.077114232	1.191700E+01
287	  0.077314630	-5.985000E+00	  0.077314630	1.489090E+02	  0.077314630	1.770900E+01	  0.077314630	1.227500E+01
288	  0.077515028	-5.993000E+00	  0.077515028	1.480310E+02	  0.077515028	1.779700E+01	  0.077515028	1.263000E+01
289	  0.077715434	-6.004000E+00	  0.077715434	1.471380E+02	  0.077715434	1.789900E+01	  0.077715434	1.298900E+01
290	  0.077915832	-6.010000E+00	  0.077915832	1.462230E+02	  0.077915832	1.799100E+01	  0.077915832	1.336200E+01
291	  0.078116231	-6.016000E+00	  0.078116231	1.453550E+02	  0.078116231	1.808100E+01	  0.078116231	1.371500E+01
292	  0.078316636	-6.026000E+00	  0.078316636	1.444280E+02	  0.078316636	1.819000E+01	  0.078316636	1.409200E+01
293	  0.078517035	-6.036000E+00	  0.078517035	1.435530E+02	  0.078517035	1.829600E+01	  0.078517035	1.444800E+01
294	  0.078717433	-6.041000E+00	  0.078717433	1.426510E+02	  0.078717433	1.839400E+01	  0.078717433	1.482000E+01
295	  0.078917839	-6.047000E+00	  0.078917839	1.417710E+02	  0.078917839	1.849500E+01	  0.078917839	1.518200E+01
296	  0.079118237	-6.058000E+00	  0.079118237	1.409160E+02	  0.079118237	1.861000E+01	  0.079118237	1.553200E+01
297	  0.079318643	-6.064000E+00	  0.079318643	1.400350E+02	  0.079318643	1.871900E+01	  0.079318643	1.589600E+01
298	  0.079519041	-6.072000E+00	  0.079519041	1.391730E+02	  0.079519041	1.883000E+01	  0.079519041	1.625300E+01
299	  0.079719439	-6.079000E+00	  0.079719439	1.383120E+02	  0.079719439	1.894400E+01	  0.079719439	1.661000E+01
300	  0.079919845	-6.087000E+00	  0.079919845	1.374700E+02	  0.079919845	1.906000E+01	  0.079919845	1.696000E+01
301	  0.080120243	-6.094000E+00	  0.080120243	1.365720E+02	  0.080120243	1.918200E+01	  0.080120243	1.733600E+01
302	  0.080320641	-6.102000E+00	  0.080320641	1.357000E+02	  0.080320641	1.930800E+01	  0.080320641	1.770000E+01
303	  0.080521047	-6.111000E+00	  0.080521047	1.348750E+02	  0.080521047	1.943200E+01	  0.080521047	1.804500E+01
304	  0.080721445	-6.121000E+00	  0.080721445	1.340050E+02	  0.080721445	1.956900E+01	  0.080721445	1.840900E+01
305	  0.080921844	-6.129000E+00	  0.080921844	1.332090E+02	  0.080921844	1.969300E+01	  0.080921844	1.874400E+01
306	  0.081122249	-6.143000E+00	  0.081122249	1.323770E+02	  0.081122249	1.984000E+01	  0.081122249	1.909100E+01
307	  0.081322648	-6.154000E+00	  0.081322648	1.315530E+02	  0.081322648	1.998100E+01	  0.081322648	1.943700E+01
308	  0.081523046	-6.157000E+00	  0.081523046	1.306910E+02	  0.081523046	2.011000E+01	  0.081523046	1.980700E+01
309	  0.081723452	-6.168000E+00	  0.081723452	1.298640E+02	  0.081723452	2.025700E+01	  0.081723452	2.015700E+01
310	  0.081923850	-6.177000E+00	  0.081923850	1.290280E+02	  0.081923850	2.040500E+01	  0.081923850	2.051300E+01
311	  0.082124248	-6.189000E+00	  0.082124248	1.282130E+02	  0.082124248	2.055800E+01	  0.082124248	2.085800E+01
312	  0.082324654	-6.204000E+00	  0.082324654	1.274120E+02	  0.082324654	2.072300E+01	  0.082324654	2.119500E+01
313	  0.082525052	-6.215000E+00	  0.082525052	1.265730E+02	  0.082525052	2.088700E+01	  0.082525052	2.155300E+01
314	  0.082725458	-6.229000E+00	  0.082725458	1.257720E+02	  0.082725458	2.105400E+01	  0.082725458	2.189300E+01
315	  0.082925856	-6.246000E+00	  0.082925856	1.249640E+02	  0.082925856	2.123600E+01	  0.082925856	2.223200E+01
316	  0.083126254	-6.260000E+00	  0.083126254	1.241370E+02	  0.083126254	2.141600E+01	  0.083126254	2.258500E+01
317	  0.083326660	-6.274000E+00	  0.083326660	1.233390E+02	  0.083326660	2.159300E+01	  0.083326660	2.292500E+01
318	  0.083527058	-6.291000E+00	  0.083527058	1.225240E+02	  0.083527058	2.178500E+01	  0.083527058	2.327000E+01
319	  0.083727457	-6.309000E+00	  0.083727457	1.217290E+02	  0.083727457	2.198100E+01	  0.083727457	2.360500E+01
320	  0.083927862	-6.328000E+00	  0.083927862	1.209040E+02	  0.083927862	2.218700E+01	  0.083927862	2.395400E+01
321	  0.084128261	-6.351000E+00	  0.084128261	1.200970E+02	  0.084128261	2.240800E+01	  0.084128261	2.428900E+01
322	  0.084328659	-6.363000E+00	  0.084328659	1.193090E+02	  0.084328659	2.259600E+01	  0.084328659	2.463000E+01
323	  0.084529065	-6.384000E+00	  0.084529065	1.184880E+02	  0.084529065	2.282000E+01	  0.084529065	2.497500E+01
324	  0.084729463	-6.402000E+00	  0.084729463	1.176900E+02	  0.084729463	2.303400E+01	  0.084729463	2.531500E+01
325	  0.084929854	-6.420000E+00	  0.084929854	1.168610E+02	  0.084929854	2.325900E+01	  0.084929854	2.566900E+01
326	  0.085130259	-6.437000E+00	  0.085130259	1.160420E+02	  0.085130259	2.348200E+01	  0.085130259	2.602000E+01
327	  0.085330658	-6.455000E+00	  0.085330658	1.152430E+02	  0.085330658	2.371100E+01	  0.085330658	2.636000E+01
328	  0.085531056	-6.473000E+00	  0.085531056	1.144170E+02	  0.085531056	2.394700E+01	  0.085531056	2.671500E+01
329	  0.085731462	-6.491000E+00	  0.085731462	1.135810E+02	  0.085731462	2.419000E+01	  0.085731462	2.707400E+01
330	  0.085931860	-6.511000E+00	  0.085931860	1.128290E+02	  0.085931860	2.442600E+01	  0.085931860	2.739100E+01
331	  0.086132258	-6.530000E+00	  0.086132258	1.120230E+02	  0.086132258	2.467300E+01	  0.086132258	2.773500E+01
332	  0.086332664	-6.544000E+00	  0.086332664	1.112440E+02	  0.086332664	2.490600E+01	  0.086332664	2.807400E+01
333	  0.086533062	-6.564000E+00	  0.086533062	1.104530E+02	  0.086533062	2.516100E+01	  0.086533062	2.841200E+01
334	  0.086733460	-6.584000E+00	  0.086733460	1.096410E+02	  0.086733460	2.543000E+01	  0.086733460	2.875600E+01
335	  0.086933866	-6.598000E+00	  0.086933866	1.088560E+02	  0.086933866	2.567300E+01	  0.086933866	2.910200E+01
336	  0.087134264	-6.617000E+00	  0.087134264	1.080740E+02	  0.087134264	2.593800E+01	  0.087134264	2.943600E+01
337	  0.087334670	-6.632000E+00	  0.087334670	1.072650E+02	  0.087334670	2.620400E+01	  0.087334670	2.978900E+01
338	  0.087535068	-6.656000E+00	  0.087535068	1.064740E+02	  0.087535068	2.649600E+01	  0.087535068	3.011900E+01
339	  0.087735467	-6.674000E+00	  0.087735467	1.057180E+02	  0.087735467	2.676700E+01	  0.087735467	3.044200E+01
340	  0.087935872	-6.693000E+00	  0.087935872	1.049500E+02	  0.087935872	2.704500E+01	  0.087935872	3.077000E+01
341	  0.088136271	-6.716000E+00	  0.088136271	1.041390E+02	  0.088136271	2.735600E+01	  0.088136271	3.111000E+01
342	  0.088336669	-6.734000E+00	  0.088336669	1.033730E+02	  0.088336669	2.764100E+01	  0.088336669	3.144000E+01
343	  0.088537075	-6.750000E+00	  0.088537075	1.025820E+02	  0.088537075	2.793600E+01	  0.088537075	3.178200E+01
344	  0.088737473	-6.774000E+00	  0.088737473	1.018230E+02	  0.088737473	2.824800E+01	  0.088737473	3.209500E+01
345	  0.088937871	-6.794000E+00	  0.088937871	1.010210E+02	  0.088937871	2.856600E+01	  0.088937871	3.243700E+01
346	  0.089138277	-6.821000E+00	  0.089138277	1.002800E+02	  0.089138277	2.889500E+01	  0.089138277	3.273100E+01
347	  0.089338675	-6.836000E+00	  0.089338675	9.951800E+01	  0.089338675	2.919800E+01	  0.089338675	3.306200E+01
348	  0.089539073	-6.864000E+00	  0.089539073	9.875600E+01	  0.089539073	2.954400E+01	  0.089539073	3.336400E+01
349	  0.089739479	-6.889000E+00	  0.089739479	9.800800E+01	  0.089739479	2.988200E+01	  0.089739479	3.366500E+01
350	  0.089939877	-6.917000E+00	  0.089939877	9.725300E+01	  0.089939877	3.024000E+01	  0.089939877	3.395900E+01
351	  0.090140276	-6.940000E+00	  0.090140276	9.648100E+01	  0.090140276	3.059000E+01	  0.090140276	3.427500E+01
352	  0.090340681	-6.968000E+00	  0.090340681	9.575300E+01	  0.090340681	3.095000E+01	  0.090340681	3.455200E+01
353	  0.090541080	-6.995000E+00	  0.090541080	9.499400E+01	  0.090541080	3.131800E+01	  0.090541080	3.485000E+01
354	  0.090741485	-7.024000E+00	  0.090741485	9.425600E+01	  0.090741485	3.169500E+01	  0.090741485	3.512700E+01
355	  0.090941884	-7.065000E+00	  0.090941884	9.353000E+01	  0.090941884	3.210900E+01	  0.090941884	3.536600E+01
356	  0.091142282	-7.090000E+00	  0.091142282	9.282300E+01	  0.091142282	3.247100E+01	  0.091142282	3.563400E+01
357	  0.091342688	-7.131000E+00	  0.091342688	9.207400E+01	  0.091342688	3.290200E+01	  0.091342688	3.588000E+01
358	  0.091543086	-7.163000E+00	  0.091543086	9.137000E+01	  0.091543086	3.329500E+01	  0.091543086	3.612400E+01
359	  0.091743484	-7.192000E+00	  0.091743484	9.061000E+01	  0.091743484	3.370700E+01	  0.091743484	3.640000E+01
360	  0.091943890	-7.229000E+00	  0.091943890	8.990000E+01	  0.091943890	3.412900E+01	  0.091943890	3.662700E+01
361	  0.092144288	-7.264000E+00	  0.092144288	8.917100E+01	  0.092144288	3.455900E+01	  0.092144288	3.686300E+01
362	  0.092344686	-7.298000E+00	  0.092344686	8.845000E+01	  0.092344686	3.498500E+01	  0.092344686	3.709900E+01
363	  0.092545092	-7.331000E+00	  0.092545092	8.778100E+01	  0.092545092	3.539300E+01	  0.092545092	3.730700E+01
364	  0.092745490	-7.372000E+00	  0.092745490	8.706800E+01	  0.092745490	3.584700E+01	  0.092745490	3.751000E+01
365	  0.092945889	-7.411000E+00	  0.092945889	8.638700E+01	  0.092945889	3.628700E+01	  0.092945889	3.769900E+01
366	  0.093146294	-7.447000E+00	  0.093146294	8.570800E+01	  0.093146294	3.672100E+01	  0.093146294	3.789300E+01
367	  0.093346693	-7.483000E+00	  0.093346693	8.503100E+01	  0.093346693	3.716000E+01	  0.093346693	3.808000E+01
368	  0.093547091	-7.520000E+00	  0.093547091	8.437700E+01	  0.093547091	3.759600E+01	  0.093547091	3.825000E+01
369	  0.093747497	-7.560000E+00	  0.093747497	8.367600E+01	  0.093747497	3.806800E+01	  0.093747497	3.842700E+01
370	  0.093947895	-7.602000E+00	  0.093947895	8.299500E+01	  0.093947895	3.854000E+01	  0.093947895	3.858400E+01
371	  0.094148301	-7.638000E+00	  0.094148301	8.235000E+01	  0.094148301	3.897800E+01	  0.094148301	3.874200E+01
372	  0.094348699	-7.680000E+00	  0.094348699	8.169800E+01	  0.094348699	3.944600E+01	  0.094348699	3.887300E+01
373	  0.094549097	-7.721000E+00	  0.094549097	8.104600E+01	  0.094549097	3.991200E+01	  0.094549097	3.900700E+01
374	  0.094749503	-7.762000E+00	  0.094749503	8.042400E+01	  0.094749503	4.036700E+01	  0.094749503	3.912000E+01
375	  0.094949901	-7.803000E+00	  0.094949901	7.979500E+01	  0.094949901	4.082900E+01	  0.094949901	3.923200E+01
376	  0.095150299	-7.841000E+00	  0.095150299	7.917800E+01	  0.095150299	4.128000E+01	  0.095150299	3.934400E+01
377	  0.095350705	-7.887000E+00	  0.095350705	7.853000E+01	  0.095350705	4.177200E+01	  0.095350705	3.943600E+01
378	  0.095551103	-7.925000E+00	  0.095551103	7.789400E+01	  0.095551103	4.224100E+01	  0.095551103	3.954500E+01
379	  0.095751502	-7.968000E+00	  0.095751502	7.728600E+01	  0.095751502	4.271100E+01	  0.095751502	3.961700E+01
380	  0.095951907	-8.012000E+00	  0.095951907	7.669700E+01	  0.095951907	4.317300E+01	  0.095951907	3.967500E+01
381	  0.096152306	-8.053000E+00	  0.096152306	7.609600E+01	  0.096152306	4.363800E+01	  0.096152306	3.974100E+01
382	  0.096352704	-8.099000E+00	  0.096352704	7.550800E+01	  0.096352704	4.411000E+01	  0.096352704	3.977900E+01
383	  0.096553110	-8.140000E+00	  0.096553110	7.492900E+01	  0.096553110	4.456700E+01	  0.096553110	3.982600E+01
384	  0.096753508	-8.183000E+00	  0.096753508	7.438100E+01	  0.096753508	4.501100E+01	  0.096753508	3.985000E+01
385	  0.096953906	-8.232000E+00	  0.096953906	7.380700E+01	  0.096953906	4.548900E+01	  0.096953906	3.984700E+01
386	  0.097154312	-8.274000E+00	  0.097154312	7.322600E+01	  0.097154312	4.595400E+01	  0.097154312	3.987500E+01
387	  0.097354710	-8.318000E+00	  0.097354710	7.270300E+01	  0.097354710	4.639000E+01	  0.097354710	3.986600E+01
388	  0.097555116	-8.362000E+00	  0.097555116	7.215100E+01	  0.097555116	4.684500E+01	  0.097555116	3.986200E+01
389	  0.097755514	-8.409000E+00	  0.097755514	7.162800E+01	  0.097755514	4.728800E+01	  0.097755514	3.983200E+01
390	  0.097955912	-8.452000E+00	  0.097955912	7.110800E+01	  0.097955912	4.772300E+01	  0.097955912	3.980900E+01
391	  0.098156318	-8.495000E+00	  0.098156318	7.058900E+01	  0.098156318	4.815500E+01	  0.098156318	3.978500E+01
392	  0.098356716	-8.537000E+00	  0.098356716	7.009200E+01	  0.098356716	4.857500E+01	  0.098356716	3.974700E+01
393	  0.098557115	-8.586000E+00	  0.098557115	6.961400E+01	  0.098557115	4.899400E+01	  0.098557115	3.967100E+01
394	  0.098757520	-8.624000E+00	  0.098757520	6.911300E+01	  0.098757520	4.940700E+01	  0.098757520	3.964300E+01
395	  0.098957919	-8.675000E+00	  0.098957919	6.862400E+01	  0.098957919	4.983500E+01	  0.098957919	3.955400E+01
396	  0.099158317	-8.716000E+00	  0.099158317	6.812800E+01	  0.099158317	5.025200E+01	  0.099158317	3.950000E+01
397	  0.099358723	-8.755000E+00	  0.099358723	6.763300E+01	  0.099358723	5.066400E+01	  0.099358723	3.945300E+01
398	  0.099559121	-8.800000E+00	  0.099559121	6.721900E+01	  0.099559121	5.103000E+01	  0.099559121	3.935000E+01
399	  0.099759519	-8.839000E+00	  0.099759519	6.675400E+01	  0.099759519	5.142100E+01	  0.099759519	3.928400E+01
400	  0.099959925	-8.882000E+00	  0.099959925	6.631600E+01	  0.099959925	5.179800E+01	  0.099959925	3.919100E+01
401	  0.100160323	-8.908000E+00	  0.100160323	6.587400E+01	  0.100160323	5.215300E+01	  0.100160323	3.916800E+01
402	  0.100360721	-8.952000E+00	  0.100360721	6.544800E+01	  0.100360721	5.252300E+01	  0.100360721	3.905800E+01
403	  0.100561127	-8.997000E+00	  0.100561127	6.496900E+01	  0.100561127	5.293100E+01	  0.100561127	3.894700E+01
404	  0.100761525	-9.040000E+00	  0.100761525	6.458400E+01	  0.100761525	5.326700E+01	  0.100761525	3.882600E+01
405	  0.100961931	-9.070000E+00	  0.100961931	6.414100E+01	  0.100961931	5.362800E+01	  0.100961931	3.876800E+01
406	  0.101162329	-9.113000E+00	  0.101162329	6.376200E+01	  0.101162329	5.395700E+01	  0.101162329	3.863800E+01
407	  0.101362728	-9.150000E+00	  0.101362728	6.331800E+01	  0.101362728	5.432700E+01	  0.101362728	3.854000E+01
408	  0.101563133	-9.181000E+00	  0.101563133	6.295400E+01	  0.101563133	5.462900E+01	  0.101563133	3.845800E+01
409	  0.101763532	-9.212000E+00	  0.101763532	6.258500E+01	  0.101763532	5.493600E+01	  0.101763532	3.836800E+01
410	  0.101963930	-9.254000E+00	  0.101963930	6.218100E+01	  0.101963930	5.527700E+01	  0.101963930	3.823200E+01
411	  0.102164328	-9.285000E+00	  0.102164328	6.176700E+01	  0.102164328	5.561500E+01	  0.102164328	3.814300E+01
412	  0.102364726	-9.309000E+00	  0.102364726	6.147600E+01	  0.102364726	5.585400E+01	  0.102364726	3.807000E+01
413	  0.102565125	-9.342000E+00	  0.102565125	6.107800E+01	  0.102565125	5.618000E+01	  0.102565125	3.796400E+01
414	  0.102765530	-9.377000E+00	  0.102765530	6.074400E+01	  0.102765530	5.646000E+01	  0.102765530	3.783700E+01
415	  0.102965929	-9.401000E+00	  0.102965929	6.041800E+01	  0.102965929	5.672300E+01	  0.102965929	3.776000E+01
416	  0.103166327	-9.430000E+00	  0.103166327	6.010900E+01	  0.103166327	5.697800E+01	  0.103166327	3.765200E+01
417	  0.103366733	-9.440000E+00	  0.103366733	5.977100E+01	  0.103366733	5.724000E+01	  0.103366733	3.764200E+01
418	  0.103567131	-9.480000E+00	  0.103567131	5.943000E+01	  0.103567131	5.752500E+01	  0.103567131	3.747900E+01
419	  0.103767529	-9.497000E+00	  0.103767529	5.912900E+01	  0.103767529	5.776300E+01	  0.103767529	3.742600E+01
420	  0.103967935	-9.527000E+00	  0.103967935	5.878200E+01	  0.103967935	5.804300E+01	  0.103967935	3.731000E+01
421	  0.104168333	-9.546000E+00	  0.104168333	5.849100E+01	  0.104168333	5.827500E+01	  0.104168333	3.723800E+01
422	  0.104368731	-9.556000E+00	  0.104368731	5.816200E+01	  0.104368731	5.853000E+01	  0.104368731	3.722000E+01
423	  0.104569137	-9.577000E+00	  0.104569137	5.787900E+01	  0.104569137	5.875600E+01	  0.104569137	3.713500E+01
424	  0.104769535	-9.590000E+00	  0.104769535	5.760800E+01	  0.104769535	5.896900E+01	  0.104769535	3.708600E+01
425	  0.104969934	-9.608000E+00	  0.104969934	5.730500E+01	  0.104969934	5.920800E+01	  0.104969934	3.701700E+01
426	  0.105170339	-9.623000E+00	  0.105170339	5.700600E+01	  0.105170339	5.944300E+01	  0.105170339	3.696100E+01
427	  0.105370738	-9.634000E+00	  0.105370738	5.667900E+01	  0.105370738	5.969800E+01	  0.105370738	3.692300E+01
428	  0.105571143	-9.639000E+00	  0.105571143	5.636800E+01	  0.105571143	5.994000E+01	  0.105571143	3.691100E+01
429	  0.105771542	-9.656000E+00	  0.105771542	5.604900E+01	  0.105771542	6.019100E+01	  0.105771542	3.684000E+01
430	  0.105971940	-9.659000E+00	  0.105971940	5.573600E+01	  0.105971940	6.043500E+01	  0.105971940	3.683700E+01
431	  0.106172346	-9.665000E+00	  0.106172346	5.540700E+01	  0.106172346	6.069200E+01	  0.106172346	3.681800E+01
432	  0.106372744	-9.673000E+00	  0.106372744	5.511900E+01	  0.106372744	6.091900E+01	  0.106372744	3.678400E+01
433	  0.106573142	-9.678000E+00	  0.106573142	5.480500E+01	  0.106573142	6.116500E+01	  0.106573142	3.676100E+01
434	  0.106773548	-9.684000E+00	  0.106773548	5.455300E+01	  0.106773548	6.136400E+01	  0.106773548	3.673800E+01
435	  0.106973946	-9.682000E+00	  0.106973946	5.419400E+01	  0.106973946	6.164700E+01	  0.106973946	3.675100E+01
436	  0.107174344	-9.680000E+00	  0.107174344	5.385100E+01	  0.107174344	6.191900E+01	  0.107174344	3.676300E+01
437	  0.107374750	-9.679000E+00	  0.107374750	5.347700E+01	  0.107374750	6.221700E+01	  0.107374750	3.676900E+01
438	  0.107575148	-9.679000E+00	  0.107575148	5.310200E+01	  0.107575148	6.251700E+01	  0.107575148	3.676500E+01
439	  0.107775547	-9.667000E+00	  0.107775547	5.275600E+01	  0.107775547	6.279700E+01	  0.107775547	3.682800E+01
440	  0.107975952	-9.657000E+00	  0.107975952	5.240100E+01	  0.107975952	6.308600E+01	  0.107975952	3.687400E+01
441	  0.108176351	-9.657000E+00	  0.108176351	5.202900E+01	  0.108176351	6.338800E+01	  0.108176351	3.686400E+01
442	  0.108376749	-9.646000E+00	  0.108376749	5.158300E+01	  0.108376749	6.375600E+01	  0.108376749	3.690800E+01
443	  0.108577155	-9.648000E+00	  0.108577155	5.122100E+01	  0.108577155	6.405300E+01	  0.108577155	3.688200E+01
444	  0.108777553	-9.628000E+00	  0.108777553	5.079600E+01	  0.108777553	6.441100E+01	  0.108777553	3.697500E+01
445	  0.108977959	-9.620000E+00	  0.108977959	5.038500E+01	  0.108977959	6.475600E+01	  0.108977959	3.699600E+01
446	  0.109178357	-9.606000E+00	  0.109178357	5.001900E+01	  0.109178357	6.506900E+01	  0.109178357	3.705100E+01
447	  0.109378755	-9.598000E+00	  0.109378755	4.956300E+01	  0.109378755	6.545800E+01	  0.109378755	3.706400E+01
448	  0.109579161	-9.587000E+00	  0.109579161	4.914000E+01	  0.109579161	6.582300E+01	  0.109579161	3.709800E+01
449	  0.109779559	-9.564000E+00	  0.109779559	4.864700E+01	  0.109779559	6.625700E+01	  0.109779559	3.718400E+01
450	  0.109979957	-9.545000E+00	  0.109979957	4.820700E+01	  0.109979957	6.664900E+01	  0.109979957	3.724900E+01
451	  0.110180363	-9.530000E+00	  0.110180363	4.773400E+01	  0.110180363	6.707000E+01	  0.110180363	3.728700E+01
452	  0.110380761	-9.507000E+00	  0.110380761	4.723000E+01	  0.110380761	6.752900E+01	  0.110380761	3.736400E+01
453	  0.110581160	-9.489000E+00	  0.110581160	4.674300E+01	  0.110581160	6.797500E+01	  0.110581160	3.741500E+01
454	  0.110781565	-9.468000E+00	  0.110781565	4.625900E+01	  0.110781565	6.842300E+01	  0.110781565	3.747200E+01
455	  0.110981964	-9.448000E+00	  0.110981964	4.570800E+01	  0.110981964	6.893700E+01	  0.110981964	3.751400E+01
456	  0.111182362	-9.433000E+00	  0.111182362	4.524500E+01	  0.111182362	6.937200E+01	  0.111182362	3.753100E+01
457	  0.111382768	-9.404000E+00	  0.111382768	4.466500E+01	  0.111382768	6.993400E+01	  0.111382768	3.761400E+01
458	  0.111583166	-9.381000E+00	  0.111583166	4.410900E+01	  0.111583166	7.047200E+01	  0.111583166	3.765200E+01
459	  0.111783572	-9.369000E+00	  0.111783572	4.354500E+01	  0.111783572	7.101200E+01	  0.111783572	3.762300E+01
460	  0.111983970	-9.347000E+00	  0.111983970	4.299200E+01	  0.111983970	7.156000E+01	  0.111983970	3.764600E+01
461	  0.112184368	-9.326000E+00	  0.112184368	4.240200E+01	  0.112184368	7.214600E+01	  0.112184368	3.764600E+01
462	  0.112384774	-9.313000E+00	  0.112384774	4.177100E+01	  0.112384774	7.276700E+01	  0.112384774	3.758000E+01
463	  0.112585172	-9.287000E+00	  0.112585172	4.116200E+01	  0.112585172	7.339300E+01	  0.112585172	3.759300E+01
464	  0.112785570	-9.275000E+00	  0.112785570	4.050700E+01	  0.112785570	7.404700E+01	  0.112785570	3.749500E+01
465	  0.112985976	-9.248000E+00	  0.112985976	3.989400E+01	  0.112985976	7.469400E+01	  0.112985976	3.749200E+01
466	  0.113186374	-9.239000E+00	  0.113186374	3.920700E+01	  0.113186374	7.538700E+01	  0.113186374	3.734800E+01
467	  0.113386773	-9.220000E+00	  0.113386773	3.853500E+01	  0.113386773	7.608900E+01	  0.113386773	3.725400E+01
468	  0.113587178	-9.206000E+00	  0.113587178	3.784500E+01	  0.113587178	7.680500E+01	  0.113587178	3.710600E+01
469	  0.113787577	-9.194000E+00	  0.113787577	3.707300E+01	  0.113787577	7.760300E+01	  0.113787577	3.690300E+01
470	  0.113987975	-9.175000E+00	  0.113987975	3.638900E+01	  0.113987975	7.833800E+01	  0.113987975	3.676400E+01
471	  0.114188381	-9.163000E+00	  0.114188381	3.565700E+01	  0.114188381	7.911000E+01	  0.114188381	3.654600E+01
472	  0.114388779	-9.150000E+00	  0.114388779	3.485000E+01	  0.114388779	7.996300E+01	  0.114388779	3.628200E+01
473	  0.114589177	-9.145000E+00	  0.114589177	3.406800E+01	  0.114589177	8.077000E+01	  0.114589177	3.595300E+01
474	  0.114789583	-9.134000E+00	  0.114789583	3.327800E+01	  0.114789583	8.160600E+01	  0.114789583	3.563700E+01
475	  0.114989981	-9.129000E+00	  0.114989981	3.246400E+01	  0.114989981	8.244900E+01	  0.114989981	3.524700E+01
476	  0.115190387	-9.121000E+00	  0.115190387	3.158400E+01	  0.115190387	8.337100E+01	  0.115190387	3.481700E+01
477	  0.115390785	-9.111000E+00	  0.115390785	3.073600E+01	  0.115390785	8.426600E+01	  0.115390785	3.439000E+01
478	  0.115591183	-9.108000E+00	  0.115591183	2.980200E+01	  0.115591183	8.522400E+01	  0.115591183	3.384000E+01
479	  0.115791589	-9.097000E+00	  0.115791589	2.894300E+01	  0.115791589	8.613500E+01	  0.115791589	3.335900E+01
480	  0.115991987	-9.099000E+00	  0.115991987	2.802900E+01	  0.115991987	8.703500E+01	  0.115991987	3.271800E+01
481	  0.116192386	-9.091000E+00	  0.116192386	2.707900E+01	  0.116192386	8.801400E+01	  0.116192386	3.208900E+01
482	  0.116392791	-9.095000E+00	  0.116392791	2.612500E+01	  0.116392791	8.893100E+01	  0.116392791	3.134600E+01
483	  0.116593190	-9.095000E+00	  0.116593190	2.514800E+01	  0.116593190	8.987200E+01	  0.116593190	3.056900E+01
484	  0.116793588	-9.093000E+00	  0.116793588	2.415900E+01	  0.116793588	9.082900E+01	  0.116793588	2.976700E+01
485	  0.116993994	-9.096000E+00	  0.116993994	2.317100E+01	  0.116993994	9.173300E+01	  0.116993994	2.888800E+01
486	  0.117194392	-9.100000E+00	  0.117194392	2.214100E+01	  0.117194392	9.265000E+01	  0.117194392	2.792900E+01
487	  0.117394790	-9.104000E+00	  0.117394790	2.115400E+01	  0.117394790	9.350500E+01	  0.117394790	2.697400E+01
488	  0.117595196	-9.115000E+00	  0.117595196	2.008500E+01	  0.117595196	9.436000E+01	  0.117595196	2.586200E+01
489	  0.117795594	-9.129000E+00	  0.117795594	1.902400E+01	  0.117795594	9.515300E+01	  0.117795594	2.470400E+01
490	  0.117995992	-9.143000E+00	  0.117995992	1.791500E+01	  0.117995992	9.595000E+01	  0.117995992	2.346000E+01
491	  0.118196398	-9.151000E+00	  0.118196398	1.684100E+01	  0.118196398	9.671100E+01	  0.118196398	2.224300E+01
492	  0.118396796	-9.168000E+00	  0.118396796	1.570400E+01	  0.118396796	9.741600E+01	  0.118396796	2.087900E+01
493	  0.118597202	-9.191000E+00	  0.118597202	1.457400E+01	  0.118597202	9.801900E+01	  0.118597202	1.946600E+01
494	  0.118797600	-9.215000E+00	  0.118797600	1.344500E+01	  0.118797600	9.856200E+01	  0.118797600	1.802500E+01
