! Anritsu VNA Master:             	Model: MS2036C/10/77
! SN:             	1601066
! /card0/usr/18may27.balun/5a..r200.txt
! Existing Calibration Information:
! TYPE:             	Current Settings	Active Cal Settings
! TIME:             	05/27/2018 05:00:17 PM	05/27/2018 04:42:15 PM
! INTERNAL TEMP:    	53.5 C	52.0 C
! # POINTS:         	500	500
! START FREQ:       	20.000 MHz	20.000 MHz
! STOP FREQ:        	120.000 MHz	120.000 MHz
! SOURCE POWER:     	High	High
! IFBW:             	50 Hz	50 Hz
! AVG FACTOR:       	  1 	  1 
! REF PLANE 1:      	0 mm	0 mm
! REF PLANE 2:      	0 mm	0 mm
! CAL TYPE:         	Full S11	Full S11
! CAL METHOD:       	SOLT	SOLT
! CAL LINE TYPE:    	Coax	Coax
! DUT PORT 1:       	K-Conn(M)	K-Conn(M)
! DUT PORT 2:       	K-Conn(M)	K-Conn(M)
! CAL STATUS:       	OK: Accuracy High	--
! PROP-V:       	0.700
! CABLE LOSS:       	0.000 dB/m
! REF IMPEDANCE:       	50.0
! Trace Specific Parameters:	TR1	TR2	TR3	TR4
! TRACE.#.Y (GRAPH TYPE)	LOG MAG	PHASE	REAL IMPEDANCE	IMAGINARY IMPEDANCE
! TRACE.#.X 	FREQ.GHZ	FREQ.GHZ	FREQ.GHZ	FREQ.GHZ
! S-PARAMETER	S11	S11	S11	S11
! SMOOTH/APERTURE %	0	0	0	0
! WINDOW	NSL	NSL	NSL	NSL
! GATING	OFF	OFF	OFF	OFF
! FGTD	OFF	OFF	OFF	OFF
Marker Information per Trace:	TR1	TR2	TR3	TR4
!MK1	--	--	--	"MK1 TR4:  70.100 200 MHz,Z:(29.666 ohm, -51.708 ohm)"
!MK2	--	--	--	--
!MK3	--	--	--	--
!MK4	--	--	--	--
!MK5	--	--	--	--
!MK6	--	--	--	--
!MK7	--	--	--	--
!MK8	--	--	--	--
PNT	TR1.FREQ.GHZ	TR1.LOG MAG.dB	TR2.FREQ.GHZ	TR2.PHASE.deg	TR3.FREQ.GHZ	TR3.REAL IMPEDANCE.ohm	TR4.FREQ.GHZ	TR4.IMAGINARY IMPEDANCE.ohm
1	  0.020000000	-4.550000E+00	  0.020000000	-2.210900E+01	  0.020000000	1.281210E+02	  0.020000000	-8.796600E+01
2	  0.020200402	-4.543000E+00	  0.020200402	-2.229600E+01	  0.020200402	1.274320E+02	  0.020200402	-8.833200E+01
3	  0.020400802	-4.542000E+00	  0.020400802	-2.248900E+01	  0.020400802	1.266850E+02	  0.020400802	-8.857300E+01
4	  0.020601204	-4.536000E+00	  0.020601204	-2.267100E+01	  0.020601204	1.260090E+02	  0.020601204	-8.888800E+01
5	  0.020801604	-4.535000E+00	  0.020801604	-2.286500E+01	  0.020801604	1.252620E+02	  0.020801604	-8.911300E+01
6	  0.021002004	-4.535000E+00	  0.021002004	-2.305500E+01	  0.021002004	1.245210E+02	  0.021002004	-8.928400E+01
7	  0.021202406	-4.536000E+00	  0.021202406	-2.326500E+01	  0.021202406	1.237030E+02	  0.021202406	-8.942900E+01
8	  0.021402806	-4.537000E+00	  0.021402806	-2.343900E+01	  0.021402806	1.230270E+02	  0.021402806	-8.955400E+01
9	  0.021603208	-4.539000E+00	  0.021603208	-2.364100E+01	  0.021603208	1.222420E+02	  0.021603208	-8.966700E+01
10	  0.021803608	-4.543000E+00	  0.021803608	-2.381500E+01	  0.021803608	1.215550E+02	  0.021803608	-8.967600E+01
11	  0.022004008	-4.546000E+00	  0.022004008	-2.399800E+01	  0.022004008	1.208490E+02	  0.022004008	-8.975500E+01
12	  0.022204408	-4.551000E+00	  0.022204408	-2.420900E+01	  0.022204408	1.200320E+02	  0.022204408	-8.977200E+01
13	  0.022404809	-4.551000E+00	  0.022404809	-2.442700E+01	  0.022404809	1.192130E+02	  0.022404809	-8.991800E+01
14	  0.022605211	-4.555000E+00	  0.022605211	-2.465800E+01	  0.022605211	1.183340E+02	  0.022605211	-8.994300E+01
15	  0.022805611	-4.562000E+00	  0.022805611	-2.489400E+01	  0.022805611	1.174330E+02	  0.022805611	-8.992500E+01
16	  0.023006011	-4.565000E+00	  0.023006011	-2.514000E+01	  0.023006011	1.165190E+02	  0.023006011	-8.997000E+01
17	  0.023206413	-4.563000E+00	  0.023206413	-2.538200E+01	  0.023206413	1.156440E+02	  0.023206413	-9.015100E+01
18	  0.023406813	-4.565000E+00	  0.023406813	-2.564200E+01	  0.023406813	1.146920E+02	  0.023406813	-9.021200E+01
19	  0.023607215	-4.560000E+00	  0.023607215	-2.590500E+01	  0.023607215	1.137600E+02	  0.023607215	-9.044100E+01
20	  0.023807615	-4.560000E+00	  0.023807615	-2.617000E+01	  0.023807615	1.128120E+02	  0.023807615	-9.055300E+01
21	  0.024008015	-4.563000E+00	  0.024008015	-2.642700E+01	  0.024008015	1.118940E+02	  0.024008015	-9.055800E+01
22	  0.024208417	-4.562000E+00	  0.024208417	-2.666200E+01	  0.024208417	1.110670E+02	  0.024208417	-9.065500E+01
23	  0.024408817	-4.565000E+00	  0.024408817	-2.690500E+01	  0.024408817	1.102110E+02	  0.024408817	-9.064500E+01
24	  0.024609219	-4.565000E+00	  0.024609219	-2.710300E+01	  0.024609219	1.095210E+02	  0.024609219	-9.068700E+01
25	  0.024809619	-4.565000E+00	  0.024809619	-2.734500E+01	  0.024809619	1.086870E+02	  0.024809619	-9.075500E+01
26	  0.025010020	-4.567000E+00	  0.025010020	-2.756700E+01	  0.025010020	1.079220E+02	  0.025010020	-9.074100E+01
27	  0.025210422	-4.568000E+00	  0.025210422	-2.779600E+01	  0.025210422	1.071410E+02	  0.025210422	-9.075200E+01
28	  0.025410822	-4.568000E+00	  0.025410822	-2.803300E+01	  0.025410822	1.063400E+02	  0.025410822	-9.078500E+01
29	  0.025611224	-4.565000E+00	  0.025611224	-2.827100E+01	  0.025611224	1.055410E+02	  0.025611224	-9.086900E+01
30	  0.025811624	-4.564000E+00	  0.025811624	-2.850700E+01	  0.025811624	1.047560E+02	  0.025811624	-9.089700E+01
31	  0.026012026	-4.567000E+00	  0.026012026	-2.871400E+01	  0.026012026	1.040680E+02	  0.026012026	-9.084500E+01
32	  0.026212426	-4.563000E+00	  0.026212426	-2.895800E+01	  0.026212426	1.032660E+02	  0.026212426	-9.093500E+01
33	  0.026412826	-4.563000E+00	  0.026412826	-2.919600E+01	  0.026412826	1.024870E+02	  0.026412826	-9.091900E+01
34	  0.026613226	-4.560000E+00	  0.026613226	-2.940400E+01	  0.026613226	1.018140E+02	  0.026613226	-9.097800E+01
35	  0.026813626	-4.554000E+00	  0.026813626	-2.960700E+01	  0.026813626	1.011550E+02	  0.026813626	-9.106800E+01
36	  0.027014028	-4.552000E+00	  0.027014028	-2.977900E+01	  0.027014028	1.006030E+02	  0.027014028	-9.110100E+01
37	  0.027214428	-4.557000E+00	  0.027214428	-2.993800E+01	  0.027214428	1.000980E+02	  0.027214428	-9.096900E+01
38	  0.027414829	-4.560000E+00	  0.027414829	-3.011000E+01	  0.027414829	9.955800E+01	  0.027414829	-9.089800E+01
39	  0.027615231	-4.563000E+00	  0.027615231	-3.029700E+01	  0.027615231	9.897200E+01	  0.027615231	-9.079700E+01
40	  0.027815631	-4.570000E+00	  0.027815631	-3.050900E+01	  0.027815631	9.831900E+01	  0.027815631	-9.061000E+01
41	  0.028016033	-4.579000E+00	  0.028016033	-3.076100E+01	  0.028016033	9.755100E+01	  0.028016033	-9.038000E+01
42	  0.028216433	-4.581000E+00	  0.028216433	-3.102000E+01	  0.028216433	9.675800E+01	  0.028216433	-9.029700E+01
43	  0.028416833	-4.581000E+00	  0.028416833	-3.129500E+01	  0.028416833	9.592500E+01	  0.028416833	-9.021600E+01
44	  0.028617235	-4.578000E+00	  0.028617235	-3.157800E+01	  0.028617235	9.506700E+01	  0.028617235	-9.020800E+01
45	  0.028817635	-4.575000E+00	  0.028817635	-3.184600E+01	  0.028817635	9.426300E+01	  0.028817635	-9.018100E+01
46	  0.029018037	-4.575000E+00	  0.029018037	-3.210600E+01	  0.029018037	9.349500E+01	  0.029018037	-9.010300E+01
47	  0.029218437	-4.571000E+00	  0.029218437	-3.235200E+01	  0.029218437	9.276600E+01	  0.029218437	-9.010900E+01
48	  0.029418837	-4.564000E+00	  0.029418837	-3.258400E+01	  0.029418837	9.207400E+01	  0.029418837	-9.015100E+01
49	  0.029619239	-4.562000E+00	  0.029619239	-3.278700E+01	  0.029619239	9.148300E+01	  0.029619239	-9.010400E+01
50	  0.029819639	-4.557000E+00	  0.029819639	-3.297700E+01	  0.029819639	9.092500E+01	  0.029819639	-9.012400E+01
51	  0.030020041	-4.552000E+00	  0.030020041	-3.315300E+01	  0.030020041	9.040900E+01	  0.030020041	-9.014800E+01
52	  0.030220442	-4.554000E+00	  0.030220442	-3.336600E+01	  0.030220442	8.981000E+01	  0.030220442	-9.002300E+01
53	  0.030420844	-4.556000E+00	  0.030420844	-3.358300E+01	  0.030420844	8.920700E+01	  0.030420844	-8.988500E+01
54	  0.030621244	-4.558000E+00	  0.030621244	-3.381700E+01	  0.030621244	8.856100E+01	  0.030621244	-8.974600E+01
55	  0.030821644	-4.557000E+00	  0.030821644	-3.404600E+01	  0.030821644	8.792600E+01	  0.030821644	-8.964400E+01
56	  0.031022044	-4.559000E+00	  0.031022044	-3.427700E+01	  0.031022044	8.729800E+01	  0.031022044	-8.949800E+01
57	  0.031222444	-4.552000E+00	  0.031222444	-3.446300E+01	  0.031222444	8.676700E+01	  0.031222444	-8.953300E+01
58	  0.031422846	-4.559000E+00	  0.031422846	-3.471000E+01	  0.031422846	8.612600E+01	  0.031422846	-8.927900E+01
59	  0.031623244	-4.563000E+00	  0.031623244	-3.494400E+01	  0.031623244	8.551500E+01	  0.031623244	-8.908100E+01
60	  0.031823646	-4.562000E+00	  0.031823646	-3.517200E+01	  0.031823646	8.490900E+01	  0.031823646	-8.896800E+01
61	  0.032024048	-4.561000E+00	  0.032024048	-3.536600E+01	  0.032024048	8.439700E+01	  0.032024048	-8.887100E+01
62	  0.032224450	-4.561000E+00	  0.032224450	-3.559300E+01	  0.032224450	8.380100E+01	  0.032224450	-8.874800E+01
63	  0.032424849	-4.555000E+00	  0.032424849	-3.578600E+01	  0.032424849	8.328300E+01	  0.032424849	-8.872600E+01
64	  0.032625251	-4.551000E+00	  0.032625251	-3.597100E+01	  0.032625251	8.279000E+01	  0.032625251	-8.867900E+01
65	  0.032825653	-4.552000E+00	  0.032825653	-3.614500E+01	  0.032825653	8.234900E+01	  0.032825653	-8.855500E+01
66	  0.033026051	-4.556000E+00	  0.033026051	-3.629100E+01	  0.033026051	8.199500E+01	  0.033026051	-8.839900E+01
67	  0.033226453	-4.562000E+00	  0.033226453	-3.645800E+01	  0.033226453	8.159900E+01	  0.033226453	-8.819700E+01
68	  0.033426855	-4.570000E+00	  0.033426855	-3.666400E+01	  0.033426855	8.111900E+01	  0.033426855	-8.793100E+01
69	  0.033627257	-4.577000E+00	  0.033627257	-3.690200E+01	  0.033627257	8.055700E+01	  0.033627257	-8.766600E+01
70	  0.033827655	-4.583000E+00	  0.033827655	-3.718500E+01	  0.033827655	7.988600E+01	  0.033827655	-8.739600E+01
71	  0.034028057	-4.591000E+00	  0.034028057	-3.744900E+01	  0.034028057	7.928200E+01	  0.034028057	-8.708700E+01
72	  0.034228459	-4.594000E+00	  0.034228459	-3.772300E+01	  0.034228459	7.864100E+01	  0.034228459	-8.685600E+01
73	  0.034428857	-4.591000E+00	  0.034428857	-3.799300E+01	  0.034428857	7.798400E+01	  0.034428857	-8.672600E+01
74	  0.034629259	-4.592000E+00	  0.034629259	-3.824500E+01	  0.034629259	7.739900E+01	  0.034629259	-8.653100E+01
75	  0.034829661	-4.587000E+00	  0.034829661	-3.852000E+01	  0.034829661	7.673700E+01	  0.034829661	-8.640900E+01
76	  0.035030060	-4.580000E+00	  0.035030060	-3.878900E+01	  0.035030060	7.608100E+01	  0.035030060	-8.633000E+01
77	  0.035230462	-4.572000E+00	  0.035230462	-3.901700E+01	  0.035230462	7.552400E+01	  0.035230462	-8.627700E+01
78	  0.035430863	-4.568000E+00	  0.035430863	-3.923600E+01	  0.035430863	7.500900E+01	  0.035430863	-8.616900E+01
79	  0.035631265	-4.564000E+00	  0.035631265	-3.944500E+01	  0.035631265	7.451900E+01	  0.035631265	-8.607500E+01
80	  0.035831664	-4.567000E+00	  0.035831664	-3.963300E+01	  0.035831664	7.411600E+01	  0.035831664	-8.588600E+01
81	  0.036032066	-4.569000E+00	  0.036032066	-3.986000E+01	  0.036032066	7.361900E+01	  0.036032066	-8.569100E+01
82	  0.036232468	-4.572000E+00	  0.036232468	-4.010700E+01	  0.036232468	7.309500E+01	  0.036232468	-8.545100E+01
83	  0.036432866	-4.573000E+00	  0.036432866	-4.036500E+01	  0.036432866	7.254200E+01	  0.036432866	-8.523100E+01
84	  0.036633268	-4.577000E+00	  0.036633268	-4.061400E+01	  0.036633268	7.202600E+01	  0.036633268	-8.498700E+01
85	  0.036833670	-4.579000E+00	  0.036833670	-4.087200E+01	  0.036833670	7.148700E+01	  0.036833670	-8.475500E+01
86	  0.037034072	-4.581000E+00	  0.037034072	-4.110200E+01	  0.037034072	7.101800E+01	  0.037034072	-8.453300E+01
87	  0.037234470	-4.581000E+00	  0.037234470	-4.132600E+01	  0.037234470	7.054700E+01	  0.037234470	-8.436100E+01
88	  0.037434869	-4.579000E+00	  0.037434869	-4.155700E+01	  0.037434869	7.005800E+01	  0.037434869	-8.419900E+01
89	  0.037635271	-4.574000E+00	  0.037635271	-4.177700E+01	  0.037635271	6.958200E+01	  0.037635271	-8.408000E+01
90	  0.037835669	-4.572000E+00	  0.037835669	-4.202500E+01	  0.037835669	6.906400E+01	  0.037835669	-8.390700E+01
91	  0.038036071	-4.563000E+00	  0.038036071	-4.225100E+01	  0.038036071	6.856400E+01	  0.038036071	-8.382700E+01
92	  0.038236473	-4.557000E+00	  0.038236473	-4.244300E+01	  0.038236473	6.814700E+01	  0.038236473	-8.374500E+01
93	  0.038436871	-4.553000E+00	  0.038436871	-4.258400E+01	  0.038436871	6.784400E+01	  0.038436871	-8.367800E+01
94	  0.038637273	-4.558000E+00	  0.038637273	-4.272800E+01	  0.038637273	6.758600E+01	  0.038637273	-8.349200E+01
95	  0.038837675	-4.563000E+00	  0.038837675	-4.290000E+01	  0.038837675	6.727900E+01	  0.038837675	-8.327600E+01
96	  0.039038073	-4.574000E+00	  0.039038073	-4.309800E+01	  0.039038073	6.695000E+01	  0.039038073	-8.297400E+01
97	  0.039238475	-4.582000E+00	  0.039238475	-4.332700E+01	  0.039238475	6.655700E+01	  0.039238475	-8.266900E+01
98	  0.039438877	-4.590000E+00	  0.039438877	-4.356300E+01	  0.039438877	6.615300E+01	  0.039438877	-8.236500E+01
99	  0.039639279	-4.597000E+00	  0.039639279	-4.378300E+01	  0.039639279	6.577100E+01	  0.039639279	-8.209900E+01
100	  0.039839678	-4.599000E+00	  0.039839678	-4.402900E+01	  0.039839678	6.532500E+01	  0.039839678	-8.185600E+01
101	  0.040040080	-4.596000E+00	  0.040040080	-4.428000E+01	  0.040040080	6.483700E+01	  0.040040080	-8.168200E+01
102	  0.040240481	-4.594000E+00	  0.040240481	-4.451000E+01	  0.040240481	6.440400E+01	  0.040240481	-8.150200E+01
103	  0.040440880	-4.589000E+00	  0.040440880	-4.475100E+01	  0.040440880	6.393400E+01	  0.040440880	-8.135600E+01
104	  0.040641282	-4.581000E+00	  0.040641282	-4.494900E+01	  0.040641282	6.353300E+01	  0.040641282	-8.127200E+01
105	  0.040841684	-4.577000E+00	  0.040841684	-4.512700E+01	  0.040841684	6.318700E+01	  0.040841684	-8.116400E+01
106	  0.041042086	-4.581000E+00	  0.041042086	-4.530200E+01	  0.041042086	6.290100E+01	  0.041042086	-8.095700E+01
107	  0.041242484	-4.581000E+00	  0.041242484	-4.548800E+01	  0.041242484	6.257000E+01	  0.041242484	-8.079500E+01
108	  0.041442886	-4.588000E+00	  0.041442886	-4.567700E+01	  0.041442886	6.228200E+01	  0.041442886	-8.053900E+01
109	  0.041643288	-4.595000E+00	  0.041643288	-4.592700E+01	  0.041643288	6.188700E+01	  0.041643288	-8.023600E+01
110	  0.041843686	-4.598000E+00	  0.041843686	-4.614900E+01	  0.041843686	6.151800E+01	  0.041843686	-8.001200E+01
111	  0.042044088	-4.606000E+00	  0.042044088	-4.642400E+01	  0.042044088	6.109800E+01	  0.042044088	-7.967000E+01
112	  0.042244490	-4.607000E+00	  0.042244490	-4.666500E+01	  0.042244490	6.069700E+01	  0.042244490	-7.944300E+01
113	  0.042444889	-4.611000E+00	  0.042444889	-4.692000E+01	  0.042444889	6.029300E+01	  0.042444889	-7.917000E+01
114	  0.042645290	-4.613000E+00	  0.042645290	-4.717200E+01	  0.042645290	5.988500E+01	  0.042645290	-7.892700E+01
115	  0.042845692	-4.615000E+00	  0.042845692	-4.743700E+01	  0.042845692	5.946000E+01	  0.042845692	-7.867000E+01
116	  0.043046094	-4.611000E+00	  0.043046094	-4.773600E+01	  0.043046094	5.895100E+01	  0.043046094	-7.844300E+01
117	  0.043246493	-4.609000E+00	  0.043246493	-4.802800E+01	  0.043246493	5.847100E+01	  0.043246493	-7.819900E+01
118	  0.043446895	-4.599000E+00	  0.043446895	-4.832100E+01	  0.043446895	5.794600E+01	  0.043446895	-7.803700E+01
119	  0.043647297	-4.592000E+00	  0.043647297	-4.852200E+01	  0.043647297	5.759100E+01	  0.043647297	-7.791900E+01
120	  0.043847695	-4.592000E+00	  0.043847695	-4.876000E+01	  0.043847695	5.721800E+01	  0.043847695	-7.770400E+01
121	  0.044048097	-4.591000E+00	  0.044048097	-4.894800E+01	  0.044048097	5.692100E+01	  0.044048097	-7.754400E+01
122	  0.044248499	-4.594000E+00	  0.044248499	-4.916700E+01	  0.044248499	5.660600E+01	  0.044248499	-7.730700E+01
123	  0.044448901	-4.597000E+00	  0.044448901	-4.938000E+01	  0.044448901	5.629900E+01	  0.044448901	-7.708300E+01
124	  0.044649299	-4.604000E+00	  0.044649299	-4.966200E+01	  0.044649299	5.591400E+01	  0.044649299	-7.675700E+01
125	  0.044849701	-4.602000E+00	  0.044849701	-4.990100E+01	  0.044849701	5.555000E+01	  0.044849701	-7.655000E+01
126	  0.045050103	-4.603000E+00	  0.045050103	-5.016800E+01	  0.045050103	5.515900E+01	  0.045050103	-7.629800E+01
127	  0.045250501	-4.604000E+00	  0.045250501	-5.041000E+01	  0.045250501	5.480800E+01	  0.045250501	-7.606900E+01
128	  0.045450903	-4.602000E+00	  0.045450903	-5.064400E+01	  0.045450903	5.446200E+01	  0.045450903	-7.586700E+01
129	  0.045651305	-4.598000E+00	  0.045651305	-5.089300E+01	  0.045651305	5.407900E+01	  0.045651305	-7.567400E+01
130	  0.045851704	-4.588000E+00	  0.045851704	-5.111100E+01	  0.045851704	5.370900E+01	  0.045851704	-7.556600E+01
131	  0.046052106	-4.579000E+00	  0.046052106	-5.129700E+01	  0.046052106	5.339100E+01	  0.046052106	-7.547700E+01
132	  0.046252504	-4.575000E+00	  0.046252504	-5.143700E+01	  0.046252504	5.316800E+01	  0.046252504	-7.538600E+01
133	  0.046452906	-4.573000E+00	  0.046452906	-5.160100E+01	  0.046452906	5.292900E+01	  0.046452906	-7.524600E+01
134	  0.046653304	-4.573000E+00	  0.046653304	-5.170900E+01	  0.046653304	5.277600E+01	  0.046653304	-7.515100E+01
135	  0.046853706	-4.580000E+00	  0.046853706	-5.188500E+01	  0.046853706	5.257600E+01	  0.046853706	-7.492300E+01
136	  0.047054108	-4.585000E+00	  0.047054108	-5.205900E+01	  0.047054108	5.236800E+01	  0.047054108	-7.471600E+01
137	  0.047254506	-4.587000E+00	  0.047254506	-5.222900E+01	  0.047254506	5.215200E+01	  0.047254506	-7.453300E+01
138	  0.047454908	-4.594000E+00	  0.047454908	-5.240400E+01	  0.047454908	5.195700E+01	  0.047454908	-7.431200E+01
139	  0.047655310	-4.600000E+00	  0.047655310	-5.260500E+01	  0.047655310	5.172400E+01	  0.047655310	-7.407000E+01
140	  0.047855709	-4.607000E+00	  0.047855709	-5.279900E+01	  0.047855709	5.150700E+01	  0.047855709	-7.383300E+01
141	  0.048056111	-4.614000E+00	  0.048056111	-5.303700E+01	  0.048056111	5.123800E+01	  0.048056111	-7.354900E+01
142	  0.048256513	-4.616000E+00	  0.048256513	-5.327300E+01	  0.048256513	5.094100E+01	  0.048256513	-7.331200E+01
143	  0.048456915	-4.619000E+00	  0.048456915	-5.355700E+01	  0.048456915	5.058900E+01	  0.048456915	-7.303000E+01
144	  0.048657313	-4.617000E+00	  0.048657313	-5.380900E+01	  0.048657313	5.025400E+01	  0.048657313	-7.281300E+01
145	  0.048857715	-4.620000E+00	  0.048857715	-5.407600E+01	  0.048857715	4.993000E+01	  0.048857715	-7.254600E+01
146	  0.049058117	-4.620000E+00	  0.049058117	-5.431200E+01	  0.049058117	4.963300E+01	  0.049058117	-7.232800E+01
147	  0.049258515	-4.623000E+00	  0.049258515	-5.455100E+01	  0.049258515	4.935400E+01	  0.049258515	-7.208400E+01
148	  0.049458917	-4.627000E+00	  0.049458917	-5.480300E+01	  0.049458917	4.906800E+01	  0.049458917	-7.181900E+01
149	  0.049659319	-4.632000E+00	  0.049659319	-5.508400E+01	  0.049659319	4.875300E+01	  0.049659319	-7.152300E+01
150	  0.049859721	-4.639000E+00	  0.049859721	-5.535800E+01	  0.049859721	4.846700E+01	  0.049859721	-7.121000E+01
151	  0.050060119	-4.646000E+00	  0.050060119	-5.564800E+01	  0.050060119	4.815900E+01	  0.050060119	-7.089500E+01
152	  0.050260521	-4.648000E+00	  0.050260521	-5.597100E+01	  0.050260521	4.778600E+01	  0.050260521	-7.058900E+01
153	  0.050460923	-4.648000E+00	  0.050460923	-5.625700E+01	  0.050460923	4.745300E+01	  0.050460923	-7.032800E+01
154	  0.050661322	-4.646000E+00	  0.050661322	-5.658100E+01	  0.050661322	4.706700E+01	  0.050661322	-7.004700E+01
155	  0.050861724	-4.639000E+00	  0.050861724	-5.690700E+01	  0.050861724	4.665000E+01	  0.050861724	-6.980800E+01
156	  0.051062126	-4.628000E+00	  0.051062126	-5.718800E+01	  0.051062126	4.626800E+01	  0.051062126	-6.963300E+01
157	  0.051262524	-4.617000E+00	  0.051262524	-5.743600E+01	  0.051262524	4.592200E+01	  0.051262524	-6.949200E+01
158	  0.051462926	-4.604000E+00	  0.051462926	-5.765300E+01	  0.051462926	4.560500E+01	  0.051462926	-6.938600E+01
159	  0.051663328	-4.599000E+00	  0.051663328	-5.783000E+01	  0.051663328	4.538100E+01	  0.051663328	-6.925800E+01
160	  0.051863730	-4.594000E+00	  0.051863730	-5.800100E+01	  0.051863730	4.516500E+01	  0.051863730	-6.913800E+01
161	  0.052064128	-4.589000E+00	  0.052064128	-5.814600E+01	  0.052064128	4.497500E+01	  0.052064128	-6.904300E+01
162	  0.052264530	-4.591000E+00	  0.052264530	-5.832300E+01	  0.052264530	4.479400E+01	  0.052264530	-6.886900E+01
163	  0.052464932	-4.587000E+00	  0.052464932	-5.847900E+01	  0.052464932	4.460500E+01	  0.052464932	-6.875100E+01
164	  0.052665330	-4.587000E+00	  0.052665330	-5.863200E+01	  0.052665330	4.443900E+01	  0.052665330	-6.861600E+01
165	  0.052865732	-4.590000E+00	  0.052865732	-5.875400E+01	  0.052865732	4.433000E+01	  0.052865732	-6.848100E+01
166	  0.053066134	-4.592000E+00	  0.053066134	-5.889200E+01	  0.053066134	4.419900E+01	  0.053066134	-6.833700E+01
167	  0.053266536	-4.591000E+00	  0.053266536	-5.905000E+01	  0.053266536	4.402400E+01	  0.053266536	-6.820300E+01
168	  0.053466935	-4.597000E+00	  0.053466935	-5.924300E+01	  0.053466935	4.385800E+01	  0.053466935	-6.798700E+01
169	  0.053667337	-4.599000E+00	  0.053667337	-5.945900E+01	  0.053667337	4.364500E+01	  0.053667337	-6.778000E+01
170	  0.053867739	-4.602000E+00	  0.053867739	-5.965200E+01	  0.053867739	4.346800E+01	  0.053867739	-6.757900E+01
171	  0.054068137	-4.604000E+00	  0.054068137	-5.987500E+01	  0.054068137	4.324700E+01	  0.054068137	-6.737000E+01
172	  0.054268539	-4.611000E+00	  0.054268539	-6.005200E+01	  0.054268539	4.310900E+01	  0.054268539	-6.716300E+01
173	  0.054468941	-4.614000E+00	  0.054468941	-6.024500E+01	  0.054468941	4.293800E+01	  0.054468941	-6.696500E+01
174	  0.054669339	-4.618000E+00	  0.054669339	-6.048400E+01	  0.054669339	4.272100E+01	  0.054669339	-6.672600E+01
175	  0.054869737	-4.629000E+00	  0.054869737	-6.070500E+01	  0.054869737	4.256500E+01	  0.054869737	-6.645900E+01
176	  0.055070139	-4.635000E+00	  0.055070139	-6.093700E+01	  0.055070139	4.237600E+01	  0.055070139	-6.621000E+01
177	  0.055270538	-4.645000E+00	  0.055270538	-6.121600E+01	  0.055270538	4.216100E+01	  0.055270538	-6.590000E+01
178	  0.055470940	-4.653000E+00	  0.055470940	-6.150100E+01	  0.055470940	4.192800E+01	  0.055470940	-6.560100E+01
179	  0.055671342	-4.661000E+00	  0.055671342	-6.177900E+01	  0.055671342	4.171500E+01	  0.055671342	-6.530200E+01
180	  0.055871744	-4.663000E+00	  0.055871744	-6.213000E+01	  0.055871744	4.139000E+01	  0.055871744	-6.498700E+01
181	  0.056072142	-4.663000E+00	  0.056072142	-6.245700E+01	  0.056072142	4.108700E+01	  0.056072142	-6.469800E+01
182	  0.056272544	-4.657000E+00	  0.056272544	-6.278500E+01	  0.056272544	4.075000E+01	  0.056272544	-6.444900E+01
183	  0.056472946	-4.648000E+00	  0.056472946	-6.308600E+01	  0.056472946	4.042100E+01	  0.056472946	-6.424300E+01
184	  0.056673344	-4.645000E+00	  0.056673344	-6.337100E+01	  0.056673344	4.014800E+01	  0.056673344	-6.401300E+01
185	  0.056873746	-4.640000E+00	  0.056873746	-6.363500E+01	  0.056873746	3.988600E+01	  0.056873746	-6.381000E+01
186	  0.057074148	-4.628000E+00	  0.057074148	-6.384800E+01	  0.057074148	3.963000E+01	  0.057074148	-6.369300E+01
187	  0.057274550	-4.620000E+00	  0.057274550	-6.404800E+01	  0.057274550	3.940700E+01	  0.057274550	-6.356500E+01
188	  0.057474948	-4.617000E+00	  0.057474948	-6.426700E+01	  0.057474948	3.919900E+01	  0.057474948	-6.339300E+01
189	  0.057675350	-4.610000E+00	  0.057675350	-6.444500E+01	  0.057675350	3.900500E+01	  0.057675350	-6.327900E+01
190	  0.057875752	-4.606000E+00	  0.057875752	-6.463600E+01	  0.057875752	3.881500E+01	  0.057875752	-6.313900E+01
191	  0.058076151	-4.604000E+00	  0.058076151	-6.478600E+01	  0.058076151	3.867800E+01	  0.058076151	-6.301600E+01
192	  0.058276553	-4.603000E+00	  0.058276553	-6.492900E+01	  0.058276553	3.855300E+01	  0.058276553	-6.289600E+01
193	  0.058476955	-4.601000E+00	  0.058476955	-6.507800E+01	  0.058476955	3.841100E+01	  0.058476955	-6.278200E+01
194	  0.058677353	-4.601000E+00	  0.058677353	-6.524200E+01	  0.058677353	3.827300E+01	  0.058677353	-6.264000E+01
195	  0.058877755	-4.601000E+00	  0.058877755	-6.541800E+01	  0.058877755	3.812900E+01	  0.058877755	-6.248600E+01
196	  0.059078157	-4.607000E+00	  0.059078157	-6.560800E+01	  0.059078157	3.800500E+01	  0.059078157	-6.228900E+01
197	  0.059278559	-4.611000E+00	  0.059278559	-6.580800E+01	  0.059278559	3.786400E+01	  0.059278559	-6.209500E+01
198	  0.059478957	-4.615000E+00	  0.059478957	-6.595800E+01	  0.059478957	3.776400E+01	  0.059478957	-6.194400E+01
199	  0.059679359	-4.616000E+00	  0.059679359	-6.613100E+01	  0.059679359	3.762900E+01	  0.059679359	-6.179000E+01
200	  0.059879761	-4.623000E+00	  0.059879761	-6.631300E+01	  0.059879761	3.752000E+01	  0.059879761	-6.159800E+01
201	  0.060080159	-4.632000E+00	  0.060080159	-6.649400E+01	  0.060080159	3.742800E+01	  0.060080159	-6.139500E+01
202	  0.060280561	-4.639000E+00	  0.060280561	-6.671200E+01	  0.060280561	3.729200E+01	  0.060280561	-6.117300E+01
203	  0.060480963	-4.650000E+00	  0.060480963	-6.693900E+01	  0.060480963	3.717300E+01	  0.060480963	-6.092400E+01
204	  0.060681365	-4.667000E+00	  0.060681365	-6.717800E+01	  0.060681365	3.707800E+01	  0.060681365	-6.063600E+01
205	  0.060881764	-4.673000E+00	  0.060881764	-6.744800E+01	  0.060881764	3.689900E+01	  0.060881764	-6.038000E+01
206	  0.061082166	-4.682000E+00	  0.061082166	-6.776000E+01	  0.061082166	3.670600E+01	  0.061082166	-6.007600E+01
207	  0.061282568	-4.691000E+00	  0.061282568	-6.810300E+01	  0.061282568	3.649600E+01	  0.061282568	-5.974300E+01
208	  0.061482966	-4.691000E+00	  0.061482966	-6.844100E+01	  0.061482966	3.623700E+01	  0.061482966	-5.946600E+01
209	  0.061683368	-4.694000E+00	  0.061683368	-6.878300E+01	  0.061683368	3.599800E+01	  0.061683368	-5.917100E+01
210	  0.061883770	-4.690000E+00	  0.061883770	-6.910000E+01	  0.061883770	3.574300E+01	  0.061883770	-5.892900E+01
211	  0.062084168	-4.686000E+00	  0.062084168	-6.939800E+01	  0.062084168	3.550100E+01	  0.062084168	-5.870500E+01
212	  0.062284570	-4.678000E+00	  0.062284570	-6.968300E+01	  0.062284570	3.525100E+01	  0.062284570	-5.851100E+01
213	  0.062484972	-4.671000E+00	  0.062484972	-6.992500E+01	  0.062484972	3.504400E+01	  0.062484972	-5.834400E+01
214	  0.062685370	-4.662000E+00	  0.062685370	-7.017700E+01	  0.062685370	3.481800E+01	  0.062685370	-5.817900E+01
215	  0.062885776	-4.654000E+00	  0.062885776	-7.042100E+01	  0.062885776	3.459800E+01	  0.062885776	-5.802100E+01
216	  0.063086174	-4.647000E+00	  0.063086174	-7.064300E+01	  0.063086174	3.440700E+01	  0.063086174	-5.787200E+01
217	  0.063286573	-4.638000E+00	  0.063286573	-7.085200E+01	  0.063286573	3.421500E+01	  0.063286573	-5.774200E+01
218	  0.063486971	-4.632000E+00	  0.063486971	-7.100500E+01	  0.063486971	3.407500E+01	  0.063486971	-5.764600E+01
219	  0.063687377	-4.624000E+00	  0.063687377	-7.118000E+01	  0.063687377	3.391400E+01	  0.063687377	-5.753800E+01
220	  0.063887775	-4.621000E+00	  0.063887775	-7.137900E+01	  0.063887775	3.376600E+01	  0.063887775	-5.738800E+01
221	  0.064088173	-4.621000E+00	  0.064088173	-7.152800E+01	  0.064088173	3.366200E+01	  0.064088173	-5.727000E+01
222	  0.064288579	-4.618000E+00	  0.064288579	-7.172000E+01	  0.064288579	3.351900E+01	  0.064288579	-5.712700E+01
223	  0.064488977	-4.612000E+00	  0.064488977	-7.186700E+01	  0.064488977	3.338900E+01	  0.064488977	-5.703400E+01
224	  0.064689375	-4.616000E+00	  0.064689375	-7.201200E+01	  0.064689375	3.331200E+01	  0.064689375	-5.690000E+01
225	  0.064889781	-4.613000E+00	  0.064889781	-7.218800E+01	  0.064889781	3.318400E+01	  0.064889781	-5.676800E+01
226	  0.065090179	-4.618000E+00	  0.065090179	-7.229800E+01	  0.065090179	3.313400E+01	  0.065090179	-5.666200E+01
227	  0.065290578	-4.618000E+00	  0.065290578	-7.244700E+01	  0.065290578	3.304000E+01	  0.065290578	-5.653800E+01
228	  0.065490983	-4.628000E+00	  0.065490983	-7.262500E+01	  0.065490983	3.297600E+01	  0.065490983	-5.635300E+01
229	  0.065691382	-4.638000E+00	  0.065691382	-7.277000E+01	  0.065691382	3.293200E+01	  0.065691382	-5.619800E+01
230	  0.065891780	-4.649000E+00	  0.065891780	-7.296300E+01	  0.065891780	3.287000E+01	  0.065891780	-5.599300E+01
231	  0.066092186	-4.658000E+00	  0.066092186	-7.321300E+01	  0.066092186	3.275600E+01	  0.066092186	-5.575900E+01
232	  0.066292584	-4.673000E+00	  0.066292584	-7.347100E+01	  0.066292584	3.267200E+01	  0.066292584	-5.549100E+01
233	  0.066492982	-4.683000E+00	  0.066492982	-7.368600E+01	  0.066492982	3.258600E+01	  0.066492982	-5.528100E+01
234	  0.066693388	-4.693000E+00	  0.066693388	-7.403000E+01	  0.066693388	3.242200E+01	  0.066693388	-5.497200E+01
235	  0.066893786	-4.703000E+00	  0.066893786	-7.435900E+01	  0.066893786	3.226900E+01	  0.066893786	-5.467600E+01
236	  0.067094192	-4.708000E+00	  0.067094192	-7.468800E+01	  0.067094192	3.209600E+01	  0.067094192	-5.439700E+01
237	  0.067294590	-4.712000E+00	  0.067294590	-7.499200E+01	  0.067294590	3.193100E+01	  0.067294590	-5.414800E+01
238	  0.067494988	-4.712000E+00	  0.067494988	-7.530600E+01	  0.067494988	3.174300E+01	  0.067494988	-5.390600E+01
239	  0.067695394	-4.715000E+00	  0.067695394	-7.561100E+01	  0.067695394	3.157600E+01	  0.067695394	-5.366100E+01
240	  0.067895792	-4.708000E+00	  0.067895792	-7.596300E+01	  0.067895792	3.133200E+01	  0.067895792	-5.342100E+01
241	  0.068096191	-4.705000E+00	  0.068096191	-7.622100E+01	  0.068096191	3.116600E+01	  0.068096191	-5.323600E+01
242	  0.068296596	-4.702000E+00	  0.068296596	-7.650800E+01	  0.068296596	3.098600E+01	  0.068296596	-5.302900E+01
243	  0.068496995	-4.691000E+00	  0.068496995	-7.678300E+01	  0.068496995	3.077400E+01	  0.068496995	-5.286100E+01
244	  0.068697393	-4.687000E+00	  0.068697393	-7.704200E+01	  0.068697393	3.061000E+01	  0.068697393	-5.267800E+01
245	  0.068897791	-4.683000E+00	  0.068897791	-7.725900E+01	  0.068897791	3.046900E+01	  0.068897791	-5.252900E+01
246	  0.069098189	-4.672000E+00	  0.069098189	-7.751600E+01	  0.069098189	3.027000E+01	  0.069098189	-5.237600E+01
247	  0.069298595	-4.666000E+00	  0.069298595	-7.773100E+01	  0.069298595	3.012100E+01	  0.069298595	-5.223600E+01
248	  0.069498993	-4.668000E+00	  0.069498993	-7.792600E+01	  0.069498993	3.002300E+01	  0.069498993	-5.208300E+01
249	  0.069699399	-4.658000E+00	  0.069699399	-7.813000E+01	  0.069699399	2.986500E+01	  0.069699399	-5.196300E+01
250	  0.069899797	-4.653000E+00	  0.069899797	-7.827700E+01	  0.069899797	2.976000E+01	  0.069899797	-5.187100E+01
251	  0.070100196	-4.656000E+00	  0.070100196	-7.848100E+01	  0.070100196	2.966600E+01	  0.070100196	-5.170700E+01
252	  0.070300601	-4.643000E+00	  0.070300601	-7.865500E+01	  0.070300601	2.950800E+01	  0.070300601	-5.162200E+01
253	  0.070501000	-4.640000E+00	  0.070501000	-7.883500E+01	  0.070501000	2.939800E+01	  0.070501000	-5.149700E+01
254	  0.070701398	-4.645000E+00	  0.070701398	-7.894200E+01	  0.070701398	2.936700E+01	  0.070701398	-5.140000E+01
255	  0.070901804	-4.641000E+00	  0.070901804	-7.911800E+01	  0.070901804	2.925500E+01	  0.070901804	-5.128200E+01
256	  0.071102202	-4.644000E+00	  0.071102202	-7.924400E+01	  0.071102202	2.920300E+01	  0.071102202	-5.117900E+01
257	  0.071302600	-4.649000E+00	  0.071302600	-7.941600E+01	  0.071302600	2.913600E+01	  0.071302600	-5.103600E+01
258	  0.071503006	-4.655000E+00	  0.071503006	-7.958500E+01	  0.071503006	2.907800E+01	  0.071503006	-5.088900E+01
259	  0.071703404	-4.670000E+00	  0.071703404	-7.978500E+01	  0.071703404	2.904800E+01	  0.071703404	-5.069000E+01
260	  0.071903802	-4.671000E+00	  0.071903802	-8.001600E+01	  0.071903802	2.893800E+01	  0.071903802	-5.051500E+01
261	  0.072104208	-4.688000E+00	  0.072104208	-8.028200E+01	  0.072104208	2.888200E+01	  0.072104208	-5.026400E+01
262	  0.072304606	-4.693000E+00	  0.072304606	-8.055400E+01	  0.072304606	2.877000E+01	  0.072304606	-5.004800E+01
263	  0.072505005	-4.697000E+00	  0.072505005	-8.081300E+01	  0.072505005	2.865800E+01	  0.072505005	-4.984800E+01
264	  0.072705410	-4.706000E+00	  0.072705410	-8.106900E+01	  0.072705410	2.857500E+01	  0.072705410	-4.963200E+01
265	  0.072905809	-4.713000E+00	  0.072905809	-8.134600E+01	  0.072905809	2.847000E+01	  0.072905809	-4.941100E+01
266	  0.073106214	-4.711000E+00	  0.073106214	-8.165000E+01	  0.073106214	2.831500E+01	  0.073106214	-4.919500E+01
267	  0.073306613	-4.719000E+00	  0.073306613	-8.195900E+01	  0.073306613	2.820000E+01	  0.073306613	-4.895000E+01
268	  0.073507011	-4.713000E+00	  0.073507011	-8.219900E+01	  0.073507011	2.805900E+01	  0.073507011	-4.879600E+01
269	  0.073707417	-4.707000E+00	  0.073707417	-8.246100E+01	  0.073707417	2.790700E+01	  0.073707417	-4.862700E+01
270	  0.073907815	-4.705000E+00	  0.073907815	-8.272700E+01	  0.073907815	2.777000E+01	  0.073907815	-4.844600E+01
271	  0.074108213	-4.708000E+00	  0.074108213	-8.298400E+01	  0.074108213	2.766500E+01	  0.074108213	-4.825300E+01
272	  0.074308619	-4.708000E+00	  0.074308619	-8.321200E+01	  0.074308619	2.756000E+01	  0.074308619	-4.809100E+01
273	  0.074509017	-4.702000E+00	  0.074509017	-8.347000E+01	  0.074509017	2.741400E+01	  0.074509017	-4.792600E+01
274	  0.074709415	-4.701000E+00	  0.074709415	-8.373900E+01	  0.074709415	2.728300E+01	  0.074709415	-4.774200E+01
275	  0.074909821	-4.699000E+00	  0.074909821	-8.398500E+01	  0.074909821	2.716600E+01	  0.074909821	-4.757300E+01
276	  0.075110219	-4.704000E+00	  0.075110219	-8.421400E+01	  0.075110219	2.708300E+01	  0.075110219	-4.740000E+01
277	  0.075310618	-4.699000E+00	  0.075310618	-8.446800E+01	  0.075310618	2.694600E+01	  0.075310618	-4.723700E+01
278	  0.075511023	-4.695000E+00	  0.075511023	-8.468700E+01	  0.075511023	2.683100E+01	  0.075511023	-4.709600E+01
279	  0.075711422	-4.697000E+00	  0.075711422	-8.487600E+01	  0.075711422	2.675900E+01	  0.075711422	-4.695700E+01
280	  0.075911827	-4.688000E+00	  0.075911827	-8.509100E+01	  0.075911827	2.662100E+01	  0.075911827	-4.683400E+01
281	  0.076112226	-4.695000E+00	  0.076112226	-8.530200E+01	  0.076112226	2.656100E+01	  0.076112226	-4.666800E+01
282	  0.076312624	-4.686000E+00	  0.076312624	-8.545200E+01	  0.076312624	2.645800E+01	  0.076312624	-4.658800E+01
283	  0.076513030	-4.685000E+00	  0.076513030	-8.565900E+01	  0.076513030	2.636200E+01	  0.076513030	-4.644900E+01
284	  0.076713428	-4.685000E+00	  0.076713428	-8.583200E+01	  0.076713428	2.629200E+01	  0.076713428	-4.632700E+01
285	  0.076913826	-4.685000E+00	  0.076913826	-8.604800E+01	  0.076913826	2.619700E+01	  0.076913826	-4.618100E+01
286	  0.077114232	-4.692000E+00	  0.077114232	-8.625400E+01	  0.077114232	2.614200E+01	  0.077114232	-4.601900E+01
287	  0.077314630	-4.692000E+00	  0.077314630	-8.648600E+01	  0.077314630	2.604900E+01	  0.077314630	-4.585800E+01
288	  0.077515028	-4.698000E+00	  0.077515028	-8.669200E+01	  0.077515028	2.598800E+01	  0.077515028	-4.570200E+01
289	  0.077715434	-4.702000E+00	  0.077715434	-8.692500E+01	  0.077715434	2.590900E+01	  0.077715434	-4.553300E+01
290	  0.077915832	-4.705000E+00	  0.077915832	-8.716300E+01	  0.077915832	2.582400E+01	  0.077915832	-4.536300E+01
291	  0.078116231	-4.708000E+00	  0.078116231	-8.742900E+01	  0.078116231	2.572900E+01	  0.078116231	-4.517500E+01
292	  0.078316636	-4.709000E+00	  0.078316636	-8.767000E+01	  0.078316636	2.564000E+01	  0.078316636	-4.500700E+01
293	  0.078517035	-4.711000E+00	  0.078517035	-8.790900E+01	  0.078517035	2.555100E+01	  0.078517035	-4.484100E+01
294	  0.078717433	-4.706000E+00	  0.078717433	-8.814600E+01	  0.078717433	2.543600E+01	  0.078717433	-4.469400E+01
295	  0.078917839	-4.703000E+00	  0.078917839	-8.836000E+01	  0.078917839	2.533500E+01	  0.078917839	-4.456100E+01
296	  0.079118237	-4.701000E+00	  0.079118237	-8.859000E+01	  0.079118237	2.523800E+01	  0.079118237	-4.441100E+01
297	  0.079318643	-4.699000E+00	  0.079318643	-8.880900E+01	  0.079318643	2.514200E+01	  0.079318643	-4.427000E+01
298	  0.079519041	-4.700000E+00	  0.079519041	-8.902000E+01	  0.079519041	2.506400E+01	  0.079519041	-4.412700E+01
299	  0.079719439	-4.701000E+00	  0.079719439	-8.923400E+01	  0.079719439	2.498800E+01	  0.079719439	-4.398100E+01
300	  0.079919845	-4.705000E+00	  0.079919845	-8.946100E+01	  0.079919845	2.491800E+01	  0.079919845	-4.382100E+01
301	  0.080120243	-4.706000E+00	  0.080120243	-8.966300E+01	  0.080120243	2.484800E+01	  0.080120243	-4.368300E+01
302	  0.080320641	-4.714000E+00	  0.080320641	-8.988300E+01	  0.080320641	2.479600E+01	  0.080320641	-4.351900E+01
303	  0.080521047	-4.716000E+00	  0.080521047	-9.011900E+01	  0.080521047	2.471700E+01	  0.080521047	-4.335900E+01
304	  0.080721445	-4.721000E+00	  0.080721445	-9.036100E+01	  0.080721445	2.464900E+01	  0.080721445	-4.318700E+01
305	  0.080921844	-4.727000E+00	  0.080921844	-9.059100E+01	  0.080921844	2.459000E+01	  0.080921844	-4.302200E+01
306	  0.081122249	-4.725000E+00	  0.081122249	-9.080200E+01	  0.081122249	2.450400E+01	  0.081122249	-4.288800E+01
307	  0.081322648	-4.730000E+00	  0.081322648	-9.105700E+01	  0.081322648	2.443400E+01	  0.081322648	-4.270900E+01
308	  0.081523046	-4.734000E+00	  0.081523046	-9.128800E+01	  0.081523046	2.436600E+01	  0.081523046	-4.255000E+01
309	  0.081723452	-4.735000E+00	  0.081723452	-9.152100E+01	  0.081723452	2.428500E+01	  0.081723452	-4.239700E+01
310	  0.081923850	-4.738000E+00	  0.081923850	-9.176800E+01	  0.081923850	2.421100E+01	  0.081923850	-4.223000E+01
311	  0.082124248	-4.741000E+00	  0.082124248	-9.198900E+01	  0.082124248	2.414600E+01	  0.082124248	-4.208100E+01
312	  0.082324654	-4.747000E+00	  0.082324654	-9.226400E+01	  0.082324654	2.407100E+01	  0.082324654	-4.189100E+01
313	  0.082525052	-4.749000E+00	  0.082525052	-9.253900E+01	  0.082525052	2.398500E+01	  0.082525052	-4.170900E+01
314	  0.082725458	-4.756000E+00	  0.082725458	-9.280900E+01	  0.082725458	2.392100E+01	  0.082725458	-4.152100E+01
315	  0.082925856	-4.765000E+00	  0.082925856	-9.307400E+01	  0.082925856	2.386600E+01	  0.082925856	-4.133200E+01
316	  0.083126254	-4.762000E+00	  0.083126254	-9.335900E+01	  0.083126254	2.375600E+01	  0.083126254	-4.115800E+01
317	  0.083326660	-4.767000E+00	  0.083326660	-9.363700E+01	  0.083326660	2.368200E+01	  0.083326660	-4.097100E+01
318	  0.083527058	-4.764000E+00	  0.083527058	-9.391900E+01	  0.083527058	2.357500E+01	  0.083527058	-4.080000E+01
319	  0.083727457	-4.760000E+00	  0.083727457	-9.420400E+01	  0.083727457	2.346300E+01	  0.083727457	-4.062900E+01
320	  0.083927862	-4.749000E+00	  0.083927862	-9.446500E+01	  0.083927862	2.333100E+01	  0.083927862	-4.048900E+01
321	  0.084128261	-4.742000E+00	  0.084128261	-9.474300E+01	  0.084128261	2.321200E+01	  0.084128261	-4.033000E+01
322	  0.084328659	-4.734000E+00	  0.084328659	-9.498400E+01	  0.084328659	2.309900E+01	  0.084328659	-4.019700E+01
323	  0.084529065	-4.725000E+00	  0.084529065	-9.518600E+01	  0.084529065	2.299500E+01	  0.084529065	-4.009100E+01
324	  0.084729463	-4.722000E+00	  0.084729463	-9.538600E+01	  0.084729463	2.292100E+01	  0.084729463	-3.997100E+01
325	  0.084929861	-4.717000E+00	  0.084929861	-9.558700E+01	  0.084929861	2.283500E+01	  0.084929861	-3.985700E+01
326	  0.085130267	-4.708000E+00	  0.085130267	-9.579100E+01	  0.085130267	2.273200E+01	  0.085130267	-3.974900E+01
327	  0.085330658	-4.709000E+00	  0.085330658	-9.598100E+01	  0.085330658	2.267900E+01	  0.085330658	-3.962800E+01
328	  0.085531056	-4.704000E+00	  0.085531056	-9.616900E+01	  0.085531056	2.259900E+01	  0.085531056	-3.952300E+01
329	  0.085731462	-4.705000E+00	  0.085731462	-9.635100E+01	  0.085731462	2.254500E+01	  0.085731462	-3.940800E+01
330	  0.085931860	-4.710000E+00	  0.085931860	-9.651500E+01	  0.085931860	2.251500E+01	  0.085931860	-3.929600E+01
331	  0.086132258	-4.709000E+00	  0.086132258	-9.676100E+01	  0.086132258	2.243700E+01	  0.086132258	-3.914600E+01
332	  0.086332664	-4.713000E+00	  0.086332664	-9.691600E+01	  0.086332664	2.240400E+01	  0.086332664	-3.904300E+01
333	  0.086533062	-4.715000E+00	  0.086533062	-9.714200E+01	  0.086533062	2.234600E+01	  0.086533062	-3.890000E+01
334	  0.086733460	-4.721000E+00	  0.086733460	-9.731000E+01	  0.086733460	2.231900E+01	  0.086733460	-3.878400E+01
335	  0.086933866	-4.718000E+00	  0.086933866	-9.750300E+01	  0.086933866	2.224800E+01	  0.086933866	-3.867300E+01
336	  0.087134264	-4.728000E+00	  0.087134264	-9.771000E+01	  0.087134264	2.222800E+01	  0.087134264	-3.852600E+01
337	  0.087334670	-4.729000E+00	  0.087334670	-9.790800E+01	  0.087334670	2.216900E+01	  0.087334670	-3.840500E+01
338	  0.087535068	-4.738000E+00	  0.087535068	-9.811900E+01	  0.087535068	2.214400E+01	  0.087535068	-3.825900E+01
339	  0.087735467	-4.745000E+00	  0.087735467	-9.836000E+01	  0.087735467	2.210100E+01	  0.087735467	-3.809900E+01
340	  0.087935872	-4.753000E+00	  0.087935872	-9.858500E+01	  0.087935872	2.206800E+01	  0.087935872	-3.794700E+01
341	  0.088136271	-4.764000E+00	  0.088136271	-9.882600E+01	  0.088136271	2.204000E+01	  0.088136271	-3.778200E+01
342	  0.088336669	-4.774000E+00	  0.088336669	-9.908400E+01	  0.088336669	2.200500E+01	  0.088336669	-3.760800E+01
343	  0.088537075	-4.782000E+00	  0.088537075	-9.932800E+01	  0.088537075	2.196600E+01	  0.088537075	-3.744700E+01
344	  0.088737473	-4.787000E+00	  0.088737473	-9.963000E+01	  0.088737473	2.190000E+01	  0.088737473	-3.725700E+01
345	  0.088937871	-4.792000E+00	  0.088937871	-9.991800E+01	  0.088937871	2.183900E+01	  0.088937871	-3.707700E+01
346	  0.089138277	-4.786000E+00	  0.089138277	-1.002160E+02	  0.089138277	2.173100E+01	  0.089138277	-3.691100E+01
347	  0.089338675	-4.786000E+00	  0.089338675	-1.005010E+02	  0.089338675	2.165300E+01	  0.089338675	-3.674200E+01
348	  0.089539073	-4.779000E+00	  0.089539073	-1.008150E+02	  0.089539073	2.153700E+01	  0.089539073	-3.657100E+01
349	  0.089739479	-4.777000E+00	  0.089739479	-1.010500E+02	  0.089739479	2.146500E+01	  0.089739479	-3.643600E+01
350	  0.089939877	-4.764000E+00	  0.089939877	-1.013230E+02	  0.089939877	2.134200E+01	  0.089939877	-3.629900E+01
351	  0.090140276	-4.767000E+00	  0.090140276	-1.015590E+02	  0.090140276	2.128700E+01	  0.090140276	-3.615600E+01
352	  0.090340681	-4.755000E+00	  0.090340681	-1.018180E+02	  0.090340681	2.117400E+01	  0.090340681	-3.602500E+01
353	  0.090541080	-4.749000E+00	  0.090541080	-1.020400E+02	  0.090541080	2.109200E+01	  0.090541080	-3.590600E+01
354	  0.090741485	-4.748000E+00	  0.090741485	-1.022660E+02	  0.090741485	2.102800E+01	  0.090741485	-3.577500E+01
355	  0.090941884	-4.741000E+00	  0.090941884	-1.024570E+02	  0.090941884	2.095200E+01	  0.090941884	-3.567600E+01
356	  0.091142282	-4.745000E+00	  0.091142282	-1.026830E+02	  0.091142282	2.090900E+01	  0.091142282	-3.553800E+01
357	  0.091342688	-4.737000E+00	  0.091342688	-1.029250E+02	  0.091342688	2.081500E+01	  0.091342688	-3.541100E+01
358	  0.091543086	-4.738000E+00	  0.091543086	-1.031320E+02	  0.091543086	2.076500E+01	  0.091543086	-3.529000E+01
359	  0.091743484	-4.733000E+00	  0.091743484	-1.033150E+02	  0.091743484	2.069800E+01	  0.091743484	-3.519400E+01
360	  0.091943890	-4.735000E+00	  0.091943890	-1.035180E+02	  0.091943890	2.065400E+01	  0.091943890	-3.507300E+01
361	  0.092144288	-4.732000E+00	  0.092144288	-1.037350E+02	  0.092144288	2.058800E+01	  0.092144288	-3.495300E+01
362	  0.092344686	-4.731000E+00	  0.092344686	-1.039090E+02	  0.092344686	2.054100E+01	  0.092344686	-3.485500E+01
363	  0.092545092	-4.737000E+00	  0.092545092	-1.041130E+02	  0.092545092	2.051100E+01	  0.092545092	-3.472800E+01
364	  0.092745490	-4.734000E+00	  0.092745490	-1.042930E+02	  0.092745490	2.045800E+01	  0.092745490	-3.462900E+01
365	  0.092945889	-4.744000E+00	  0.092945889	-1.045030E+02	  0.092945889	2.044300E+01	  0.092945889	-3.449300E+01
366	  0.093146294	-4.745000E+00	  0.093146294	-1.046830E+02	  0.093146294	2.040500E+01	  0.093146294	-3.438700E+01
367	  0.093346693	-4.758000E+00	  0.093346693	-1.048770E+02	  0.093346693	2.040500E+01	  0.093346693	-3.425600E+01
368	  0.093547091	-4.758000E+00	  0.093547091	-1.050800E+02	  0.093547091	2.035400E+01	  0.093547091	-3.414200E+01
369	  0.093747497	-4.776000E+00	  0.093747497	-1.053020E+02	  0.093747497	2.036700E+01	  0.093747497	-3.398700E+01
370	  0.093947895	-4.781000E+00	  0.093947895	-1.055490E+02	  0.093947895	2.032700E+01	  0.093947895	-3.384000E+01
371	  0.094148301	-4.788000E+00	  0.094148301	-1.057730E+02	  0.094148301	2.030100E+01	  0.094148301	-3.370200E+01
372	  0.094348699	-4.794000E+00	  0.094348699	-1.060260E+02	  0.094348699	2.026100E+01	  0.094348699	-3.355100E+01
373	  0.094549097	-4.802000E+00	  0.094549097	-1.062850E+02	  0.094549097	2.022900E+01	  0.094549097	-3.339400E+01
374	  0.094749503	-4.799000E+00	  0.094749503	-1.065460E+02	  0.094749503	2.015800E+01	  0.094749503	-3.325200E+01
375	  0.094949901	-4.804000E+00	  0.094949901	-1.067980E+02	  0.094949901	2.011600E+01	  0.094949901	-3.310500E+01
376	  0.095150299	-4.805000E+00	  0.095150299	-1.070580E+02	  0.095150299	2.006200E+01	  0.095150299	-3.295700E+01
377	  0.095350705	-4.808000E+00	  0.095350705	-1.073010E+02	  0.095350705	2.001800E+01	  0.095350705	-3.281800E+01
378	  0.095551103	-4.805000E+00	  0.095551103	-1.075650E+02	  0.095551103	1.994400E+01	  0.095551103	-3.267700E+01
379	  0.095751502	-4.808000E+00	  0.095751502	-1.078340E+02	  0.095751502	1.989300E+01	  0.095751502	-3.252400E+01
380	  0.095951907	-4.809000E+00	  0.095951907	-1.080750E+02	  0.095951907	1.984400E+01	  0.095951907	-3.238900E+01
381	  0.096152306	-4.807000E+00	  0.096152306	-1.083590E+02	  0.096152306	1.977200E+01	  0.096152306	-3.223600E+01
382	  0.096352704	-4.808000E+00	  0.096352704	-1.085950E+02	  0.096352704	1.972400E+01	  0.096352704	-3.210500E+01
383	  0.096553110	-4.806000E+00	  0.096553110	-1.088680E+02	  0.096553110	1.965800E+01	  0.096553110	-3.195800E+01
384	  0.096753508	-4.811000E+00	  0.096753508	-1.091340E+02	  0.096753508	1.961800E+01	  0.096753508	-3.180500E+01
385	  0.096953906	-4.808000E+00	  0.096953906	-1.093920E+02	  0.096953906	1.955100E+01	  0.096953906	-3.166900E+01
386	  0.097154312	-4.799000E+00	  0.097154312	-1.096750E+02	  0.097154312	1.945800E+01	  0.097154312	-3.152800E+01
387	  0.097354710	-4.797000E+00	  0.097354710	-1.099180E+02	  0.097354710	1.939900E+01	  0.097354710	-3.139800E+01
388	  0.097555116	-4.797000E+00	  0.097555116	-1.101530E+02	  0.097555116	1.934800E+01	  0.097555116	-3.127200E+01
389	  0.097755514	-4.790000E+00	  0.097755514	-1.104140E+02	  0.097755514	1.926900E+01	  0.097755514	-3.114000E+01
390	  0.097955912	-4.788000E+00	  0.097955912	-1.106240E+02	  0.097955912	1.921700E+01	  0.097955912	-3.103000E+01
391	  0.098156318	-4.784000E+00	  0.098156318	-1.108400E+02	  0.098156318	1.915800E+01	  0.098156318	-3.091900E+01
392	  0.098356716	-4.780000E+00	  0.098356716	-1.110710E+02	  0.098356716	1.909800E+01	  0.098356716	-3.079900E+01
393	  0.098557115	-4.779000E+00	  0.098557115	-1.112670E+02	  0.098557115	1.905400E+01	  0.098557115	-3.069400E+01
394	  0.098757520	-4.782000E+00	  0.098757520	-1.114720E+02	  0.098757520	1.902200E+01	  0.098757520	-3.058100E+01
395	  0.098957919	-4.782000E+00	  0.098957919	-1.116630E+02	  0.098957919	1.898400E+01	  0.098957919	-3.047800E+01
396	  0.099158317	-4.786000E+00	  0.099158317	-1.118800E+02	  0.099158317	1.895200E+01	  0.099158317	-3.035700E+01
397	  0.099358723	-4.787000E+00	  0.099358723	-1.120580E+02	  0.099358723	1.892300E+01	  0.099358723	-3.026000E+01
398	  0.099559121	-4.790000E+00	  0.099559121	-1.122770E+02	  0.099559121	1.888700E+01	  0.099559121	-3.014100E+01
399	  0.099759519	-4.793000E+00	  0.099759519	-1.125040E+02	  0.099759519	1.885300E+01	  0.099759519	-3.001500E+01
400	  0.099959925	-4.788000E+00	  0.099959925	-1.127710E+02	  0.099959925	1.878400E+01	  0.099959925	-2.988000E+01
401	  0.100160323	-4.803000E+00	  0.100160323	-1.129470E+02	  0.100160323	1.880300E+01	  0.100160323	-2.976700E+01
402	  0.100360721	-4.799000E+00	  0.100360721	-1.131690E+02	  0.100360721	1.874600E+01	  0.100360721	-2.965500E+01
403	  0.100561127	-4.811000E+00	  0.100561127	-1.134260E+02	  0.100561127	1.873500E+01	  0.100561127	-2.950500E+01
404	  0.100761525	-4.809000E+00	  0.100761525	-1.136210E+02	  0.100761525	1.869200E+01	  0.100761525	-2.940400E+01
405	  0.100961931	-4.812000E+00	  0.100961931	-1.138900E+02	  0.100961931	1.865200E+01	  0.100961931	-2.925900E+01
406	  0.101162329	-4.812000E+00	  0.101162329	-1.141050E+02	  0.101162329	1.861000E+01	  0.101162329	-2.914600E+01
407	  0.101362728	-4.829000E+00	  0.101362728	-1.143650E+02	  0.101362728	1.862100E+01	  0.101362728	-2.898800E+01
408	  0.101563133	-4.827000E+00	  0.101563133	-1.146310E+02	  0.101563133	1.856300E+01	  0.101563133	-2.885200E+01
409	  0.101763532	-4.843000E+00	  0.101763532	-1.148650E+02	  0.101763532	1.857600E+01	  0.101763532	-2.871000E+01
410	  0.101963930	-4.833000E+00	  0.101963930	-1.151360E+02	  0.101963930	1.849000E+01	  0.101963930	-2.858200E+01
411	  0.102164336	-4.850000E+00	  0.102164336	-1.154420E+02	  0.102164336	1.849300E+01	  0.102164336	-2.840200E+01
412	  0.102364734	-4.837000E+00	  0.102364734	-1.157020E+02	  0.102364734	1.840100E+01	  0.102364734	-2.828400E+01
413	  0.102565132	-4.844000E+00	  0.102565132	-1.160130E+02	  0.102565132	1.836900E+01	  0.102565132	-2.811500E+01
414	  0.102765530	-4.838000E+00	  0.102765530	-1.162800E+02	  0.102765530	1.830100E+01	  0.102765530	-2.798400E+01
415	  0.102965929	-4.846000E+00	  0.102965929	-1.165570E+02	  0.102965929	1.827900E+01	  0.102965929	-2.783300E+01
416	  0.103166327	-4.842000E+00	  0.103166327	-1.168360E+02	  0.103166327	1.821400E+01	  0.103166327	-2.769500E+01
417	  0.103366733	-4.841000E+00	  0.103366733	-1.170640E+02	  0.103366733	1.817200E+01	  0.103366733	-2.757800E+01
418	  0.103567131	-4.837000E+00	  0.103567131	-1.173330E+02	  0.103567131	1.811000E+01	  0.103567131	-2.744600E+01
419	  0.103767529	-4.832000E+00	  0.103767529	-1.175540E+02	  0.103767529	1.805500E+01	  0.103767529	-2.733900E+01
420	  0.103967935	-4.825000E+00	  0.103967935	-1.178420E+02	  0.103967935	1.798100E+01	  0.103967935	-2.720100E+01
421	  0.104168333	-4.819000E+00	  0.104168333	-1.180420E+02	  0.104168333	1.792700E+01	  0.104168333	-2.710600E+01
422	  0.104368731	-4.817000E+00	  0.104368731	-1.182500E+02	  0.104368731	1.788500E+01	  0.104368731	-2.700200E+01
423	  0.104569137	-4.815000E+00	  0.104569137	-1.184500E+02	  0.104569137	1.784700E+01	  0.104569137	-2.690200E+01
424	  0.104769535	-4.819000E+00	  0.104769535	-1.186290E+02	  0.104769535	1.782900E+01	  0.104769535	-2.680700E+01
425	  0.104969934	-4.807000E+00	  0.104969934	-1.188070E+02	  0.104969934	1.775800E+01	  0.104969934	-2.673100E+01
426	  0.105170339	-4.810000E+00	  0.105170339	-1.190240E+02	  0.105170339	1.773500E+01	  0.105170339	-2.661800E+01
427	  0.105370738	-4.822000E+00	  0.105370738	-1.192230E+02	  0.105370738	1.774000E+01	  0.105370738	-2.650500E+01
428	  0.105571143	-4.812000E+00	  0.105571143	-1.194230E+02	  0.105571143	1.767600E+01	  0.105571143	-2.641400E+01
429	  0.105771542	-4.819000E+00	  0.105771542	-1.195810E+02	  0.105771542	1.767100E+01	  0.105771542	-2.632800E+01
430	  0.105971940	-4.812000E+00	  0.105971940	-1.198160E+02	  0.105971940	1.761000E+01	  0.105971940	-2.621700E+01
431	  0.106172346	-4.824000E+00	  0.106172346	-1.199910E+02	  0.106172346	1.762300E+01	  0.106172346	-2.611600E+01
432	  0.106372744	-4.815000E+00	  0.106372744	-1.202060E+02	  0.106372744	1.755900E+01	  0.106372744	-2.601800E+01
433	  0.106573142	-4.828000E+00	  0.106573142	-1.204160E+02	  0.106573142	1.756700E+01	  0.106573142	-2.589900E+01
434	  0.106773548	-4.835000E+00	  0.106773548	-1.206470E+02	  0.106773548	1.755300E+01	  0.106773548	-2.577700E+01
435	  0.106973946	-4.841000E+00	  0.106973946	-1.209130E+02	  0.106973946	1.753100E+01	  0.106973946	-2.563900E+01
436	  0.107174344	-4.841000E+00	  0.107174344	-1.211360E+02	  0.107174344	1.749900E+01	  0.107174344	-2.552700E+01
437	  0.107374750	-4.851000E+00	  0.107374750	-1.214330E+02	  0.107374750	1.748600E+01	  0.107374750	-2.536900E+01
438	  0.107575148	-4.853000E+00	  0.107575148	-1.217370E+02	  0.107575148	1.744200E+01	  0.107575148	-2.521700E+01
439	  0.107775547	-4.858000E+00	  0.107775547	-1.220270E+02	  0.107775547	1.741600E+01	  0.107775547	-2.506900E+01
440	  0.107975952	-4.863000E+00	  0.107975952	-1.223250E+02	  0.107975952	1.738600E+01	  0.107975952	-2.491800E+01
441	  0.108176351	-4.868000E+00	  0.108176351	-1.226260E+02	  0.108176351	1.735900E+01	  0.108176351	-2.476400E+01
442	  0.108376749	-4.860000E+00	  0.108376749	-1.229370E+02	  0.108376749	1.728500E+01	  0.108376749	-2.462000E+01
443	  0.108577155	-4.864000E+00	  0.108577155	-1.232160E+02	  0.108577155	1.725800E+01	  0.108577155	-2.447900E+01
444	  0.108777553	-4.853000E+00	  0.108777553	-1.234660E+02	  0.108777553	1.718400E+01	  0.108777553	-2.436800E+01
445	  0.108977959	-4.863000E+00	  0.108977959	-1.237670E+02	  0.108977959	1.717300E+01	  0.108977959	-2.421100E+01
446	  0.109178357	-4.848000E+00	  0.109178357	-1.240320E+02	  0.109178357	1.708600E+01	  0.109178357	-2.409700E+01
447	  0.109378755	-4.844000E+00	  0.109378755	-1.242880E+02	  0.109378755	1.703800E+01	  0.109378755	-2.397600E+01
448	  0.109579161	-4.834000E+00	  0.109579161	-1.244830E+02	  0.109579161	1.697700E+01	  0.109579161	-2.389000E+01
449	  0.109779559	-4.831000E+00	  0.109779559	-1.247070E+02	  0.109779559	1.693800E+01	  0.109779559	-2.378400E+01
450	  0.109979957	-4.824000E+00	  0.109979957	-1.249090E+02	  0.109979957	1.688500E+01	  0.109979957	-2.369300E+01
451	  0.110180363	-4.823000E+00	  0.110180363	-1.250510E+02	  0.110180363	1.686400E+01	  0.110180363	-2.362500E+01
452	  0.110380761	-4.811000E+00	  0.110380761	-1.252410E+02	  0.110380761	1.679600E+01	  0.110380761	-2.354500E+01
453	  0.110581160	-4.803000E+00	  0.110581160	-1.254110E+02	  0.110581160	1.674800E+01	  0.110581160	-2.346900E+01
454	  0.110781565	-4.810000E+00	  0.110781565	-1.255780E+02	  0.110781565	1.674800E+01	  0.110781565	-2.338200E+01
455	  0.110981964	-4.808000E+00	  0.110981964	-1.257470E+02	  0.110981964	1.672000E+01	  0.110981964	-2.330200E+01
456	  0.111182362	-4.807000E+00	  0.111182362	-1.259070E+02	  0.111182362	1.669300E+01	  0.111182362	-2.322600E+01
457	  0.111382768	-4.805000E+00	  0.111382768	-1.260750E+02	  0.111382768	1.666500E+01	  0.111382768	-2.314700E+01
458	  0.111583166	-4.807000E+00	  0.111583166	-1.262280E+02	  0.111583166	1.665100E+01	  0.111583166	-2.307200E+01
459	  0.111783572	-4.811000E+00	  0.111783572	-1.263900E+02	  0.111783572	1.664100E+01	  0.111783572	-2.299100E+01
460	  0.111983970	-4.817000E+00	  0.111983970	-1.266150E+02	  0.111983970	1.663000E+01	  0.111983970	-2.287700E+01
461	  0.112184368	-4.832000E+00	  0.112184368	-1.267770E+02	  0.112184368	1.665600E+01	  0.112184368	-2.278700E+01
462	  0.112384774	-4.834000E+00	  0.112384774	-1.269980E+02	  0.112384774	1.663400E+01	  0.112384774	-2.267900E+01
463	  0.112585172	-4.848000E+00	  0.112585172	-1.272720E+02	  0.112585172	1.664100E+01	  0.112585172	-2.253600E+01
464	  0.112785570	-4.850000E+00	  0.112785570	-1.275170E+02	  0.112785570	1.661500E+01	  0.112785570	-2.241800E+01
465	  0.112985976	-4.860000E+00	  0.112985976	-1.277720E+02	  0.112985976	1.661500E+01	  0.112985976	-2.228800E+01
466	  0.113186374	-4.866000E+00	  0.113186374	-1.280320E+02	  0.113186374	1.660100E+01	  0.113186374	-2.216000E+01
467	  0.113386773	-4.876000E+00	  0.113386773	-1.283290E+02	  0.113386773	1.659300E+01	  0.113386773	-2.201100E+01
468	  0.113587178	-4.883000E+00	  0.113587178	-1.286030E+02	  0.113587178	1.658000E+01	  0.113587178	-2.187500E+01
469	  0.113787577	-4.889000E+00	  0.113787577	-1.289030E+02	  0.113787577	1.656200E+01	  0.113787577	-2.172900E+01
470	  0.113987975	-4.882000E+00	  0.113987975	-1.292200E+02	  0.113987975	1.650100E+01	  0.113987975	-2.158500E+01
471	  0.114188381	-4.883000E+00	  0.114188381	-1.294970E+02	  0.114188381	1.646800E+01	  0.114188381	-2.145400E+01
472	  0.114388779	-4.883000E+00	  0.114388779	-1.297870E+02	  0.114388779	1.643400E+01	  0.114388779	-2.131800E+01
473	  0.114589177	-4.886000E+00	  0.114589177	-1.300780E+02	  0.114589177	1.640600E+01	  0.114589177	-2.118000E+01
474	  0.114789583	-4.879000E+00	  0.114789583	-1.303140E+02	  0.114789583	1.635800E+01	  0.114789583	-2.107500E+01
475	  0.114989981	-4.881000E+00	  0.114989981	-1.306060E+02	  0.114989981	1.632700E+01	  0.114989981	-2.093700E+01
476	  0.115190387	-4.875000E+00	  0.115190387	-1.308200E+02	  0.115190387	1.628500E+01	  0.115190387	-2.084200E+01
477	  0.115390785	-4.869000E+00	  0.115390785	-1.310420E+02	  0.115390785	1.623900E+01	  0.115390785	-2.074400E+01
478	  0.115591183	-4.862000E+00	  0.115591183	-1.312770E+02	  0.115591183	1.619100E+01	  0.115591183	-2.063900E+01
479	  0.115791589	-4.866000E+00	  0.115791589	-1.315010E+02	  0.115791589	1.617600E+01	  0.115791589	-2.053200E+01
480	  0.115991987	-4.864000E+00	  0.115991987	-1.317010E+02	  0.115991987	1.614800E+01	  0.115991987	-2.044100E+01
481	  0.116192386	-4.863000E+00	  0.116192386	-1.319080E+02	  0.116192386	1.612000E+01	  0.116192386	-2.034600E+01
482	  0.116392791	-4.855000E+00	  0.116392791	-1.320880E+02	  0.116392791	1.607500E+01	  0.116392791	-2.026900E+01
483	  0.116593190	-4.857000E+00	  0.116593190	-1.322790E+02	  0.116593190	1.606100E+01	  0.116593190	-2.017900E+01
484	  0.116793588	-4.853000E+00	  0.116793588	-1.324420E+02	  0.116793588	1.603000E+01	  0.116793588	-2.010600E+01
485	  0.116993994	-4.859000E+00	  0.116993994	-1.326700E+02	  0.116993994	1.602200E+01	  0.116993994	-1.999700E+01
486	  0.117194392	-4.860000E+00	  0.117194392	-1.328810E+02	  0.117194392	1.600000E+01	  0.117194392	-1.989900E+01
487	  0.117394790	-4.865000E+00	  0.117394790	-1.330740E+02	  0.117394790	1.599500E+01	  0.117394790	-1.980600E+01
488	  0.117595196	-4.870000E+00	  0.117595196	-1.333080E+02	  0.117595196	1.598600E+01	  0.117595196	-1.969500E+01
489	  0.117795594	-4.877000E+00	  0.117795594	-1.335550E+02	  0.117795594	1.597900E+01	  0.117795594	-1.957600E+01
490	  0.117995992	-4.874000E+00	  0.117995992	-1.337810E+02	  0.117995992	1.594500E+01	  0.117995992	-1.947500E+01
491	  0.118196398	-4.879000E+00	  0.118196398	-1.340090E+02	  0.118196398	1.593600E+01	  0.118196398	-1.936700E+01
492	  0.118396796	-4.876000E+00	  0.118396796	-1.342990E+02	  0.118396796	1.589600E+01	  0.118396796	-1.923700E+01
493	  0.118597202	-4.884000E+00	  0.118597202	-1.345410E+02	  0.118597202	1.589400E+01	  0.118597202	-1.912000E+01
494	  0.118797600	-4.885000E+00	  0.118797600	-1.348490E+02	  0.118797600	1.586500E+01	  0.118797600	-1.898000E+01
495	  0.118997999	-4.884000E+00	  0.118997999	-1.351030E+02	  0.118997999	1.583300E+01	  0.118997999	-1.886500E+01
496	  0.119198404	-4.882000E+00	  0.119198404	-1.353520E+02	  0.119198404	1.580300E+01	  0.119198404	-1.875300E+01
497	  0.119398803	-4.877000E+00	  0.119398803	-1.356350E+02	  0.119398803	1.575800E+01	  0.119398803	-1.862800E+01
498	  0.119599201	-4.873000E+00	  0.119599201	-1.359170E+02	  0.119599201	1.571900E+01	  0.119599201	-1.850300E+01
499	  0.119799607	-4.869000E+00	  0.119799607	-1.361630E+02	  0.119799607	1.568000E+01	  0.119799607	-1.839400E+01
500	  0.120000005	-4.867000E+00	  0.120000005	-1.363960E+02	  0.120000005	1.565200E+01	  0.120000005	-1.829000E+01
