! Anritsu VNA Master:             	Model: MS2036C/10/77
! SN:             	1601066
! /bd0/18may09/254.ew.m6.txt
! Existing Calibration Information:
! TYPE:             	Current Settings	Active Cal Settings
! TIME:             	05/09/2018 11:56:09 AM	05/09/2018 11:52:33 AM
! INTERNAL TEMP:    	54.0 C	53.5 C
! # POINTS:         	494	494
! START FREQ:       	20.000 MHz	20.000 MHz
! STOP FREQ:        	118.797 594 MHz	118.797 594 MHz
! SOURCE POWER:     	High	High
! IFBW:             	50 Hz	50 Hz
! AVG FACTOR:       	  1 	  1 
! REF PLANE 1:      	0 mm	0 mm
! REF PLANE 2:      	0 mm	0 mm
! CAL TYPE:         	Full S22	Full S22
! CAL METHOD:       	SOLT	SOLT
! CAL LINE TYPE:    	Coax	Coax
! DUT PORT 1:       	K-Conn(M)	K-Conn(M)
! DUT PORT 2:       	K-Conn(M)	K-Conn(M)
! CAL STATUS:       	OK: Accuracy High	--
! PROP-V:       	0.700
! CABLE LOSS:       	0.000 dB/m
! REF IMPEDANCE:       	50.0
! Trace Specific Parameters:	TR1	TR2	TR3	TR4
! TRACE.#.Y (GRAPH TYPE)	LOG MAG	PHASE	REAL IMPEDANCE	IMAGINARY IMPEDANCE
! TRACE.#.X 	FREQ.GHZ	FREQ.GHZ	FREQ.GHZ	FREQ.GHZ
! S-PARAMETER	S22	S22	S22	S22
! SMOOTH/APERTURE %	0	0	0	0
! WINDOW	NSL	NSL	NSL	NSL
! GATING	OFF	OFF	OFF	OFF
! FGTD	OFF	OFF	OFF	OFF
Marker Information per Trace:	TR1	TR2	TR3	TR4
!MK1	--	"MK1 TR2:  20.000 MHz,PH:-126.69°"	--	--
!MK2	--	--	"MK2 TR3:  70.100 200 MHz,Z:(16.099 ohm, -0.957 ohm)"	--
!MK3	--	--	--	--
!MK4	--	--	--	--
!MK5	--	--	--	--
!MK6	--	--	--	--
!MK7	--	--	--	--
!MK8	--	--	--	--
PNT	TR1.FREQ.GHZ	TR1.LOG MAG.dB	TR2.FREQ.GHZ	TR2.PHASE.deg	TR3.FREQ.GHZ	TR3.REAL IMPEDANCE.ohm	TR4.FREQ.GHZ	TR4.IMAGINARY IMPEDANCE.ohm
1	  0.020000000	-6.310000E-01	  0.020000000	-1.266860E+02	  0.020000000	2.273000E+00	  0.020000000	-2.505800E+01
2	  0.020200402	-6.320000E-01	  0.020200402	-1.281560E+02	  0.020200402	2.248000E+00	  0.020200402	-2.426200E+01
3	  0.020400802	-6.360000E-01	  0.020400802	-1.296190E+02	  0.020400802	2.235000E+00	  0.020400802	-2.347900E+01
4	  0.020601204	-6.390000E-01	  0.020601204	-1.311220E+02	  0.020601204	2.219000E+00	  0.020601204	-2.268400E+01
5	  0.020801604	-6.410000E-01	  0.020801604	-1.326440E+02	  0.020801604	2.198000E+00	  0.020801604	-2.188900E+01
6	  0.021002004	-6.420000E-01	  0.021002004	-1.341810E+02	  0.021002004	2.176000E+00	  0.021002004	-2.109600E+01
7	  0.021202406	-6.430000E-01	  0.021202406	-1.357290E+02	  0.021202406	2.157000E+00	  0.021202406	-2.030600E+01
8	  0.021402806	-6.480000E-01	  0.021402806	-1.372600E+02	  0.021402806	2.152000E+00	  0.021402806	-1.953200E+01
9	  0.021603208	-6.490000E-01	  0.021603208	-1.387810E+02	  0.021603208	2.132000E+00	  0.021603208	-1.877300E+01
10	  0.021803608	-6.530000E-01	  0.021803608	-1.403210E+02	  0.021803608	2.125000E+00	  0.021803608	-1.801000E+01
11	  0.022004008	-6.590000E-01	  0.022004008	-1.418580E+02	  0.022004008	2.122000E+00	  0.022004008	-1.725700E+01
12	  0.022204408	-6.620000E-01	  0.022204408	-1.434300E+02	  0.022204408	2.114000E+00	  0.022204408	-1.649400E+01
13	  0.022404809	-6.690000E-01	  0.022404809	-1.450000E+02	  0.022404809	2.116000E+00	  0.022404809	-1.573900E+01
14	  0.022605211	-6.740000E-01	  0.022605211	-1.465870E+02	  0.022605211	2.115000E+00	  0.022605211	-1.498100E+01
15	  0.022805611	-6.760000E-01	  0.022805611	-1.481800E+02	  0.022805611	2.105000E+00	  0.022805611	-1.422800E+01
16	  0.023006011	-6.810000E-01	  0.023006011	-1.497710E+02	  0.023006011	2.101000E+00	  0.023006011	-1.348200E+01
17	  0.023206413	-6.860000E-01	  0.023206413	-1.513520E+02	  0.023206413	2.102000E+00	  0.023206413	-1.274500E+01
18	  0.023406813	-6.910000E-01	  0.023406813	-1.529430E+02	  0.023406813	2.103000E+00	  0.023406813	-1.200900E+01
19	  0.023607215	-6.970000E-01	  0.023607215	-1.545320E+02	  0.023607215	2.108000E+00	  0.023607215	-1.127900E+01
20	  0.023807615	-7.060000E-01	  0.023807615	-1.561380E+02	  0.023807615	2.122000E+00	  0.023807615	-1.054600E+01
21	  0.024008015	-7.120000E-01	  0.024008015	-1.577730E+02	  0.024008015	2.128000E+00	  0.024008015	-9.804000E+00
22	  0.024208417	-7.190000E-01	  0.024208417	-1.594250E+02	  0.024208417	2.138000E+00	  0.024208417	-9.059000E+00
23	  0.024408817	-7.260000E-01	  0.024408817	-1.610830E+02	  0.024408817	2.146000E+00	  0.024408817	-8.314000E+00
24	  0.024609219	-7.330000E-01	  0.024609219	-1.627370E+02	  0.024609219	2.158000E+00	  0.024609219	-7.576000E+00
25	  0.024809619	-7.410000E-01	  0.024809619	-1.644000E+02	  0.024809619	2.172000E+00	  0.024809619	-6.836000E+00
26	  0.025010020	-7.490000E-01	  0.025010020	-1.660620E+02	  0.025010020	2.188000E+00	  0.025010020	-6.099000E+00
27	  0.025210422	-7.600000E-01	  0.025210422	-1.677420E+02	  0.025210422	2.211000E+00	  0.025210422	-5.358000E+00
28	  0.025410822	-7.690000E-01	  0.025410822	-1.694290E+02	  0.025410822	2.233000E+00	  0.025410822	-4.616000E+00
29	  0.025611224	-7.800000E-01	  0.025611224	-1.711340E+02	  0.025611224	2.259000E+00	  0.025611224	-3.868000E+00
30	  0.025811624	-7.920000E-01	  0.025811624	-1.728530E+02	  0.025811624	2.288000E+00	  0.025811624	-3.115000E+00
31	  0.026012026	-8.020000E-01	  0.026012026	-1.745810E+02	  0.026012026	2.312000E+00	  0.026012026	-2.360000E+00
32	  0.026212426	-8.130000E-01	  0.026212426	-1.763170E+02	  0.026212426	2.342000E+00	  0.026212426	-1.603000E+00
33	  0.026412826	-8.270000E-01	  0.026412826	-1.780600E+02	  0.026412826	2.379000E+00	  0.026412826	-8.440000E-01
34	  0.026613226	-8.400000E-01	  0.026613226	-1.798190E+02	  0.026613226	2.418000E+00	  0.026613226	-7.800000E-02
35	  0.026813626	-8.540000E-01	  0.026813626	1.784140E+02	  0.026813626	2.459000E+00	  0.026813626	6.900000E-01
36	  0.027014028	-8.690000E-01	  0.027014028	1.766470E+02	  0.027014028	2.501000E+00	  0.027014028	1.459000E+00
37	  0.027214428	-8.860000E-01	  0.027214428	1.748660E+02	  0.027214428	2.553000E+00	  0.027214428	2.235000E+00
38	  0.027414829	-9.000000E-01	  0.027414829	1.730830E+02	  0.027414829	2.600000E+00	  0.027414829	3.013000E+00
39	  0.027615231	-9.180000E-01	  0.027615231	1.712800E+02	  0.027615231	2.656000E+00	  0.027615231	3.801000E+00
40	  0.027815631	-9.340000E-01	  0.027815631	1.694690E+02	  0.027815631	2.710000E+00	  0.027815631	4.594000E+00
41	  0.028016033	-9.520000E-01	  0.028016033	1.676550E+02	  0.028016033	2.771000E+00	  0.028016033	5.390000E+00
42	  0.028216433	-9.710000E-01	  0.028216433	1.658140E+02	  0.028216433	2.836000E+00	  0.028216433	6.201000E+00
43	  0.028416833	-9.900000E-01	  0.028416833	1.639830E+02	  0.028416833	2.903000E+00	  0.028416833	7.011000E+00
44	  0.028617235	-1.009000E+00	  0.028617235	1.621340E+02	  0.028617235	2.974000E+00	  0.028617235	7.832000E+00
45	  0.028817635	-1.029000E+00	  0.028817635	1.602990E+02	  0.028817635	3.047000E+00	  0.028817635	8.650000E+00
46	  0.029018037	-1.051000E+00	  0.029018037	1.584510E+02	  0.029018037	3.132000E+00	  0.029018037	9.478000E+00
47	  0.029218437	-1.074000E+00	  0.029218437	1.565940E+02	  0.029218437	3.219000E+00	  0.029218437	1.031500E+01
48	  0.029418837	-1.099000E+00	  0.029418837	1.547020E+02	  0.029418837	3.319000E+00	  0.029418837	1.117300E+01
49	  0.029619239	-1.121000E+00	  0.029619239	1.528280E+02	  0.029619239	3.411000E+00	  0.029619239	1.202900E+01
50	  0.029819639	-1.147000E+00	  0.029819639	1.509300E+02	  0.029819639	3.517000E+00	  0.029819639	1.290300E+01
51	  0.030020041	-1.172000E+00	  0.030020041	1.490260E+02	  0.030020041	3.627000E+00	  0.030020041	1.378600E+01
52	  0.030220442	-1.197000E+00	  0.030220442	1.471310E+02	  0.030220442	3.740000E+00	  0.030220442	1.467200E+01
53	  0.030420844	-1.224000E+00	  0.030420844	1.452320E+02	  0.030420844	3.862000E+00	  0.030420844	1.556800E+01
54	  0.030621244	-1.252000E+00	  0.030621244	1.433270E+02	  0.030621244	3.992000E+00	  0.030621244	1.647500E+01
55	  0.030821642	-1.282000E+00	  0.030821642	1.414100E+02	  0.030821642	4.133000E+00	  0.030821642	1.739700E+01
56	  0.031022044	-1.313000E+00	  0.031022044	1.394810E+02	  0.031022044	4.284000E+00	  0.031022044	1.833500E+01
57	  0.031222444	-1.335000E+00	  0.031222444	1.375490E+02	  0.031222444	4.411000E+00	  0.031222444	1.928700E+01
58	  0.031422846	-1.368000E+00	  0.031422846	1.355870E+02	  0.031422846	4.581000E+00	  0.031422846	2.026300E+01
59	  0.031623244	-1.402000E+00	  0.031623244	1.336010E+02	  0.031623244	4.761000E+00	  0.031623244	2.126400E+01
60	  0.031823646	-1.435000E+00	  0.031823646	1.316330E+02	  0.031823646	4.945000E+00	  0.031823646	2.227000E+01
61	  0.032024048	-1.469000E+00	  0.032024048	1.296470E+02	  0.032024048	5.145000E+00	  0.032024048	2.329800E+01
62	  0.032224450	-1.504000E+00	  0.032224450	1.276700E+02	  0.032224450	5.351000E+00	  0.032224450	2.433700E+01
63	  0.032424849	-1.540000E+00	  0.032424849	1.256840E+02	  0.032424849	5.574000E+00	  0.032424849	2.539700E+01
64	  0.032625251	-1.577000E+00	  0.032625251	1.236590E+02	  0.032625251	5.811000E+00	  0.032625251	2.649400E+01
65	  0.032825653	-1.614000E+00	  0.032825653	1.216340E+02	  0.032825653	6.062000E+00	  0.032825653	2.761000E+01
66	  0.033026051	-1.649000E+00	  0.033026051	1.195910E+02	  0.033026051	6.317000E+00	  0.033026051	2.875700E+01
67	  0.033226453	-1.687000E+00	  0.033226453	1.175510E+02	  0.033226453	6.597000E+00	  0.033226453	2.992300E+01
68	  0.033426855	-1.726000E+00	  0.033426855	1.155270E+02	  0.033426855	6.894000E+00	  0.033426855	3.110000E+01
69	  0.033627257	-1.764000E+00	  0.033627257	1.134850E+02	  0.033627257	7.204000E+00	  0.033627257	3.231200E+01
70	  0.033827655	-1.804000E+00	  0.033827655	1.114460E+02	  0.033827655	7.543000E+00	  0.033827655	3.354500E+01
71	  0.034028057	-1.844000E+00	  0.034028057	1.093980E+02	  0.034028057	7.894000E+00	  0.034028057	3.481100E+01
72	  0.034228459	-1.885000E+00	  0.034228459	1.073310E+02	  0.034228459	8.278000E+00	  0.034228459	3.611600E+01
73	  0.034428857	-1.927000E+00	  0.034428857	1.052560E+02	  0.034428857	8.685000E+00	  0.034428857	3.745500E+01
74	  0.034629259	-1.969000E+00	  0.034629259	1.031840E+02	  0.034629259	9.120000E+00	  0.034629259	3.882400E+01
75	  0.034829661	-2.012000E+00	  0.034829661	1.011080E+02	  0.034829661	9.584000E+00	  0.034829661	4.022700E+01
76	  0.035030060	-2.059000E+00	  0.035030060	9.903800E+01	  0.035030060	1.009500E+01	  0.035030060	4.165800E+01
77	  0.035230462	-2.105000E+00	  0.035230462	9.696400E+01	  0.035230462	1.063300E+01	  0.035230462	4.312800E+01
78	  0.035430863	-2.152000E+00	  0.035430863	9.487800E+01	  0.035430863	1.121700E+01	  0.035430863	4.464400E+01
79	  0.035631265	-2.198000E+00	  0.035631265	9.280400E+01	  0.035631265	1.183000E+01	  0.035631265	4.619200E+01
80	  0.035831664	-2.249000E+00	  0.035831664	9.073100E+01	  0.035831664	1.251100E+01	  0.035831664	4.777400E+01
81	  0.036032066	-2.296000E+00	  0.036032066	8.863800E+01	  0.036032066	1.322200E+01	  0.036032066	4.942200E+01
82	  0.036232468	-2.346000E+00	  0.036232468	8.654400E+01	  0.036232468	1.400100E+01	  0.036232468	5.111300E+01
83	  0.036432866	-2.395000E+00	  0.036432866	8.444800E+01	  0.036432866	1.483000E+01	  0.036432866	5.285600E+01
84	  0.036633268	-2.448000E+00	  0.036633268	8.237000E+01	  0.036633268	1.574100E+01	  0.036633268	5.462500E+01
85	  0.036833670	-2.498000E+00	  0.036833670	8.028100E+01	  0.036833670	1.670600E+01	  0.036833670	5.646100E+01
86	  0.037034072	-2.553000E+00	  0.037034072	7.818900E+01	  0.037034072	1.777400E+01	  0.037034072	5.834400E+01
87	  0.037234470	-2.605000E+00	  0.037234470	7.610200E+01	  0.037234470	1.890700E+01	  0.037234470	6.028300E+01
88	  0.037434869	-2.659000E+00	  0.037434869	7.402400E+01	  0.037434869	2.014100E+01	  0.037434869	6.226400E+01
89	  0.037635271	-2.711000E+00	  0.037635271	7.194200E+01	  0.037635271	2.145900E+01	  0.037635271	6.431400E+01
90	  0.037835669	-2.765000E+00	  0.037835669	6.982200E+01	  0.037835669	2.292900E+01	  0.037835669	6.645600E+01
91	  0.038036071	-2.821000E+00	  0.038036071	6.769000E+01	  0.038036071	2.454000E+01	  0.038036071	6.866800E+01
92	  0.038236473	-2.876000E+00	  0.038236473	6.557500E+01	  0.038236473	2.626900E+01	  0.038236473	7.093000E+01
93	  0.038436871	-2.934000E+00	  0.038436871	6.346400E+01	  0.038436871	2.817900E+01	  0.038436871	7.323100E+01
94	  0.038637273	-2.991000E+00	  0.038637273	6.135300E+01	  0.038637273	3.025800E+01	  0.038637273	7.558800E+01
95	  0.038837675	-3.044000E+00	  0.038837675	5.924800E+01	  0.038837675	3.247500E+01	  0.038837675	7.802200E+01
96	  0.039038073	-3.098000E+00	  0.039038073	5.714900E+01	  0.039038073	3.490800E+01	  0.039038073	8.049000E+01
97	  0.039238475	-3.153000E+00	  0.039238475	5.505700E+01	  0.039238475	3.756600E+01	  0.039238475	8.298900E+01
98	  0.039438877	-3.206000E+00	  0.039438877	5.298000E+01	  0.039438877	4.044000E+01	  0.039438877	8.551800E+01
99	  0.039639279	-3.258000E+00	  0.039639279	5.087700E+01	  0.039639279	4.361900E+01	  0.039639279	8.811100E+01
100	  0.039839678	-3.312000E+00	  0.039839678	4.877800E+01	  0.039839678	4.711000E+01	  0.039839678	9.070200E+01
101	  0.040040080	-3.366000E+00	  0.040040080	4.668100E+01	  0.040040080	5.094300E+01	  0.040040080	9.327600E+01
102	  0.040240481	-3.417000E+00	  0.040240481	4.457100E+01	  0.040240481	5.514600E+01	  0.040240481	9.586000E+01
103	  0.040440880	-3.467000E+00	  0.040440880	4.248900E+01	  0.040440880	5.969600E+01	  0.040440880	9.835700E+01
104	  0.040641282	-3.520000E+00	  0.040641282	4.042400E+01	  0.040641282	6.467000E+01	  0.040641282	1.006910E+02
105	  0.040841684	-3.573000E+00	  0.040841684	3.836300E+01	  0.040841684	7.010800E+01	  0.040841684	1.028510E+02
106	  0.041042086	-3.625000E+00	  0.041042086	3.629300E+01	  0.041042086	7.606800E+01	  0.041042086	1.048110E+02
107	  0.041242484	-3.677000E+00	  0.041242484	3.423600E+01	  0.041242484	8.252300E+01	  0.041242484	1.064540E+02
108	  0.041442886	-3.729000E+00	  0.041442886	3.216600E+01	  0.041442886	8.957300E+01	  0.041442886	1.077290E+02
109	  0.041643288	-3.780000E+00	  0.041643288	3.008800E+01	  0.041643288	9.722500E+01	  0.041643288	1.085160E+02
110	  0.041843686	-3.830000E+00	  0.041843686	2.802900E+01	  0.041843686	1.053680E+02	  0.041843686	1.087120E+02
111	  0.042044088	-3.879000E+00	  0.042044088	2.597200E+01	  0.042044088	1.140340E+02	  0.042044088	1.081900E+02
112	  0.042244490	-3.929000E+00	  0.042244490	2.394400E+01	  0.042244490	1.230580E+02	  0.042244490	1.067180E+02
113	  0.042444889	-3.979000E+00	  0.042444889	2.191700E+01	  0.042444889	1.324410E+02	  0.042444889	1.042160E+02
114	  0.042645290	-4.030000E+00	  0.042645290	1.986700E+01	  0.042645290	1.421590E+02	  0.042645290	1.004700E+02
115	  0.042845692	-4.081000E+00	  0.042845692	1.786100E+01	  0.042845692	1.516920E+02	  0.042845692	9.545600E+01
116	  0.043046094	-4.131000E+00	  0.043046094	1.583900E+01	  0.043046094	1.611110E+02	  0.043046094	8.904500E+01
117	  0.043246493	-4.181000E+00	  0.043246493	1.379500E+01	  0.043246493	1.701650E+02	  0.043246493	8.111400E+01
118	  0.043446895	-4.230000E+00	  0.043446895	1.178300E+01	  0.043446895	1.783000E+02	  0.043446895	7.188000E+01
119	  0.043647297	-4.276000E+00	  0.043647297	9.770000E+00	  0.043647297	1.854460E+02	  0.043647297	6.141100E+01
120	  0.043847695	-4.321000E+00	  0.043847695	7.790000E+00	  0.043847695	1.911440E+02	  0.043847695	4.998200E+01
121	  0.044048097	-4.371000E+00	  0.044048097	5.802000E+00	  0.044048097	1.951350E+02	  0.044048097	3.759300E+01
122	  0.044248499	-4.417000E+00	  0.044248499	3.820000E+00	  0.044248499	1.975130E+02	  0.044248499	2.479000E+01
123	  0.044448901	-4.465000E+00	  0.044448901	1.854000E+00	  0.044448901	1.980280E+02	  0.044448901	1.193100E+01
124	  0.044649299	-4.510000E+00	  0.044649299	-9.800000E-02	  0.044649299	1.968800E+02	  0.044649299	-6.240000E-01
125	  0.044849701	-4.555000E+00	  0.044849701	-2.058000E+00	  0.044849701	1.941340E+02	  0.044849701	-1.270300E+01
126	  0.045050103	-4.598000E+00	  0.045050103	-4.005000E+00	  0.045050103	1.900410E+02	  0.045050103	-2.393700E+01
127	  0.045250501	-4.640000E+00	  0.045250501	-5.950000E+00	  0.045250501	1.847800E+02	  0.045250501	-3.420400E+01
128	  0.045450903	-4.681000E+00	  0.045450903	-7.890000E+00	  0.045450903	1.786480E+02	  0.045450903	-4.337300E+01
129	  0.045651305	-4.719000E+00	  0.045651305	-9.803000E+00	  0.045651305	1.719400E+02	  0.045651305	-5.131400E+01
130	  0.045851704	-4.760000E+00	  0.045851704	-1.171800E+01	  0.045851704	1.647060E+02	  0.045851704	-5.808100E+01
131	  0.046052102	-4.801000E+00	  0.046052102	-1.360000E+01	  0.046052102	1.573290E+02	  0.046052102	-6.363100E+01
132	  0.046252504	-4.840000E+00	  0.046252504	-1.547600E+01	  0.046252504	1.499400E+02	  0.046252504	-6.820900E+01
133	  0.046452906	-4.878000E+00	  0.046452906	-1.733900E+01	  0.046452906	1.426690E+02	  0.046452906	-7.187100E+01
134	  0.046653304	-4.915000E+00	  0.046653304	-1.919400E+01	  0.046653304	1.355650E+02	  0.046653304	-7.470800E+01
135	  0.046853706	-4.952000E+00	  0.046853706	-2.105600E+01	  0.046853706	1.286680E+02	  0.046853706	-7.684800E+01
136	  0.047054108	-4.988000E+00	  0.047054108	-2.289100E+01	  0.047054108	1.221320E+02	  0.047054108	-7.834400E+01
137	  0.047254506	-5.022000E+00	  0.047254506	-2.474800E+01	  0.047254506	1.158330E+02	  0.047254506	-7.935700E+01
138	  0.047454908	-5.053000E+00	  0.047454908	-2.657500E+01	  0.047454908	1.099600E+02	  0.047454908	-7.996100E+01
139	  0.047655310	-5.088000E+00	  0.047655310	-2.837200E+01	  0.047655310	1.044750E+02	  0.047655310	-8.008800E+01
140	  0.047855709	-5.118000E+00	  0.047855709	-3.017300E+01	  0.047855709	9.929600E+01	  0.047855709	-7.998600E+01
141	  0.048056111	-5.152000E+00	  0.048056111	-3.194200E+01	  0.048056111	9.450200E+01	  0.048056111	-7.954600E+01
142	  0.048256513	-5.183000E+00	  0.048256513	-3.371500E+01	  0.048256513	8.999000E+01	  0.048256513	-7.892500E+01
143	  0.048456915	-5.215000E+00	  0.048456915	-3.547000E+01	  0.048456915	8.579700E+01	  0.048456915	-7.812800E+01
144	  0.048657313	-5.244000E+00	  0.048657313	-3.722900E+01	  0.048657313	8.184800E+01	  0.048657313	-7.723200E+01
145	  0.048857715	-5.273000E+00	  0.048857715	-3.899400E+01	  0.048857715	7.813400E+01	  0.048857715	-7.621300E+01
146	  0.049058117	-5.298000E+00	  0.049058117	-4.074700E+01	  0.049058117	7.466600E+01	  0.049058117	-7.514000E+01
147	  0.049258515	-5.324000E+00	  0.049258515	-4.247000E+01	  0.049258515	7.147100E+01	  0.049258515	-7.399500E+01
148	  0.049458917	-5.348000E+00	  0.049458917	-4.417200E+01	  0.049458917	6.850200E+01	  0.049458917	-7.282200E+01
149	  0.049659319	-5.376000E+00	  0.049659319	-4.587800E+01	  0.049659319	6.572100E+01	  0.049659319	-7.155400E+01
150	  0.049859721	-5.403000E+00	  0.049859721	-4.756200E+01	  0.049859721	6.313900E+01	  0.049859721	-7.028000E+01
151	  0.050060119	-5.427000E+00	  0.050060119	-4.926000E+01	  0.050060119	6.068200E+01	  0.050060119	-6.899500E+01
152	  0.050260521	-5.451000E+00	  0.050260521	-5.093600E+01	  0.050260521	5.840200E+01	  0.050260521	-6.770900E+01
153	  0.050460923	-5.472000E+00	  0.050460923	-5.261100E+01	  0.050460923	5.624300E+01	  0.050460923	-6.644100E+01
154	  0.050661322	-5.492000E+00	  0.050661322	-5.428000E+01	  0.050661322	5.421000E+01	  0.050661322	-6.517600E+01
155	  0.050861724	-5.510000E+00	  0.050861724	-5.593400E+01	  0.050861724	5.230600E+01	  0.050861724	-6.392400E+01
156	  0.051062126	-5.532000E+00	  0.051062126	-5.757600E+01	  0.051062126	5.053800E+01	  0.051062126	-6.265500E+01
157	  0.051262524	-5.554000E+00	  0.051262524	-5.917600E+01	  0.051262524	4.891700E+01	  0.051262524	-6.141100E+01
158	  0.051462926	-5.574000E+00	  0.051462926	-6.077000E+01	  0.051462926	4.737700E+01	  0.051462926	-6.019700E+01
159	  0.051663328	-5.589000E+00	  0.051663328	-6.238600E+01	  0.051663328	4.587600E+01	  0.051663328	-5.900700E+01
160	  0.051863730	-5.609000E+00	  0.051863730	-6.396200E+01	  0.051863730	4.451200E+01	  0.051863730	-5.782400E+01
161	  0.052064128	-5.622000E+00	  0.052064128	-6.554800E+01	  0.052064128	4.318100E+01	  0.052064128	-5.667900E+01
162	  0.052264530	-5.635000E+00	  0.052264530	-6.711800E+01	  0.052264530	4.192600E+01	  0.052264530	-5.556100E+01
163	  0.052464932	-5.648000E+00	  0.052464932	-6.864700E+01	  0.052464932	4.077200E+01	  0.052464932	-5.447200E+01
164	  0.052665330	-5.660000E+00	  0.052665330	-7.020300E+01	  0.052665330	3.964700E+01	  0.052665330	-5.338000E+01
165	  0.052865732	-5.673000E+00	  0.052865732	-7.170600E+01	  0.052865732	3.861700E+01	  0.052865732	-5.233300E+01
166	  0.053066134	-5.686000E+00	  0.053066134	-7.322600E+01	  0.053066134	3.762600E+01	  0.053066134	-5.128400E+01
167	  0.053266536	-5.698000E+00	  0.053266536	-7.472500E+01	  0.053266536	3.668800E+01	  0.053266536	-5.026500E+01
168	  0.053466935	-5.709000E+00	  0.053466935	-7.622700E+01	  0.053466935	3.579200E+01	  0.053466935	-4.925700E+01
169	  0.053667337	-5.718000E+00	  0.053667337	-7.772900E+01	  0.053667337	3.492500E+01	  0.053667337	-4.827100E+01
170	  0.053867739	-5.723000E+00	  0.053867739	-7.919100E+01	  0.053867739	3.410500E+01	  0.053867739	-4.733300E+01
171	  0.054068137	-5.732000E+00	  0.054068137	-8.067600E+01	  0.054068137	3.332100E+01	  0.054068137	-4.638000E+01
172	  0.054268539	-5.736000E+00	  0.054268539	-8.215200E+01	  0.054268539	3.255700E+01	  0.054268539	-4.545900E+01
173	  0.054468941	-5.744000E+00	  0.054468941	-8.358700E+01	  0.054468941	3.186600E+01	  0.054468941	-4.455700E+01
174	  0.054669335	-5.753000E+00	  0.054669335	-8.504100E+01	  0.054669335	3.119600E+01	  0.054669335	-4.365200E+01
175	  0.054869737	-5.760000E+00	  0.054869737	-8.646900E+01	  0.054869737	3.055600E+01	  0.054869737	-4.278100E+01
176	  0.055070139	-5.767000E+00	  0.055070139	-8.791200E+01	  0.055070139	2.993700E+01	  0.055070139	-4.191000E+01
177	  0.055270538	-5.771000E+00	  0.055270538	-8.934100E+01	  0.055270538	2.934100E+01	  0.055270538	-4.106400E+01
178	  0.055470940	-5.778000E+00	  0.055470940	-9.076100E+01	  0.055470940	2.878100E+01	  0.055470940	-4.022600E+01
179	  0.055671342	-5.780000E+00	  0.055671342	-9.219200E+01	  0.055671342	2.822400E+01	  0.055671342	-3.940200E+01
180	  0.055871744	-5.786000E+00	  0.055871744	-9.361300E+01	  0.055871744	2.770300E+01	  0.055871744	-3.858500E+01
181	  0.056072142	-5.787000E+00	  0.056072142	-9.500100E+01	  0.056072142	2.719800E+01	  0.056072142	-3.780600E+01
182	  0.056272544	-5.791000E+00	  0.056272544	-9.640800E+01	  0.056272544	2.672000E+01	  0.056272544	-3.701600E+01
183	  0.056472946	-5.797000E+00	  0.056472946	-9.780700E+01	  0.056472946	2.626700E+01	  0.056472946	-3.623700E+01
184	  0.056673344	-5.798000E+00	  0.056673344	-9.918200E+01	  0.056673344	2.582200E+01	  0.056673344	-3.548900E+01
185	  0.056873746	-5.803000E+00	  0.056873746	-1.005600E+02	  0.056873746	2.540500E+01	  0.056873746	-3.473900E+01
186	  0.057074148	-5.804000E+00	  0.057074148	-1.019230E+02	  0.057074148	2.500000E+01	  0.057074148	-3.401200E+01
187	  0.057274550	-5.806000E+00	  0.057274550	-1.032920E+02	  0.057274550	2.460600E+01	  0.057274550	-3.328700E+01
188	  0.057474948	-5.808000E+00	  0.057474948	-1.046570E+02	  0.057474948	2.423000E+01	  0.057474948	-3.257100E+01
189	  0.057675350	-5.811000E+00	  0.057675350	-1.060140E+02	  0.057675350	2.387300E+01	  0.057675350	-3.186600E+01
190	  0.057875752	-5.812000E+00	  0.057875752	-1.073460E+02	  0.057875752	2.352800E+01	  0.057875752	-3.118300E+01
191	  0.058076151	-5.813000E+00	  0.058076151	-1.087100E+02	  0.058076151	2.319000E+01	  0.058076151	-3.048800E+01
192	  0.058276553	-5.813000E+00	  0.058276553	-1.100420E+02	  0.058276553	2.286800E+01	  0.058276553	-2.981900E+01
193	  0.058476955	-5.816000E+00	  0.058476955	-1.113340E+02	  0.058476955	2.257400E+01	  0.058476955	-2.917200E+01
194	  0.058677353	-5.813000E+00	  0.058677353	-1.126730E+02	  0.058677353	2.226300E+01	  0.058677353	-2.851400E+01
195	  0.058877755	-5.814000E+00	  0.058877755	-1.139780E+02	  0.058877755	2.198000E+01	  0.058877755	-2.787500E+01
196	  0.059078157	-5.813000E+00	  0.059078157	-1.152630E+02	  0.059078157	2.170900E+01	  0.059078157	-2.725100E+01
197	  0.059278559	-5.810000E+00	  0.059278559	-1.165560E+02	  0.059278559	2.143600E+01	  0.059278559	-2.663300E+01
198	  0.059478957	-5.810000E+00	  0.059478957	-1.178230E+02	  0.059478957	2.118700E+01	  0.059478957	-2.602700E+01
199	  0.059679359	-5.809000E+00	  0.059679359	-1.191100E+02	  0.059679359	2.094000E+01	  0.059679359	-2.541800E+01
200	  0.059879761	-5.810000E+00	  0.059879761	-1.203590E+02	  0.059879761	2.071600E+01	  0.059879761	-2.482800E+01
201	  0.060080159	-5.809000E+00	  0.060080159	-1.215970E+02	  0.060080159	2.049400E+01	  0.060080159	-2.425100E+01
202	  0.060280561	-5.808000E+00	  0.060280561	-1.228660E+02	  0.060280561	2.027500E+01	  0.060280561	-2.366400E+01
203	  0.060480963	-5.810000E+00	  0.060480963	-1.240950E+02	  0.060480963	2.008000E+01	  0.060480963	-2.309400E+01
204	  0.060681365	-5.809000E+00	  0.060681365	-1.253220E+02	  0.060681365	1.988000E+01	  0.060681365	-2.253500E+01
205	  0.060881764	-5.806000E+00	  0.060881764	-1.265270E+02	  0.060881764	1.968600E+01	  0.060881764	-2.199000E+01
206	  0.061082166	-5.804000E+00	  0.061082166	-1.277790E+02	  0.061082166	1.949600E+01	  0.061082166	-2.142600E+01
207	  0.061282568	-5.802000E+00	  0.061282568	-1.289920E+02	  0.061282568	1.931500E+01	  0.061282568	-2.088400E+01
208	  0.061482966	-5.804000E+00	  0.061482966	-1.301820E+02	  0.061482966	1.915600E+01	  0.061482966	-2.035100E+01
209	  0.061683368	-5.804000E+00	  0.061683368	-1.313810E+02	  0.061683368	1.899600E+01	  0.061683368	-1.982000E+01
210	  0.061883770	-5.804000E+00	  0.061883770	-1.325670E+02	  0.061883770	1.884400E+01	  0.061883770	-1.929700E+01
211	  0.062084168	-5.805000E+00	  0.062084168	-1.337640E+02	  0.062084168	1.869800E+01	  0.062084168	-1.877200E+01
212	  0.062284570	-5.803000E+00	  0.062284570	-1.349430E+02	  0.062284570	1.855000E+01	  0.062284570	-1.826000E+01
213	  0.062484972	-5.793000E+00	  0.062484972	-1.360930E+02	  0.062484972	1.838600E+01	  0.062484972	-1.776900E+01
214	  0.062685370	-5.795000E+00	  0.062685370	-1.372840E+02	  0.062685370	1.825800E+01	  0.062685370	-1.725400E+01
215	  0.062885776	-5.789000E+00	  0.062885776	-1.384620E+02	  0.062885776	1.811600E+01	  0.062885776	-1.675300E+01
216	  0.063086174	-5.791000E+00	  0.063086174	-1.396430E+02	  0.063086174	1.799800E+01	  0.063086174	-1.624700E+01
217	  0.063286573	-5.790000E+00	  0.063286573	-1.408110E+02	  0.063286573	1.787700E+01	  0.063286573	-1.575200E+01
218	  0.063486971	-5.790000E+00	  0.063486971	-1.419530E+02	  0.063486971	1.776900E+01	  0.063486971	-1.526900E+01
219	  0.063687377	-5.789000E+00	  0.063687377	-1.430940E+02	  0.063687377	1.765800E+01	  0.063687377	-1.478900E+01
220	  0.063887775	-5.785000E+00	  0.063887775	-1.442530E+02	  0.063887775	1.754400E+01	  0.063887775	-1.430600E+01
221	  0.064088173	-5.784000E+00	  0.064088173	-1.454060E+02	  0.064088173	1.744100E+01	  0.064088173	-1.382500E+01
222	  0.064288579	-5.781000E+00	  0.064288579	-1.465770E+02	  0.064288579	1.733900E+01	  0.064288579	-1.334000E+01
223	  0.064488977	-5.782000E+00	  0.064488977	-1.477100E+02	  0.064488977	1.725100E+01	  0.064488977	-1.287000E+01
224	  0.064689375	-5.780000E+00	  0.064689375	-1.488430E+02	  0.064689375	1.715900E+01	  0.064689375	-1.240400E+01
225	  0.064889781	-5.781000E+00	  0.064889781	-1.499840E+02	  0.064889781	1.707900E+01	  0.064889781	-1.193400E+01
226	  0.065090179	-5.780000E+00	  0.065090179	-1.511100E+02	  0.065090179	1.699700E+01	  0.065090179	-1.147400E+01
227	  0.065290578	-5.777000E+00	  0.065290578	-1.522300E+02	  0.065290578	1.691500E+01	  0.065290578	-1.101700E+01
228	  0.065490983	-5.776000E+00	  0.065490983	-1.533230E+02	  0.065490983	1.684200E+01	  0.065490983	-1.057300E+01
229	  0.065691382	-5.772000E+00	  0.065691382	-1.544460E+02	  0.065691382	1.676500E+01	  0.065691382	-1.011900E+01
230	  0.065891780	-5.773000E+00	  0.065891780	-1.555700E+02	  0.065891780	1.670200E+01	  0.065891780	-9.664000E+00
231	  0.066092186	-5.772000E+00	  0.066092186	-1.566360E+02	  0.066092186	1.664100E+01	  0.066092186	-9.234000E+00
232	  0.066292584	-5.769000E+00	  0.066292584	-1.577320E+02	  0.066292584	1.657600E+01	  0.066292584	-8.794000E+00
233	  0.066492982	-5.771000E+00	  0.066492982	-1.588240E+02	  0.066492982	1.652700E+01	  0.066492982	-8.355000E+00
234	  0.066693388	-5.771000E+00	  0.066693388	-1.598950E+02	  0.066693388	1.647500E+01	  0.066693388	-7.927000E+00
235	  0.066893786	-5.772000E+00	  0.066893786	-1.609550E+02	  0.066893786	1.643200E+01	  0.066893786	-7.503000E+00
236	  0.067094192	-5.767000E+00	  0.067094192	-1.620450E+02	  0.067094192	1.637400E+01	  0.067094192	-7.070000E+00
237	  0.067294590	-5.768000E+00	  0.067294590	-1.630910E+02	  0.067294590	1.633500E+01	  0.067294590	-6.653000E+00
238	  0.067494988	-5.771000E+00	  0.067494988	-1.641470E+02	  0.067494988	1.630500E+01	  0.067494988	-6.233000E+00
239	  0.067695394	-5.771000E+00	  0.067695394	-1.651980E+02	  0.067695394	1.626900E+01	  0.067695394	-5.817000E+00
240	  0.067895792	-5.775000E+00	  0.067895792	-1.662470E+02	  0.067895792	1.624400E+01	  0.067895792	-5.401000E+00
241	  0.068096191	-5.774000E+00	  0.068096191	-1.673100E+02	  0.068096191	1.621000E+01	  0.068096191	-4.981000E+00
242	  0.068296596	-5.777000E+00	  0.068296596	-1.683490E+02	  0.068296596	1.619200E+01	  0.068296596	-4.571000E+00
243	  0.068496995	-5.780000E+00	  0.068496995	-1.693880E+02	  0.068496995	1.617200E+01	  0.068496995	-4.161000E+00
244	  0.068697393	-5.778000E+00	  0.068697393	-1.703950E+02	  0.068697393	1.614500E+01	  0.068697393	-3.765000E+00
245	  0.068897791	-5.782000E+00	  0.068897791	-1.714310E+02	  0.068897791	1.613600E+01	  0.068897791	-3.357000E+00
246	  0.069098189	-5.781000E+00	  0.069098189	-1.724670E+02	  0.069098189	1.611500E+01	  0.069098189	-2.950000E+00
247	  0.069298595	-5.788000E+00	  0.069298595	-1.734900E+02	  0.069298595	1.611600E+01	  0.069298595	-2.548000E+00
248	  0.069498993	-5.786000E+00	  0.069498993	-1.745240E+02	  0.069498993	1.609800E+01	  0.069498993	-2.143000E+00
249	  0.069699399	-5.789000E+00	  0.069699399	-1.755500E+02	  0.069699399	1.609300E+01	  0.069699399	-1.741000E+00
250	  0.069899797	-5.791000E+00	  0.069899797	-1.765550E+02	  0.069899797	1.609000E+01	  0.069899797	-1.347000E+00
251	  0.070100196	-5.797000E+00	  0.070100196	-1.775530E+02	  0.070100196	1.609900E+01	  0.070100196	-9.560000E-01
252	  0.070300601	-5.798000E+00	  0.070300601	-1.785630E+02	  0.070300601	1.609700E+01	  0.070300601	-5.610000E-01
253	  0.070501000	-5.802000E+00	  0.070501000	-1.795570E+02	  0.070501000	1.610600E+01	  0.070501000	-1.720000E-01
254	  0.070701398	-5.806000E+00	  0.070701398	1.794250E+02	  0.070701398	1.611600E+01	  0.070701398	2.240000E-01
255	  0.070901804	-5.806000E+00	  0.070901804	1.784520E+02	  0.070901804	1.611800E+01	  0.070901804	6.050000E-01
256	  0.071102202	-5.809000E+00	  0.071102202	1.774360E+02	  0.071102202	1.613200E+01	  0.071102202	1.002000E+00
257	  0.071302600	-5.814000E+00	  0.071302600	1.764580E+02	  0.071302600	1.615000E+01	  0.071302600	1.384000E+00
258	  0.071503006	-5.815000E+00	  0.071503006	1.754790E+02	  0.071503006	1.616200E+01	  0.071503006	1.767000E+00
259	  0.071703404	-5.822000E+00	  0.071703404	1.744990E+02	  0.071703404	1.619100E+01	  0.071703404	2.150000E+00
260	  0.071903802	-5.825000E+00	  0.071903802	1.735470E+02	  0.071903802	1.621100E+01	  0.071903802	2.523000E+00
261	  0.072104208	-5.829000E+00	  0.072104208	1.725660E+02	  0.072104208	1.623600E+01	  0.072104208	2.906000E+00
262	  0.072304606	-5.831000E+00	  0.072304606	1.716050E+02	  0.072304606	1.625900E+01	  0.072304606	3.283000E+00
263	  0.072505005	-5.836000E+00	  0.072505005	1.706320E+02	  0.072505005	1.629100E+01	  0.072505005	3.664000E+00
264	  0.072705410	-5.840000E+00	  0.072705410	1.696810E+02	  0.072705410	1.632100E+01	  0.072705410	4.036000E+00
265	  0.072905809	-5.844000E+00	  0.072905809	1.687370E+02	  0.072905809	1.635400E+01	  0.072905809	4.407000E+00
266	  0.073106214	-5.848000E+00	  0.073106214	1.677680E+02	  0.073106214	1.639200E+01	  0.073106214	4.787000E+00
267	  0.073306613	-5.855000E+00	  0.073306613	1.668460E+02	  0.073306613	1.643400E+01	  0.073306613	5.149000E+00
268	  0.073507011	-5.860000E+00	  0.073507011	1.658990E+02	  0.073507011	1.647800E+01	  0.073507011	5.521000E+00
269	  0.073707417	-5.866000E+00	  0.073707417	1.649560E+02	  0.073707417	1.652300E+01	  0.073707417	5.892000E+00
270	  0.073907815	-5.872000E+00	  0.073907815	1.640400E+02	  0.073907815	1.657200E+01	  0.073907815	6.252000E+00
271	  0.074108213	-5.875000E+00	  0.074108213	1.631310E+02	  0.074108213	1.661300E+01	  0.074108213	6.611000E+00
272	  0.074308619	-5.880000E+00	  0.074308619	1.622120E+02	  0.074308619	1.666300E+01	  0.074308619	6.973000E+00
273	  0.074509017	-5.887000E+00	  0.074509017	1.612630E+02	  0.074509017	1.672100E+01	  0.074509017	7.348000E+00
274	  0.074709415	-5.889000E+00	  0.074709415	1.603600E+02	  0.074709415	1.676600E+01	  0.074709415	7.706000E+00
275	  0.074909821	-5.898000E+00	  0.074909821	1.594530E+02	  0.074909821	1.683100E+01	  0.074909821	8.064000E+00
276	  0.075110219	-5.901000E+00	  0.075110219	1.585270E+02	  0.075110219	1.688500E+01	  0.075110219	8.432000E+00
277	  0.075310618	-5.906000E+00	  0.075310618	1.576390E+02	  0.075310618	1.694200E+01	  0.075310618	8.785000E+00
278	  0.075511023	-5.913000E+00	  0.075511023	1.567600E+02	  0.075511023	1.700700E+01	  0.075511023	9.134000E+00
279	  0.075711422	-5.920000E+00	  0.075711422	1.558600E+02	  0.075711422	1.707500E+01	  0.075711422	9.493000E+00
280	  0.075911827	-5.925000E+00	  0.075911827	1.549590E+02	  0.075911827	1.714000E+01	  0.075911827	9.853000E+00
281	  0.076112226	-5.932000E+00	  0.076112226	1.540670E+02	  0.076112226	1.721400E+01	  0.076112226	1.020900E+01
282	  0.076312624	-5.935000E+00	  0.076312624	1.531930E+02	  0.076312624	1.727700E+01	  0.076312624	1.056000E+01
283	  0.076513030	-5.947000E+00	  0.076513030	1.522950E+02	  0.076513030	1.736700E+01	  0.076513030	1.091700E+01
284	  0.076713428	-5.952000E+00	  0.076713428	1.513690E+02	  0.076713428	1.744200E+01	  0.076713428	1.129000E+01
285	  0.076913826	-5.959000E+00	  0.076913826	1.504830E+02	  0.076913826	1.752400E+01	  0.076913826	1.164700E+01
286	  0.077114232	-5.965000E+00	  0.077114232	1.495920E+02	  0.077114232	1.760300E+01	  0.077114232	1.200700E+01
287	  0.077314630	-5.972000E+00	  0.077314630	1.487180E+02	  0.077314630	1.768700E+01	  0.077314630	1.235900E+01
288	  0.077515028	-5.977000E+00	  0.077515028	1.478450E+02	  0.077515028	1.777000E+01	  0.077515028	1.271400E+01
289	  0.077715434	-5.986000E+00	  0.077715434	1.469740E+02	  0.077715434	1.786300E+01	  0.077715434	1.306600E+01
290	  0.077915832	-5.992000E+00	  0.077915832	1.460950E+02	  0.077915832	1.795300E+01	  0.077915832	1.342400E+01
291	  0.078116231	-5.997000E+00	  0.078116231	1.452200E+02	  0.078116231	1.804100E+01	  0.078116231	1.378200E+01
292	  0.078316636	-6.008000E+00	  0.078316636	1.443140E+02	  0.078316636	1.815100E+01	  0.078316636	1.415000E+01
293	  0.078517035	-6.016000E+00	  0.078517035	1.434620E+02	  0.078517035	1.824900E+01	  0.078517035	1.449800E+01
294	  0.078717433	-6.020000E+00	  0.078717433	1.425690E+02	  0.078717433	1.834400E+01	  0.078717433	1.486700E+01
295	  0.078917839	-6.029000E+00	  0.078917839	1.416920E+02	  0.078917839	1.845300E+01	  0.078917839	1.522700E+01
296	  0.079118237	-6.039000E+00	  0.079118237	1.408640E+02	  0.079118237	1.856400E+01	  0.079118237	1.556600E+01
297	  0.079318643	-6.049000E+00	  0.079318643	1.399870E+02	  0.079318643	1.868100E+01	  0.079318643	1.592700E+01
298	  0.079519041	-6.053000E+00	  0.079519041	1.391330E+02	  0.079519041	1.878300E+01	  0.079519041	1.628300E+01
299	  0.079719439	-6.064000E+00	  0.079719439	1.382900E+02	  0.079719439	1.890500E+01	  0.079719439	1.663000E+01
300	  0.079919845	-6.072000E+00	  0.079919845	1.374310E+02	  0.079919845	1.902200E+01	  0.079919845	1.698800E+01
301	  0.080120243	-6.083000E+00	  0.080120243	1.365500E+02	  0.080120243	1.915500E+01	  0.080120243	1.735300E+01
302	  0.080320641	-6.092000E+00	  0.080320641	1.356940E+02	  0.080320641	1.927900E+01	  0.080320641	1.771100E+01
303	  0.080521047	-6.102000E+00	  0.080521047	1.348450E+02	  0.080521047	1.941100E+01	  0.080521047	1.806500E+01
304	  0.080721445	-6.114000E+00	  0.080721445	1.339860E+02	  0.080721445	1.955200E+01	  0.080721445	1.842300E+01
305	  0.080921844	-6.123000E+00	  0.080921844	1.331630E+02	  0.080921844	1.968300E+01	  0.080921844	1.876900E+01
306	  0.081122249	-6.137000E+00	  0.081122249	1.323310E+02	  0.081122249	1.983100E+01	  0.081122249	1.911500E+01
307	  0.081322648	-6.150000E+00	  0.081322648	1.314980E+02	  0.081322648	1.997900E+01	  0.081322648	1.946400E+01
308	  0.081523046	-6.158000E+00	  0.081523046	1.306460E+02	  0.081523046	2.011800E+01	  0.081523046	1.982600E+01
309	  0.081723452	-6.167000E+00	  0.081723452	1.298250E+02	  0.081723452	2.026000E+01	  0.081723452	2.017500E+01
310	  0.081923850	-6.179000E+00	  0.081923850	1.289640E+02	  0.081923850	2.042000E+01	  0.081923850	2.053900E+01
311	  0.082124248	-6.191000E+00	  0.082124248	1.281390E+02	  0.082124248	2.057800E+01	  0.082124248	2.088800E+01
312	  0.082324654	-6.203000E+00	  0.082324654	1.273220E+02	  0.082324654	2.073400E+01	  0.082324654	2.123600E+01
313	  0.082525052	-6.219000E+00	  0.082525052	1.264970E+02	  0.082525052	2.090900E+01	  0.082525052	2.158300E+01
314	  0.082725458	-6.228000E+00	  0.082725458	1.256850E+02	  0.082725458	2.106600E+01	  0.082725458	2.193200E+01
315	  0.082925856	-6.247000E+00	  0.082925856	1.248640E+02	  0.082925856	2.125700E+01	  0.082925856	2.227500E+01
316	  0.083126254	-6.257000E+00	  0.083126254	1.240650E+02	  0.083126254	2.141800E+01	  0.083126254	2.262000E+01
317	  0.083326660	-6.270000E+00	  0.083326660	1.232220E+02	  0.083326660	2.160100E+01	  0.083326660	2.298100E+01
318	  0.083527058	-6.286000E+00	  0.083527058	1.224090E+02	  0.083527058	2.178900E+01	  0.083527058	2.332800E+01
319	  0.083727457	-6.299000E+00	  0.083727457	1.216010E+02	  0.083727457	2.197500E+01	  0.083727457	2.367400E+01
320	  0.083927862	-6.318000E+00	  0.083927862	1.207730E+02	  0.083927862	2.218200E+01	  0.083927862	2.402500E+01
321	  0.084128261	-6.336000E+00	  0.084128261	1.199640E+02	  0.084128261	2.239000E+01	  0.084128261	2.436800E+01
322	  0.084328659	-6.348000E+00	  0.084328659	1.191840E+02	  0.084328659	2.257500E+01	  0.084328659	2.470600E+01
323	  0.084529065	-6.365000E+00	  0.084529065	1.183710E+02	  0.084529065	2.278500E+01	  0.084529065	2.505400E+01
324	  0.084729463	-6.382000E+00	  0.084729463	1.175910E+02	  0.084729463	2.299300E+01	  0.084729463	2.538700E+01
325	  0.084929854	-6.401000E+00	  0.084929854	1.167360E+02	  0.084929854	2.322900E+01	  0.084929854	2.575100E+01
326	  0.085130259	-6.414000E+00	  0.085130259	1.159240E+02	  0.085130259	2.343900E+01	  0.085130259	2.610600E+01
327	  0.085330658	-6.431000E+00	  0.085330658	1.151180E+02	  0.085330658	2.366300E+01	  0.085330658	2.645300E+01
328	  0.085531056	-6.450000E+00	  0.085531056	1.143180E+02	  0.085531056	2.389800E+01	  0.085531056	2.679400E+01
329	  0.085731462	-6.465000E+00	  0.085731462	1.134880E+02	  0.085731462	2.413200E+01	  0.085731462	2.715600E+01
330	  0.085931860	-6.482000E+00	  0.085931860	1.127240E+02	  0.085931860	2.436100E+01	  0.085931860	2.748500E+01
331	  0.086132258	-6.503000E+00	  0.086132258	1.119390E+02	  0.086132258	2.461200E+01	  0.086132258	2.781600E+01
332	  0.086332664	-6.517000E+00	  0.086332664	1.111550E+02	  0.086332664	2.484300E+01	  0.086332664	2.816000E+01
333	  0.086533062	-6.537000E+00	  0.086533062	1.103650E+02	  0.086533062	2.509900E+01	  0.086533062	2.849800E+01
334	  0.086733460	-6.557000E+00	  0.086733460	1.095720E+02	  0.086733460	2.536200E+01	  0.086733460	2.883500E+01
335	  0.086933866	-6.573000E+00	  0.086933866	1.087830E+02	  0.086933866	2.561500E+01	  0.086933866	2.917900E+01
336	  0.087134264	-6.593000E+00	  0.087134264	1.080100E+02	  0.087134264	2.588100E+01	  0.087134264	2.950800E+01
337	  0.087334670	-6.611000E+00	  0.087334670	1.072010E+02	  0.087334670	2.615500E+01	  0.087334670	2.985800E+01
338	  0.087535068	-6.635000E+00	  0.087535068	1.064430E+02	  0.087535068	2.643900E+01	  0.087535068	3.017300E+01
339	  0.087735467	-6.652000E+00	  0.087735467	1.056930E+02	  0.087735467	2.670300E+01	  0.087735467	3.049600E+01
340	  0.087935872	-6.676000E+00	  0.087935872	1.049180E+02	  0.087935872	2.700200E+01	  0.087935872	3.081800E+01
341	  0.088136271	-6.698000E+00	  0.088136271	1.041310E+02	  0.088136271	2.730000E+01	  0.088136271	3.115100E+01
342	  0.088336669	-6.720000E+00	  0.088336669	1.033730E+02	  0.088336669	2.759900E+01	  0.088336669	3.146600E+01
343	  0.088537075	-6.741000E+00	  0.088537075	1.025930E+02	  0.088537075	2.790200E+01	  0.088537075	3.179700E+01
344	  0.088737473	-6.760000E+00	  0.088737473	1.018350E+02	  0.088737473	2.820100E+01	  0.088737473	3.211800E+01
345	  0.088937871	-6.786000E+00	  0.088937871	1.010400E+02	  0.088937871	2.853500E+01	  0.088937871	3.244500E+01
346	  0.089138277	-6.807000E+00	  0.089138277	1.002990E+02	  0.089138277	2.884600E+01	  0.089138277	3.275200E+01
347	  0.089338675	-6.832000E+00	  0.089338675	9.955600E+01	  0.089338675	2.917200E+01	  0.089338675	3.305300E+01
348	  0.089539073	-6.855000E+00	  0.089539073	9.878700E+01	  0.089539073	2.950400E+01	  0.089539073	3.337100E+01
349	  0.089739479	-6.880000E+00	  0.089739479	9.803900E+01	  0.089739479	2.984400E+01	  0.089739479	3.367000E+01
350	  0.089939877	-6.910000E+00	  0.089939877	9.729700E+01	  0.089939877	3.020100E+01	  0.089939877	3.395600E+01
351	  0.090140276	-6.934000E+00	  0.090140276	9.652000E+01	  0.090140276	3.055700E+01	  0.090140276	3.427100E+01
352	  0.090340681	-6.963000E+00	  0.090340681	9.580500E+01	  0.090340681	3.091500E+01	  0.090340681	3.454000E+01
353	  0.090541080	-6.987000E+00	  0.090541080	9.501700E+01	  0.090541080	3.128700E+01	  0.090541080	3.485700E+01
354	  0.090741485	-7.017000E+00	  0.090741485	9.429800E+01	  0.090741485	3.165800E+01	  0.090741485	3.512400E+01
355	  0.090941884	-7.058000E+00	  0.090941884	9.357200E+01	  0.090941884	3.206800E+01	  0.090941884	3.536600E+01
356	  0.091142282	-7.086000E+00	  0.091142282	9.283800E+01	  0.091142282	3.245000E+01	  0.091142282	3.564000E+01
357	  0.091342688	-7.122000E+00	  0.091342688	9.210700E+01	  0.091342688	3.286300E+01	  0.091342688	3.588800E+01
358	  0.091543086	-7.155000E+00	  0.091543086	9.135900E+01	  0.091543086	3.327400E+01	  0.091543086	3.615200E+01
359	  0.091743484	-7.185000E+00	  0.091743484	9.063500E+01	  0.091743484	3.367600E+01	  0.091743484	3.640800E+01
360	  0.091943890	-7.221000E+00	  0.091943890	8.989800E+01	  0.091943890	3.410600E+01	  0.091943890	3.665000E+01
361	  0.092144288	-7.256000E+00	  0.092144288	8.914800E+01	  0.092144288	3.454300E+01	  0.092144288	3.689900E+01
362	  0.092344686	-7.289000E+00	  0.092344686	8.843600E+01	  0.092344686	3.496400E+01	  0.092344686	3.713200E+01
363	  0.092545092	-7.325000E+00	  0.092545092	8.775400E+01	  0.092545092	3.538400E+01	  0.092545092	3.734000E+01
364	  0.092745490	-7.363000E+00	  0.092745490	8.704100E+01	  0.092745490	3.583200E+01	  0.092745490	3.755000E+01
365	  0.092945889	-7.404000E+00	  0.092945889	8.634800E+01	  0.092945889	3.628500E+01	  0.092945889	3.773800E+01
366	  0.093146294	-7.439000E+00	  0.093146294	8.566200E+01	  0.093146294	3.672000E+01	  0.093146294	3.793900E+01
367	  0.093346693	-7.476000E+00	  0.093346693	8.498400E+01	  0.093346693	3.716200E+01	  0.093346693	3.812400E+01
368	  0.093547091	-7.512000E+00	  0.093547091	8.432700E+01	  0.093547091	3.759600E+01	  0.093547091	3.830100E+01
369	  0.093747497	-7.553000E+00	  0.093747497	8.363900E+01	  0.093747497	3.806400E+01	  0.093747497	3.846900E+01
370	  0.093947895	-7.593000E+00	  0.093947895	8.294900E+01	  0.093947895	3.853600E+01	  0.093947895	3.863600E+01
371	  0.094148301	-7.631000E+00	  0.094148301	8.231800E+01	  0.094148301	3.897800E+01	  0.094148301	3.877700E+01
372	  0.094348699	-7.675000E+00	  0.094348699	8.166200E+01	  0.094348699	3.945100E+01	  0.094348699	3.890700E+01
373	  0.094549097	-7.712000E+00	  0.094549097	8.100300E+01	  0.094549097	3.991200E+01	  0.094549097	3.905600E+01
374	  0.094749503	-7.754000E+00	  0.094749503	8.038800E+01	  0.094749503	4.036600E+01	  0.094749503	3.916400E+01
375	  0.094949901	-7.794000E+00	  0.094949901	7.978400E+01	  0.094949901	4.081000E+01	  0.094949901	3.927000E+01
376	  0.095150299	-7.837000E+00	  0.095150299	7.915500E+01	  0.095150299	4.128100E+01	  0.095150299	3.937000E+01
377	  0.095350705	-7.880000E+00	  0.095350705	7.851000E+01	  0.095350705	4.176500E+01	  0.095350705	3.947100E+01
378	  0.095551103	-7.916000E+00	  0.095551103	7.790700E+01	  0.095551103	4.221000E+01	  0.095551103	3.957300E+01
379	  0.095751502	-7.961000E+00	  0.095751502	7.728000E+01	  0.095751502	4.269600E+01	  0.095751502	3.964700E+01
380	  0.095951907	-8.007000E+00	  0.095951907	7.670900E+01	  0.095951907	4.315200E+01	  0.095951907	3.969100E+01
381	  0.096152306	-8.046000E+00	  0.096152306	7.612500E+01	  0.096152306	4.360300E+01	  0.096152306	3.975800E+01
382	  0.096352704	-8.088000E+00	  0.096352704	7.551100E+01	  0.096352704	4.408100E+01	  0.096352704	3.982200E+01
383	  0.096553110	-8.131000E+00	  0.096553110	7.497100E+01	  0.096553110	4.452000E+01	  0.096553110	3.984600E+01
384	  0.096753508	-8.172000E+00	  0.096753508	7.442300E+01	  0.096753508	4.495900E+01	  0.096753508	3.987700E+01
385	  0.096953906	-8.223000E+00	  0.096953906	7.385700E+01	  0.096953906	4.543400E+01	  0.096953906	3.987000E+01
386	  0.097154312	-8.265000E+00	  0.097154312	7.328600E+01	  0.097154312	4.589500E+01	  0.097154312	3.989200E+01
387	  0.097354710	-8.309000E+00	  0.097354710	7.276500E+01	  0.097354710	4.632900E+01	  0.097354710	3.988600E+01
388	  0.097555116	-8.355000E+00	  0.097555116	7.221400E+01	  0.097555116	4.678800E+01	  0.097555116	3.987400E+01
389	  0.097755514	-8.398000E+00	  0.097755514	7.170500E+01	  0.097755514	4.721400E+01	  0.097755514	3.985600E+01
390	  0.097955912	-8.444000E+00	  0.097955912	7.118200E+01	  0.097955912	4.765600E+01	  0.097955912	3.982200E+01
391	  0.098156318	-8.485000E+00	  0.098156318	7.065400E+01	  0.098156318	4.809300E+01	  0.098156318	3.980700E+01
392	  0.098356716	-8.531000E+00	  0.098356716	7.015200E+01	  0.098356716	4.852100E+01	  0.098356716	3.975700E+01
393	  0.098557115	-8.581000E+00	  0.098557115	6.966100E+01	  0.098557115	4.895100E+01	  0.098557115	3.968200E+01
394	  0.098757520	-8.619000E+00	  0.098757520	6.913900E+01	  0.098757520	4.937900E+01	  0.098757520	3.966000E+01
395	  0.098957919	-8.665000E+00	  0.098957919	6.865200E+01	  0.098957919	4.979900E+01	  0.098957919	3.958900E+01
396	  0.099158317	-8.710000E+00	  0.099158317	6.817200E+01	  0.099158317	5.021200E+01	  0.099158317	3.951300E+01
397	  0.099358723	-8.751000E+00	  0.099358723	6.767000E+01	  0.099358723	5.063200E+01	  0.099358723	3.946100E+01
398	  0.099559121	-8.795000E+00	  0.099559121	6.724600E+01	  0.099559121	5.100300E+01	  0.099559121	3.936600E+01
399	  0.099759519	-8.836000E+00	  0.099759519	6.678700E+01	  0.099759519	5.139200E+01	  0.099759519	3.929300E+01
400	  0.099959925	-8.875000E+00	  0.099959925	6.636400E+01	  0.099959925	5.175400E+01	  0.099959925	3.920900E+01
401	  0.100160323	-8.909000E+00	  0.100160323	6.590100E+01	  0.100160323	5.213500E+01	  0.100160323	3.915900E+01
402	  0.100360721	-8.949000E+00	  0.100360721	6.547400E+01	  0.100360721	5.249900E+01	  0.100360721	3.906900E+01
403	  0.100561127	-8.994000E+00	  0.100561127	6.502000E+01	  0.100561127	5.289000E+01	  0.100561127	3.895300E+01
404	  0.100761525	-9.032000E+00	  0.100761525	6.463300E+01	  0.100761525	5.322100E+01	  0.100761525	3.885200E+01
405	  0.100961931	-9.070000E+00	  0.100961931	6.424000E+01	  0.100961931	5.355500E+01	  0.100961931	3.875100E+01
406	  0.101162329	-9.108000E+00	  0.101162329	6.383000E+01	  0.101162329	5.390300E+01	  0.101162329	3.864700E+01
407	  0.101362728	-9.148000E+00	  0.101362728	6.343100E+01	  0.101362728	5.424200E+01	  0.101362728	3.852900E+01
408	  0.101563133	-9.177000E+00	  0.101563133	6.305900E+01	  0.101563133	5.454700E+01	  0.101563133	3.846000E+01
409	  0.101763532	-9.213000E+00	  0.101763532	6.271600E+01	  0.101763532	5.484000E+01	  0.101763532	3.834000E+01
410	  0.101963930	-9.256000E+00	  0.101963930	6.229500E+01	  0.101963930	5.519600E+01	  0.101963930	3.820100E+01
411	  0.102164328	-9.283000E+00	  0.102164328	6.192500E+01	  0.102164328	5.549600E+01	  0.102164328	3.813000E+01
412	  0.102364726	-9.313000E+00	  0.102364726	6.160000E+01	  0.102364726	5.576700E+01	  0.102364726	3.803100E+01
413	  0.102565125	-9.341000E+00	  0.102565125	6.123500E+01	  0.102565125	5.606300E+01	  0.102565125	3.794800E+01
414	  0.102765530	-9.377000E+00	  0.102765530	6.090700E+01	  0.102765530	5.633900E+01	  0.102765530	3.781400E+01
415	  0.102965929	-9.403000E+00	  0.102965929	6.055100E+01	  0.102965929	5.662700E+01	  0.102965929	3.773000E+01
416	  0.103166327	-9.429000E+00	  0.103166327	6.024700E+01	  0.103166327	5.687400E+01	  0.103166327	3.764300E+01
417	  0.103366733	-9.447000E+00	  0.103366733	5.993500E+01	  0.103366733	5.712200E+01	  0.103366733	3.758700E+01
418	  0.103567131	-9.482000E+00	  0.103567131	5.951700E+01	  0.103567131	5.746100E+01	  0.103567131	3.745900E+01
419	  0.103767529	-9.497000E+00	  0.103767529	5.928200E+01	  0.103767529	5.764700E+01	  0.103767529	3.740800E+01
420	  0.103967935	-9.528000E+00	  0.103967935	5.890200E+01	  0.103967935	5.795300E+01	  0.103967935	3.729500E+01
421	  0.104168333	-9.557000E+00	  0.104168333	5.860400E+01	  0.104168333	5.819600E+01	  0.104168333	3.717500E+01
422	  0.104368731	-9.567000E+00	  0.104368731	5.826900E+01	  0.104368731	5.845500E+01	  0.104368731	3.715200E+01
423	  0.104569137	-9.584000E+00	  0.104569137	5.797800E+01	  0.104569137	5.868500E+01	  0.104569137	3.709000E+01
424	  0.104769535	-9.603000E+00	  0.104769535	5.769600E+01	  0.104769535	5.890800E+01	  0.104769535	3.701500E+01
425	  0.104969934	-9.626000E+00	  0.104969934	5.738100E+01	  0.104969934	5.915800E+01	  0.104969934	3.692100E+01
426	  0.105170339	-9.636000E+00	  0.105170339	5.703000E+01	  0.105170339	5.943000E+01	  0.105170339	3.689400E+01
427	  0.105370738	-9.652000E+00	  0.105370738	5.671400E+01	  0.105370738	5.967800E+01	  0.105370738	3.683100E+01
428	  0.105571143	-9.661000E+00	  0.105571143	5.637900E+01	  0.105571143	5.993800E+01	  0.105571143	3.680100E+01
429	  0.105771542	-9.668000E+00	  0.105771542	5.604700E+01	  0.105771542	6.019600E+01	  0.105771542	3.677700E+01
430	  0.105971940	-9.680000E+00	  0.105971940	5.574700E+01	  0.105971940	6.043200E+01	  0.105971940	3.672600E+01
431	  0.106172346	-9.681000E+00	  0.106172346	5.542300E+01	  0.106172346	6.068300E+01	  0.106172346	3.673200E+01
432	  0.106372744	-9.687000E+00	  0.106372744	5.508900E+01	  0.106372744	6.094400E+01	  0.106372744	3.671100E+01
433	  0.106573142	-9.687000E+00	  0.106573142	5.474300E+01	  0.106573142	6.121600E+01	  0.106573142	3.671800E+01
434	  0.106773548	-9.698000E+00	  0.106773548	5.444000E+01	  0.106773548	6.145400E+01	  0.106773548	3.666400E+01
435	  0.106973946	-9.695000E+00	  0.106973946	5.409500E+01	  0.106973946	6.172600E+01	  0.106973946	3.668500E+01
436	  0.107174344	-9.694000E+00	  0.107174344	5.371200E+01	  0.107174344	6.203000E+01	  0.107174344	3.669100E+01
437	  0.107374750	-9.690000E+00	  0.107374750	5.338000E+01	  0.107374750	6.229400E+01	  0.107374750	3.671200E+01
438	  0.107575148	-9.688000E+00	  0.107575148	5.302200E+01	  0.107575148	6.258100E+01	  0.107575148	3.671800E+01
439	  0.107775547	-9.672000E+00	  0.107775547	5.261000E+01	  0.107775547	6.291400E+01	  0.107775547	3.679800E+01
440	  0.107975952	-9.664000E+00	  0.107975952	5.233300E+01	  0.107975952	6.314000E+01	  0.107975952	3.683200E+01
441	  0.108176351	-9.665000E+00	  0.108176351	5.190600E+01	  0.108176351	6.348700E+01	  0.108176351	3.682000E+01
442	  0.108376749	-9.654000E+00	  0.108376749	5.150500E+01	  0.108376749	6.381700E+01	  0.108376749	3.686500E+01
443	  0.108577155	-9.648000E+00	  0.108577155	5.112700E+01	  0.108577155	6.413100E+01	  0.108577155	3.688300E+01
444	  0.108777553	-9.632000E+00	  0.108777553	5.071200E+01	  0.108777553	6.447900E+01	  0.108777553	3.695100E+01
445	  0.108977959	-9.619000E+00	  0.108977959	5.028600E+01	  0.108977959	6.484000E+01	  0.108977959	3.699800E+01
446	  0.109178357	-9.603000E+00	  0.109178357	4.993400E+01	  0.109178357	6.514200E+01	  0.109178357	3.706200E+01
447	  0.109378755	-9.591000E+00	  0.109378755	4.953700E+01	  0.109378755	6.548300E+01	  0.109378755	3.710500E+01
448	  0.109579161	-9.579000E+00	  0.109579161	4.906500E+01	  0.109579161	6.589100E+01	  0.109579161	3.713500E+01
449	  0.109779559	-9.550000E+00	  0.109779559	4.857600E+01	  0.109779559	6.632600E+01	  0.109779559	3.725700E+01
450	  0.109979957	-9.543000E+00	  0.109979957	4.814400E+01	  0.109979957	6.670400E+01	  0.109979957	3.725700E+01
451	  0.110180363	-9.524000E+00	  0.110180363	4.769700E+01	  0.110180363	6.710700E+01	  0.110180363	3.732200E+01
452	  0.110380761	-9.504000E+00	  0.110380761	4.720300E+01	  0.110380761	6.755500E+01	  0.110380761	3.737900E+01
453	  0.110581160	-9.486000E+00	  0.110581160	4.671700E+01	  0.110581160	6.800000E+01	  0.110581160	3.742700E+01
454	  0.110781565	-9.469000E+00	  0.110781565	4.622000E+01	  0.110781565	6.845700E+01	  0.110781565	3.746200E+01
455	  0.110981964	-9.453000E+00	  0.110981964	4.569800E+01	  0.110981964	6.894100E+01	  0.110981964	3.748300E+01
456	  0.111182362	-9.426000E+00	  0.111182362	4.519000E+01	  0.111182362	6.942900E+01	  0.111182362	3.756400E+01
457	  0.111382768	-9.407000E+00	  0.111382768	4.460300E+01	  0.111382768	6.998800E+01	  0.111382768	3.758600E+01
458	  0.111583166	-9.387000E+00	  0.111583166	4.406400E+01	  0.111583166	7.050700E+01	  0.111583166	3.761000E+01
459	  0.111783572	-9.374000E+00	  0.111783572	4.347300E+01	  0.111783572	7.107300E+01	  0.111783572	3.757800E+01
460	  0.111983970	-9.352000E+00	  0.111983970	4.289900E+01	  0.111983970	7.164000E+01	  0.111983970	3.759200E+01
461	  0.112184368	-9.340000E+00	  0.112184368	4.231200E+01	  0.112184368	7.221200E+01	  0.112184368	3.754100E+01
462	  0.112384774	-9.315000E+00	  0.112384774	4.167000E+01	  0.112384774	7.286000E+01	  0.112384774	3.754200E+01
463	  0.112585172	-9.297000E+00	  0.112585172	4.103700E+01	  0.112585172	7.349700E+01	  0.112585172	3.749800E+01
464	  0.112785570	-9.284000E+00	  0.112785570	4.036900E+01	  0.112785570	7.416500E+01	  0.112785570	3.740200E+01
465	  0.112985976	-9.261000E+00	  0.112985976	3.974400E+01	  0.112985976	7.481700E+01	  0.112985976	3.737000E+01
466	  0.113186374	-9.245000E+00	  0.113186374	3.906200E+01	  0.113186374	7.551500E+01	  0.113186374	3.726000E+01
467	  0.113386773	-9.232000E+00	  0.113386773	3.838200E+01	  0.113386773	7.621400E+01	  0.113386773	3.712400E+01
468	  0.113587178	-9.210000E+00	  0.113587178	3.770900E+01	  0.113587178	7.693200E+01	  0.113587178	3.703600E+01
469	  0.113787577	-9.194000E+00	  0.113787577	3.690100E+01	  0.113787577	7.777600E+01	  0.113787577	3.683900E+01
470	  0.113987975	-9.178000E+00	  0.113987975	3.618700E+01	  0.113987975	7.853300E+01	  0.113987975	3.666400E+01
471	  0.114188381	-9.163000E+00	  0.114188381	3.544200E+01	  0.114188381	7.932700E+01	  0.114188381	3.645600E+01
472	  0.114388779	-9.144000E+00	  0.114388779	3.464100E+01	  0.114388779	8.019200E+01	  0.114388779	3.622600E+01
473	  0.114589177	-9.137000E+00	  0.114589177	3.387600E+01	  0.114589177	8.098800E+01	  0.114589177	3.591100E+01
474	  0.114789583	-9.126000E+00	  0.114789583	3.308400E+01	  0.114789583	8.183000E+01	  0.114789583	3.559100E+01
475	  0.114989981	-9.117000E+00	  0.114989981	3.228900E+01	  0.114989981	8.267100E+01	  0.114989981	3.523600E+01
476	  0.115190387	-9.105000E+00	  0.115190387	3.139300E+01	  0.115190387	8.362400E+01	  0.115190387	3.481600E+01
477	  0.115390785	-9.094000E+00	  0.115390785	3.056200E+01	  0.115390785	8.451000E+01	  0.115390785	3.439800E+01
478	  0.115591183	-9.089000E+00	  0.115591183	2.967800E+01	  0.115591183	8.542900E+01	  0.115591183	3.388800E+01
479	  0.115791589	-9.084000E+00	  0.115791589	2.878800E+01	  0.115791589	8.634600E+01	  0.115791589	3.333900E+01
480	  0.115991987	-9.080000E+00	  0.115991987	2.789400E+01	  0.115991987	8.725900E+01	  0.115991987	3.274900E+01
481	  0.116192386	-9.073000E+00	  0.116192386	2.700500E+01	  0.116192386	8.817700E+01	  0.116192386	3.215400E+01
482	  0.116392791	-9.075000E+00	  0.116392791	2.605300E+01	  0.116392791	8.910300E+01	  0.116392791	3.141800E+01
483	  0.116593190	-9.074000E+00	  0.116593190	2.513500E+01	  0.116593190	9.000200E+01	  0.116593190	3.069700E+01
484	  0.116793588	-9.073000E+00	  0.116793588	2.410300E+01	  0.116793588	9.099100E+01	  0.116793588	2.984200E+01
485	  0.116993994	-9.080000E+00	  0.116993994	2.311500E+01	  0.116993994	9.188000E+01	  0.116993994	2.893900E+01
486	  0.117194392	-9.082000E+00	  0.117194392	2.213100E+01	  0.117194392	9.276700E+01	  0.117194392	2.802600E+01
487	  0.117394790	-9.093000E+00	  0.117394790	2.114600E+01	  0.117394790	9.358100E+01	  0.117394790	2.703000E+01
488	  0.117595196	-9.106000E+00	  0.117595196	2.008700E+01	  0.117595196	9.441500E+01	  0.117595196	2.591200E+01
489	  0.117795594	-9.122000E+00	  0.117795594	1.902600E+01	  0.117795594	9.519900E+01	  0.117795594	2.474200E+01
490	  0.117995992	-9.132000E+00	  0.117995992	1.793500E+01	  0.117995992	9.601100E+01	  0.117995992	2.353700E+01
491	  0.118196398	-9.149000E+00	  0.118196398	1.688400E+01	  0.118196398	9.669700E+01	  0.118196398	2.230200E+01
492	  0.118396796	-9.177000E+00	  0.118396796	1.575600E+01	  0.118396796	9.731600E+01	  0.118396796	2.089900E+01
493	  0.118597202	-9.197000E+00	  0.118597202	1.461400E+01	  0.118597202	9.795100E+01	  0.118597202	1.948900E+01
494	  0.118797600	-9.226000E+00	  0.118797600	1.344500E+01	  0.118797600	9.847400E+01	  0.118797600	1.797900E+01
