! Anritsu VNA Master:             	Model: MS2036C/10/77
! SN:             	1601066
! /bd0/18may09/254.ew.m13.txt
! Existing Calibration Information:
! TYPE:             	Current Settings	Active Cal Settings
! TIME:             	05/09/2018 12:14:47 PM	05/09/2018 12:08:51 PM
! INTERNAL TEMP:    	55.3 C	54.8 C
! # POINTS:         	494	494
! START FREQ:       	20.000 MHz	20.000 MHz
! STOP FREQ:        	118.797 594 MHz	118.797 594 MHz
! SOURCE POWER:     	High	High
! IFBW:             	50 Hz	50 Hz
! AVG FACTOR:       	  1 	  1 
! REF PLANE 1:      	0 mm	0 mm
! REF PLANE 2:      	0 mm	0 mm
! CAL TYPE:         	Full S22	Full S22
! CAL METHOD:       	SOLT	SOLT
! CAL LINE TYPE:    	Coax	Coax
! DUT PORT 1:       	K-Conn(M)	K-Conn(M)
! DUT PORT 2:       	K-Conn(M)	K-Conn(M)
! CAL STATUS:       	OK: Accuracy High	--
! PROP-V:       	0.700
! CABLE LOSS:       	0.000 dB/m
! REF IMPEDANCE:       	50.0
! Trace Specific Parameters:	TR1	TR2	TR3	TR4
! TRACE.#.Y (GRAPH TYPE)	LOG MAG	PHASE	REAL IMPEDANCE	IMAGINARY IMPEDANCE
! TRACE.#.X 	FREQ.GHZ	FREQ.GHZ	FREQ.GHZ	FREQ.GHZ
! S-PARAMETER	S22	S22	S22	S22
! SMOOTH/APERTURE %	0	0	0	0
! WINDOW	NSL	NSL	NSL	NSL
! GATING	OFF	OFF	OFF	OFF
! FGTD	OFF	OFF	OFF	OFF
Marker Information per Trace:	TR1	TR2	TR3	TR4
!MK1	--	"MK1 TR2:  20.000 MHz,PH:-126.74°"	--	--
!MK2	--	--	"MK2 TR3:  70.100 200 MHz,Z:(16.141 ohm, -0.792 ohm)"	--
!MK3	--	--	--	--
!MK4	--	--	--	--
!MK5	--	--	--	--
!MK6	--	--	--	--
!MK7	--	--	--	--
!MK8	--	--	--	--
PNT	TR1.FREQ.GHZ	TR1.LOG MAG.dB	TR2.FREQ.GHZ	TR2.PHASE.deg	TR3.FREQ.GHZ	TR3.REAL IMPEDANCE.ohm	TR4.FREQ.GHZ	TR4.IMAGINARY IMPEDANCE.ohm
1	  0.020000000	-6.420000E-01	  0.020000000	-1.267390E+02	  0.020000000	2.312000E+00	  0.020000000	-2.502800E+01
2	  0.020200402	-6.440000E-01	  0.020200402	-1.282050E+02	  0.020200402	2.288000E+00	  0.020200402	-2.423400E+01
3	  0.020400802	-6.440000E-01	  0.020400802	-1.296780E+02	  0.020400802	2.263000E+00	  0.020400802	-2.344700E+01
4	  0.020601204	-6.470000E-01	  0.020601204	-1.311820E+02	  0.020601204	2.244000E+00	  0.020601204	-2.265200E+01
5	  0.020801604	-6.480000E-01	  0.020801604	-1.327090E+02	  0.020801604	2.224000E+00	  0.020801604	-2.185500E+01
6	  0.021002004	-6.520000E-01	  0.021002004	-1.342400E+02	  0.021002004	2.210000E+00	  0.021002004	-2.106500E+01
7	  0.021202406	-6.540000E-01	  0.021202406	-1.357840E+02	  0.021202406	2.194000E+00	  0.021202406	-2.027700E+01
8	  0.021402806	-6.560000E-01	  0.021402806	-1.373210E+02	  0.021402806	2.176000E+00	  0.021402806	-1.950100E+01
9	  0.021603208	-6.600000E-01	  0.021603208	-1.388510E+02	  0.021603208	2.166000E+00	  0.021603208	-1.873700E+01
10	  0.021803608	-6.640000E-01	  0.021803608	-1.403730E+02	  0.021803608	2.159000E+00	  0.021803608	-1.798400E+01
11	  0.022004008	-6.690000E-01	  0.022004008	-1.419130E+02	  0.022004008	2.153000E+00	  0.022004008	-1.722900E+01
12	  0.022204408	-6.740000E-01	  0.022204408	-1.434870E+02	  0.022204408	2.150000E+00	  0.022204408	-1.646500E+01
13	  0.022404809	-6.770000E-01	  0.022404809	-1.450760E+02	  0.022404809	2.141000E+00	  0.022404809	-1.570200E+01
14	  0.022605211	-6.820000E-01	  0.022605211	-1.466650E+02	  0.022605211	2.137000E+00	  0.022605211	-1.494400E+01
15	  0.022805611	-6.870000E-01	  0.022805611	-1.482570E+02	  0.022805611	2.136000E+00	  0.022805611	-1.419100E+01
16	  0.023006011	-6.940000E-01	  0.023006011	-1.498420E+02	  0.023006011	2.143000E+00	  0.023006011	-1.344700E+01
17	  0.023206413	-6.970000E-01	  0.023206413	-1.514350E+02	  0.023206413	2.137000E+00	  0.023206413	-1.270600E+01
18	  0.023406813	-7.000000E-01	  0.023406813	-1.530230E+02	  0.023406813	2.131000E+00	  0.023406813	-1.197200E+01
19	  0.023607215	-7.060000E-01	  0.023607215	-1.546350E+02	  0.023607215	2.136000E+00	  0.023607215	-1.123200E+01
20	  0.023807615	-7.160000E-01	  0.023807615	-1.562410E+02	  0.023807615	2.152000E+00	  0.023807615	-1.049900E+01
21	  0.024008015	-7.230000E-01	  0.024008015	-1.578900E+02	  0.024008015	2.161000E+00	  0.024008015	-9.751000E+00
22	  0.024208417	-7.290000E-01	  0.024208417	-1.595380E+02	  0.024208417	2.166000E+00	  0.024208417	-9.007000E+00
23	  0.024408817	-7.360000E-01	  0.024408817	-1.612020E+02	  0.024408817	2.175000E+00	  0.024408817	-8.261000E+00
24	  0.024609219	-7.420000E-01	  0.024609219	-1.628670E+02	  0.024609219	2.184000E+00	  0.024609219	-7.517000E+00
25	  0.024809619	-7.500000E-01	  0.024809619	-1.645370E+02	  0.024809619	2.197000E+00	  0.024809619	-6.774000E+00
26	  0.025010020	-7.590000E-01	  0.025010020	-1.662000E+02	  0.025010020	2.215000E+00	  0.025010020	-6.038000E+00
27	  0.025210422	-7.680000E-01	  0.025210422	-1.678870E+02	  0.025210422	2.234000E+00	  0.025210422	-5.294000E+00
28	  0.025410822	-7.780000E-01	  0.025410822	-1.695870E+02	  0.025410822	2.257000E+00	  0.025410822	-4.546000E+00
29	  0.025611224	-7.890000E-01	  0.025611224	-1.712860E+02	  0.025611224	2.283000E+00	  0.025611224	-3.801000E+00
30	  0.025811624	-7.990000E-01	  0.025811624	-1.730060E+02	  0.025811624	2.308000E+00	  0.025811624	-3.048000E+00
31	  0.026012026	-8.090000E-01	  0.026012026	-1.747390E+02	  0.026012026	2.333000E+00	  0.026012026	-2.292000E+00
32	  0.026212426	-8.190000E-01	  0.026212426	-1.764710E+02	  0.026212426	2.359000E+00	  0.026212426	-1.536000E+00
33	  0.026412826	-8.330000E-01	  0.026412826	-1.782180E+02	  0.026412826	2.399000E+00	  0.026412826	-7.750000E-01
34	  0.026613226	-8.470000E-01	  0.026613226	-1.799770E+02	  0.026613226	2.436000E+00	  0.026613226	-9.000000E-03
35	  0.026813626	-8.600000E-01	  0.026813626	1.782600E+02	  0.026813626	2.476000E+00	  0.026813626	7.570000E-01
36	  0.027014028	-8.760000E-01	  0.027014028	1.764920E+02	  0.027014028	2.523000E+00	  0.027014028	1.526000E+00
37	  0.027214428	-8.910000E-01	  0.027214428	1.747160E+02	  0.027214428	2.569000E+00	  0.027214428	2.301000E+00
38	  0.027414829	-9.070000E-01	  0.027414829	1.729370E+02	  0.027414829	2.620000E+00	  0.027414829	3.077000E+00
39	  0.027615231	-9.240000E-01	  0.027615231	1.711390E+02	  0.027615231	2.674000E+00	  0.027615231	3.862000E+00
40	  0.027815631	-9.400000E-01	  0.027815631	1.693310E+02	  0.027815631	2.727000E+00	  0.027815631	4.654000E+00
41	  0.028016033	-9.580000E-01	  0.028016033	1.675160E+02	  0.028016033	2.789000E+00	  0.028016033	5.451000E+00
42	  0.028216433	-9.780000E-01	  0.028216433	1.656780E+02	  0.028216433	2.856000E+00	  0.028216433	6.261000E+00
43	  0.028416833	-9.960000E-01	  0.028416833	1.638380E+02	  0.028416833	2.923000E+00	  0.028416833	7.075000E+00
44	  0.028617235	-1.016000E+00	  0.028617235	1.619910E+02	  0.028617235	2.996000E+00	  0.028617235	7.895000E+00
45	  0.028817635	-1.036000E+00	  0.028817635	1.601530E+02	  0.028817635	3.071000E+00	  0.028817635	8.715000E+00
46	  0.029018037	-1.057000E+00	  0.029018037	1.583020E+02	  0.029018037	3.152000E+00	  0.029018037	9.545000E+00
47	  0.029218437	-1.081000E+00	  0.029218437	1.564420E+02	  0.029218437	3.243000E+00	  0.029218437	1.038400E+01
48	  0.029418837	-1.104000E+00	  0.029418837	1.545530E+02	  0.029418837	3.335000E+00	  0.029418837	1.124100E+01
49	  0.029619239	-1.129000E+00	  0.029619239	1.526630E+02	  0.029619239	3.438000E+00	  0.029619239	1.210500E+01
50	  0.029819639	-1.153000E+00	  0.029819639	1.507630E+02	  0.029819639	3.540000E+00	  0.029819639	1.297900E+01
51	  0.030020041	-1.179000E+00	  0.030020041	1.488570E+02	  0.030020041	3.651000E+00	  0.030020041	1.386400E+01
52	  0.030220442	-1.203000E+00	  0.030220442	1.469480E+02	  0.030220442	3.760000E+00	  0.030220442	1.475800E+01
53	  0.030420844	-1.229000E+00	  0.030420844	1.450410E+02	  0.030420844	3.881000E+00	  0.030420844	1.565800E+01
54	  0.030621244	-1.257000E+00	  0.030621244	1.431350E+02	  0.030621244	4.012000E+00	  0.030621244	1.656700E+01
55	  0.030821642	-1.287000E+00	  0.030821642	1.412160E+02	  0.030821642	4.152000E+00	  0.030821642	1.749100E+01
56	  0.031022044	-1.316000E+00	  0.031022044	1.392840E+02	  0.031022044	4.299000E+00	  0.031022044	1.843200E+01
57	  0.031222444	-1.343000E+00	  0.031222444	1.373430E+02	  0.031222444	4.442000E+00	  0.031222444	1.938800E+01
58	  0.031422846	-1.371000E+00	  0.031422846	1.353850E+02	  0.031422846	4.598000E+00	  0.031422846	2.036500E+01
59	  0.031623244	-1.404000E+00	  0.031623244	1.334150E+02	  0.031623244	4.774000E+00	  0.031623244	2.135900E+01
60	  0.031823646	-1.437000E+00	  0.031823646	1.314410E+02	  0.031823646	4.960000E+00	  0.031823646	2.236900E+01
61	  0.032024048	-1.469000E+00	  0.032024048	1.294680E+02	  0.032024048	5.151000E+00	  0.032024048	2.339300E+01
62	  0.032224450	-1.505000E+00	  0.032224450	1.274940E+02	  0.032224450	5.362000E+00	  0.032224450	2.443100E+01
63	  0.032424849	-1.539000E+00	  0.032424849	1.255060E+02	  0.032424849	5.578000E+00	  0.032424849	2.549400E+01
64	  0.032625251	-1.578000E+00	  0.032625251	1.235050E+02	  0.032625251	5.824000E+00	  0.032625251	2.657900E+01
65	  0.032825653	-1.610000E+00	  0.032825653	1.214580E+02	  0.032825653	6.056000E+00	  0.032825653	2.771100E+01
66	  0.033026051	-1.650000E+00	  0.033026051	1.194510E+02	  0.033026051	6.331000E+00	  0.033026051	2.883700E+01
67	  0.033226453	-1.685000E+00	  0.033226453	1.174240E+02	  0.033226453	6.597000E+00	  0.033226453	2.999800E+01
68	  0.033426855	-1.724000E+00	  0.033426855	1.153890E+02	  0.033426855	6.896000E+00	  0.033426855	3.118300E+01
69	  0.033627257	-1.765000E+00	  0.033627257	1.133810E+02	  0.033627257	7.217000E+00	  0.033627257	3.237400E+01
70	  0.033827655	-1.803000E+00	  0.033827655	1.113280E+02	  0.033827655	7.546000E+00	  0.033827655	3.362000E+01
71	  0.034028057	-1.842000E+00	  0.034028057	1.092970E+02	  0.034028057	7.898000E+00	  0.034028057	3.487700E+01
72	  0.034228459	-1.886000E+00	  0.034228459	1.072400E+02	  0.034228459	8.290000E+00	  0.034228459	3.617400E+01
73	  0.034428857	-1.926000E+00	  0.034428857	1.051750E+02	  0.034428857	8.689000E+00	  0.034428857	3.751000E+01
74	  0.034629259	-1.971000E+00	  0.034629259	1.031080E+02	  0.034629259	9.138000E+00	  0.034629259	3.887400E+01
75	  0.034829661	-2.015000E+00	  0.034829661	1.010460E+02	  0.034829661	9.606000E+00	  0.034829661	4.026800E+01
76	  0.035030060	-2.061000E+00	  0.035030060	9.895000E+01	  0.035030060	1.011700E+01	  0.035030060	4.172000E+01
77	  0.035230462	-2.107000E+00	  0.035230462	9.687300E+01	  0.035230462	1.066000E+01	  0.035230462	4.319300E+01
78	  0.035430863	-2.155000E+00	  0.035430863	9.479000E+01	  0.035430863	1.124600E+01	  0.035430863	4.470800E+01
79	  0.035631265	-2.203000E+00	  0.035631265	9.271400E+01	  0.035631265	1.187400E+01	  0.035631265	4.625600E+01
80	  0.035831664	-2.251000E+00	  0.035831664	9.061600E+01	  0.035831664	1.254700E+01	  0.035831664	4.786400E+01
81	  0.036032066	-2.300000E+00	  0.036032066	8.853600E+01	  0.036032066	1.326900E+01	  0.036032066	4.950100E+01
82	  0.036232468	-2.349000E+00	  0.036232468	8.643700E+01	  0.036232468	1.404800E+01	  0.036232468	5.119900E+01
83	  0.036432866	-2.400000E+00	  0.036432866	8.432200E+01	  0.036432866	1.489300E+01	  0.036432866	5.295900E+01
84	  0.036633268	-2.450000E+00	  0.036633268	8.224500E+01	  0.036633268	1.579400E+01	  0.036633268	5.473400E+01
85	  0.036833670	-2.501000E+00	  0.036833670	8.014600E+01	  0.036833670	1.677100E+01	  0.036833670	5.658100E+01
86	  0.037034072	-2.556000E+00	  0.037034072	7.805000E+01	  0.037034072	1.784300E+01	  0.037034072	5.847300E+01
87	  0.037234470	-2.606000E+00	  0.037234470	7.595300E+01	  0.037234470	1.897300E+01	  0.037234470	6.043100E+01
88	  0.037434869	-2.658000E+00	  0.037434869	7.387400E+01	  0.037434869	2.019800E+01	  0.037434869	6.242300E+01
89	  0.037635271	-2.708000E+00	  0.037635271	7.178300E+01	  0.037635271	2.151800E+01	  0.037635271	6.449300E+01
90	  0.037835669	-2.762000E+00	  0.037835669	6.969100E+01	  0.037835669	2.297100E+01	  0.037835669	6.661500E+01
91	  0.038036071	-2.816000E+00	  0.038036071	6.755800E+01	  0.038036071	2.457800E+01	  0.038036071	6.884100E+01
92	  0.038236473	-2.870000E+00	  0.038236473	6.544700E+01	  0.038236473	2.630900E+01	  0.038236473	7.110700E+01
93	  0.038436871	-2.926000E+00	  0.038436871	6.331800E+01	  0.038436871	2.822400E+01	  0.038436871	7.344600E+01
94	  0.038637273	-2.983000E+00	  0.038637273	6.122600E+01	  0.038637273	3.029100E+01	  0.038637273	7.579200E+01
95	  0.038837675	-3.037000E+00	  0.038837675	5.911800E+01	  0.038837675	3.253200E+01	  0.038837675	7.823200E+01
96	  0.039038073	-3.090000E+00	  0.039038073	5.703400E+01	  0.039038073	3.494800E+01	  0.039038073	8.069900E+01
97	  0.039238475	-3.141000E+00	  0.039238475	5.496700E+01	  0.039238475	3.756000E+01	  0.039238475	8.319800E+01
98	  0.039438877	-3.196000E+00	  0.039438877	5.289000E+01	  0.039438877	4.046100E+01	  0.039438877	8.572100E+01
99	  0.039639279	-3.249000E+00	  0.039639279	5.078400E+01	  0.039639279	4.365200E+01	  0.039639279	8.833300E+01
100	  0.039839678	-3.306000E+00	  0.039839678	4.869600E+01	  0.039839678	4.717000E+01	  0.039839678	9.088600E+01
101	  0.040040080	-3.356000E+00	  0.040040080	4.660500E+01	  0.040040080	5.097300E+01	  0.040040080	9.349300E+01
102	  0.040240481	-3.407000E+00	  0.040240481	4.450400E+01	  0.040240481	5.516900E+01	  0.040240481	9.608700E+01
103	  0.040440880	-3.460000E+00	  0.040440880	4.243000E+01	  0.040440880	5.974500E+01	  0.040440880	9.854300E+01
104	  0.040641282	-3.514000E+00	  0.040641282	4.036900E+01	  0.040641282	6.474000E+01	  0.040641282	1.008580E+02
105	  0.040841684	-3.564000E+00	  0.040841684	3.829700E+01	  0.040841684	7.019400E+01	  0.040841684	1.030850E+02
106	  0.041042086	-3.619000E+00	  0.041042086	3.625400E+01	  0.041042086	7.612400E+01	  0.041042086	1.049740E+02
107	  0.041242484	-3.674000E+00	  0.041242484	3.419400E+01	  0.041242484	8.262500E+01	  0.041242484	1.065730E+02
108	  0.041442886	-3.724000E+00	  0.041442886	3.213000E+01	  0.041442886	8.966300E+01	  0.041442886	1.078780E+02
109	  0.041643288	-3.778000E+00	  0.041643288	3.005500E+01	  0.041643288	9.733500E+01	  0.041643288	1.086050E+02
110	  0.041843686	-3.827000E+00	  0.041843686	2.798200E+01	  0.041843686	1.055450E+02	  0.041843686	1.088120E+02
111	  0.042044088	-3.876000E+00	  0.042044088	2.593300E+01	  0.042044088	1.142000E+02	  0.042044088	1.082620E+02
112	  0.042244490	-3.928000E+00	  0.042244490	2.388400E+01	  0.042244490	1.233330E+02	  0.042244490	1.067370E+02
113	  0.042444889	-3.978000E+00	  0.042444889	2.185200E+01	  0.042444889	1.327630E+02	  0.042444889	1.042130E+02
114	  0.042645290	-4.031000E+00	  0.042645290	1.981300E+01	  0.042645290	1.424210E+02	  0.042645290	1.003650E+02
115	  0.042845692	-4.080000E+00	  0.042845692	1.779200E+01	  0.042845692	1.520540E+02	  0.042845692	9.535300E+01
116	  0.043046094	-4.131000E+00	  0.043046094	1.577000E+01	  0.043046094	1.614570E+02	  0.043046094	8.886500E+01
117	  0.043246493	-4.178000E+00	  0.043246493	1.374200E+01	  0.043246493	1.704770E+02	  0.043246493	8.101400E+01
118	  0.043446895	-4.225000E+00	  0.043446895	1.174600E+01	  0.043446895	1.785990E+02	  0.043446895	7.186500E+01
119	  0.043647297	-4.273000E+00	  0.043647297	9.739000E+00	  0.043647297	1.856770E+02	  0.043647297	6.134400E+01
120	  0.043847695	-4.319000E+00	  0.043847695	7.734000E+00	  0.043847695	1.914170E+02	  0.043847695	4.972800E+01
121	  0.044048097	-4.366000E+00	  0.044048097	5.750000E+00	  0.044048097	1.954490E+02	  0.044048097	3.736000E+01
122	  0.044248499	-4.414000E+00	  0.044248499	3.772000E+00	  0.044248499	1.977290E+02	  0.044248499	2.452900E+01
123	  0.044448901	-4.460000E+00	  0.044448901	1.833000E+00	  0.044448901	1.982270E+02	  0.044448901	1.182100E+01
124	  0.044649299	-4.506000E+00	  0.044649299	-1.180000E-01	  0.044649299	1.970610E+02	  0.044649299	-7.510000E-01
125	  0.044849701	-4.548000E+00	  0.044849701	-2.055000E+00	  0.044849701	1.944290E+02	  0.044849701	-1.272800E+01
126	  0.045050103	-4.594000E+00	  0.045050103	-4.006000E+00	  0.045050103	1.901960E+02	  0.045050103	-2.398700E+01
127	  0.045250501	-4.637000E+00	  0.045250501	-5.935000E+00	  0.045250501	1.849310E+02	  0.045250501	-3.417100E+01
128	  0.045450903	-4.682000E+00	  0.045450903	-7.841000E+00	  0.045450903	1.787380E+02	  0.045450903	-4.311700E+01
129	  0.045651305	-4.723000E+00	  0.045651305	-9.774000E+00	  0.045651305	1.719270E+02	  0.045651305	-5.111600E+01
130	  0.045851704	-4.764000E+00	  0.045851704	-1.166700E+01	  0.045851704	1.647920E+02	  0.045851704	-5.781700E+01
131	  0.046052102	-4.804000E+00	  0.046052102	-1.355400E+01	  0.046052102	1.574310E+02	  0.046052102	-6.342400E+01
132	  0.046252504	-4.843000E+00	  0.046252504	-1.543000E+01	  0.046252504	1.500460E+02	  0.046252504	-6.800800E+01
133	  0.046452906	-4.880000E+00	  0.046452906	-1.729300E+01	  0.046452906	1.427920E+02	  0.046452906	-7.170900E+01
134	  0.046653304	-4.920000E+00	  0.046653304	-1.916900E+01	  0.046653304	1.355920E+02	  0.046653304	-7.454000E+01
135	  0.046853706	-4.957000E+00	  0.046853706	-2.102800E+01	  0.046853706	1.287120E+02	  0.046853706	-7.668200E+01
136	  0.047054108	-4.990000E+00	  0.047054108	-2.287500E+01	  0.047054108	1.221700E+02	  0.047054108	-7.827600E+01
137	  0.047254506	-5.029000E+00	  0.047254506	-2.474000E+01	  0.047254506	1.158240E+02	  0.047254506	-7.921000E+01
138	  0.047454908	-5.064000E+00	  0.047454908	-2.658700E+01	  0.047454908	1.098840E+02	  0.047454908	-7.975200E+01
139	  0.047655310	-5.097000E+00	  0.047655310	-2.838400E+01	  0.047655310	1.044190E+02	  0.047655310	-7.992200E+01
140	  0.047855709	-5.130000E+00	  0.047855709	-3.018600E+01	  0.047855709	9.924600E+01	  0.047855709	-7.976800E+01
141	  0.048056111	-5.164000E+00	  0.048056111	-3.197500E+01	  0.048056111	9.441400E+01	  0.048056111	-7.932400E+01
142	  0.048256513	-5.195000E+00	  0.048256513	-3.374300E+01	  0.048256513	8.992800E+01	  0.048256513	-7.873700E+01
143	  0.048456915	-5.227000E+00	  0.048456915	-3.553400E+01	  0.048456915	8.566400E+01	  0.048456915	-7.793500E+01
144	  0.048657313	-5.256000E+00	  0.048657313	-3.731900E+01	  0.048657313	8.167500E+01	  0.048657313	-7.703300E+01
145	  0.048857715	-5.283000E+00	  0.048857715	-3.906700E+01	  0.048857715	7.800800E+01	  0.048857715	-7.604600E+01
146	  0.049058117	-5.308000E+00	  0.049058117	-4.082800E+01	  0.049058117	7.453800E+01	  0.049058117	-7.497800E+01
147	  0.049258515	-5.334000E+00	  0.049258515	-4.257200E+01	  0.049258515	7.131500E+01	  0.049258515	-7.382500E+01
148	  0.049458917	-5.357000E+00	  0.049458917	-4.429200E+01	  0.049458917	6.832500E+01	  0.049458917	-7.265500E+01
149	  0.049659319	-5.386000E+00	  0.049659319	-4.599000E+01	  0.049659319	6.557400E+01	  0.049659319	-7.138400E+01
150	  0.049859721	-5.410000E+00	  0.049859721	-4.767500E+01	  0.049859721	6.299000E+01	  0.049859721	-7.014400E+01
151	  0.050060119	-5.435000E+00	  0.050060119	-4.935000E+01	  0.050060119	6.058100E+01	  0.050060119	-6.886800E+01
152	  0.050260521	-5.454000E+00	  0.050260521	-5.104500E+01	  0.050260521	5.826200E+01	  0.050260521	-6.761800E+01
153	  0.050460923	-5.481000E+00	  0.050460923	-5.272300E+01	  0.050460923	5.613600E+01	  0.050460923	-6.628700E+01
154	  0.050661322	-5.499000E+00	  0.050661322	-5.436000E+01	  0.050661322	5.414500E+01	  0.050661322	-6.506100E+01
155	  0.050861724	-5.519000E+00	  0.050861724	-5.601200E+01	  0.050861724	5.225500E+01	  0.050861724	-6.380300E+01
156	  0.051062126	-5.541000E+00	  0.051062126	-5.763200E+01	  0.051062126	5.052000E+01	  0.051062126	-6.254700E+01
157	  0.051262524	-5.563000E+00	  0.051262524	-5.922800E+01	  0.051262524	4.890100E+01	  0.051262524	-6.131500E+01
158	  0.051462926	-5.583000E+00	  0.051462926	-6.081500E+01	  0.051462926	4.737100E+01	  0.051462926	-6.010900E+01
159	  0.051663328	-5.603000E+00	  0.051663328	-6.240400E+01	  0.051663328	4.592100E+01	  0.051663328	-5.890900E+01
160	  0.051863730	-5.617000E+00	  0.051863730	-6.399100E+01	  0.051863730	4.452100E+01	  0.051863730	-5.775700E+01
161	  0.052064128	-5.635000E+00	  0.052064128	-6.555900E+01	  0.052064128	4.322800E+01	  0.052064128	-5.660100E+01
162	  0.052264530	-5.646000E+00	  0.052264530	-6.711700E+01	  0.052264530	4.197900E+01	  0.052264530	-5.549700E+01
163	  0.052464932	-5.659000E+00	  0.052464932	-6.865100E+01	  0.052464932	4.081400E+01	  0.052464932	-5.441400E+01
164	  0.052665330	-5.677000E+00	  0.052665330	-7.019700E+01	  0.052665330	3.972500E+01	  0.052665330	-5.330300E+01
165	  0.052865732	-5.690000E+00	  0.052865732	-7.170200E+01	  0.052865732	3.869500E+01	  0.052865732	-5.225400E+01
166	  0.053066134	-5.705000E+00	  0.053066134	-7.322800E+01	  0.053066134	3.770700E+01	  0.053066134	-5.119600E+01
167	  0.053266536	-5.715000E+00	  0.053266536	-7.471700E+01	  0.053266536	3.676600E+01	  0.053266536	-5.019700E+01
168	  0.053466935	-5.728000E+00	  0.053466935	-7.623900E+01	  0.053466935	3.586100E+01	  0.053466935	-4.917500E+01
169	  0.053667337	-5.738000E+00	  0.053667337	-7.773200E+01	  0.053667337	3.500300E+01	  0.053667337	-4.819400E+01
170	  0.053867739	-5.746000E+00	  0.053867739	-7.920600E+01	  0.053867739	3.419000E+01	  0.053867739	-4.723900E+01
171	  0.054068137	-5.754000E+00	  0.054068137	-8.071300E+01	  0.054068137	3.339000E+01	  0.054068137	-4.627900E+01
172	  0.054268539	-5.760000E+00	  0.054268539	-8.217900E+01	  0.054268539	3.263900E+01	  0.054268539	-4.536100E+01
173	  0.054468941	-5.768000E+00	  0.054468941	-8.365800E+01	  0.054468941	3.192500E+01	  0.054468941	-4.443500E+01
174	  0.054669335	-5.780000E+00	  0.054669335	-8.513400E+01	  0.054669335	3.125400E+01	  0.054669335	-4.351400E+01
175	  0.054869737	-5.788000E+00	  0.054869737	-8.658700E+01	  0.054869737	3.061200E+01	  0.054869737	-4.262600E+01
176	  0.055070139	-5.793000E+00	  0.055070139	-8.802800E+01	  0.055070139	2.998800E+01	  0.055070139	-4.176600E+01
177	  0.055270538	-5.795000E+00	  0.055270538	-8.947300E+01	  0.055270538	2.937500E+01	  0.055270538	-4.092300E+01
178	  0.055470940	-5.803000E+00	  0.055470940	-9.090600E+01	  0.055470940	2.881800E+01	  0.055470940	-4.007600E+01
179	  0.055671342	-5.802000E+00	  0.055671342	-9.236900E+01	  0.055671342	2.823600E+01	  0.055671342	-3.924600E+01
180	  0.055871744	-5.803000E+00	  0.055871744	-9.379500E+01	  0.055871744	2.769800E+01	  0.055871744	-3.844100E+01
181	  0.056072142	-5.806000E+00	  0.056072142	-9.520400E+01	  0.056072142	2.719700E+01	  0.056072142	-3.764800E+01
182	  0.056272544	-5.808000E+00	  0.056272544	-9.659700E+01	  0.056272544	2.671600E+01	  0.056272544	-3.687400E+01
183	  0.056472946	-5.812000E+00	  0.056472946	-9.801500E+01	  0.056472946	2.625100E+01	  0.056472946	-3.609100E+01
184	  0.056673344	-5.815000E+00	  0.056673344	-9.938900E+01	  0.056673344	2.581800E+01	  0.056673344	-3.534100E+01
185	  0.056873746	-5.818000E+00	  0.056873746	-1.007680E+02	  0.056873746	2.539500E+01	  0.056873746	-3.459800E+01
186	  0.057074148	-5.818000E+00	  0.057074148	-1.021510E+02	  0.057074148	2.498100E+01	  0.057074148	-3.386300E+01
187	  0.057274550	-5.820000E+00	  0.057274550	-1.035090E+02	  0.057274550	2.459100E+01	  0.057274550	-3.314800E+01
188	  0.057474948	-5.820000E+00	  0.057474948	-1.048670E+02	  0.057474948	2.421400E+01	  0.057474948	-3.244100E+01
189	  0.057675350	-5.821000E+00	  0.057675350	-1.062200E+02	  0.057675350	2.385400E+01	  0.057675350	-3.174200E+01
190	  0.057875752	-5.822000E+00	  0.057875752	-1.075690E+02	  0.057875752	2.350600E+01	  0.057875752	-3.105200E+01
191	  0.058076151	-5.827000E+00	  0.058076151	-1.089150E+02	  0.058076151	2.318700E+01	  0.058076151	-3.036200E+01
192	  0.058276553	-5.827000E+00	  0.058276553	-1.102070E+02	  0.058276553	2.287300E+01	  0.058276553	-2.971500E+01
193	  0.058476955	-5.826000E+00	  0.058476955	-1.115150E+02	  0.058476955	2.256500E+01	  0.058476955	-2.906700E+01
194	  0.058677353	-5.827000E+00	  0.058677353	-1.128450E+02	  0.058677353	2.227100E+01	  0.058677353	-2.840900E+01
195	  0.058877755	-5.831000E+00	  0.058877755	-1.141280E+02	  0.058877755	2.200300E+01	  0.058877755	-2.777700E+01
196	  0.059078157	-5.828000E+00	  0.059078157	-1.154210E+02	  0.059078157	2.172400E+01	  0.059078157	-2.715400E+01
197	  0.059278559	-5.833000E+00	  0.059278559	-1.167120E+02	  0.059278559	2.147900E+01	  0.059278559	-2.652700E+01
198	  0.059478957	-5.830000E+00	  0.059478957	-1.179750E+02	  0.059478957	2.122200E+01	  0.059478957	-2.592900E+01
199	  0.059679359	-5.830000E+00	  0.059679359	-1.192550E+02	  0.059679359	2.098100E+01	  0.059679359	-2.532300E+01
200	  0.059879761	-5.832000E+00	  0.059879761	-1.205220E+02	  0.059879761	2.075500E+01	  0.059879761	-2.472600E+01
201	  0.060080159	-5.835000E+00	  0.060080159	-1.217390E+02	  0.060080159	2.055000E+01	  0.060080159	-2.415500E+01
202	  0.060280561	-5.835000E+00	  0.060280561	-1.230200E+02	  0.060280561	2.033100E+01	  0.060280561	-2.356300E+01
203	  0.060480963	-5.836000E+00	  0.060480963	-1.242620E+02	  0.060480963	2.013200E+01	  0.060480963	-2.299000E+01
204	  0.060681365	-5.837000E+00	  0.060681365	-1.255050E+02	  0.060681365	1.993800E+01	  0.060681365	-2.242200E+01
205	  0.060881764	-5.838000E+00	  0.060881764	-1.267230E+02	  0.060881764	1.975200E+01	  0.060881764	-2.187000E+01
206	  0.061082166	-5.837000E+00	  0.061082166	-1.279680E+02	  0.061082166	1.956400E+01	  0.061082166	-2.131000E+01
207	  0.061282568	-5.835000E+00	  0.061282568	-1.292000E+02	  0.061282568	1.938200E+01	  0.061282568	-2.076100E+01
208	  0.061482966	-5.833000E+00	  0.061482966	-1.304020E+02	  0.061482966	1.921300E+01	  0.061482966	-2.022700E+01
209	  0.061683368	-5.834000E+00	  0.061683368	-1.316270E+02	  0.061683368	1.905200E+01	  0.061683368	-1.968500E+01
210	  0.061883770	-5.835000E+00	  0.061883770	-1.328250E+02	  0.061883770	1.889900E+01	  0.061883770	-1.915800E+01
211	  0.062084168	-5.832000E+00	  0.062084168	-1.340200E+02	  0.062084168	1.874200E+01	  0.062084168	-1.863900E+01
212	  0.062284570	-5.829000E+00	  0.062284570	-1.352260E+02	  0.062284570	1.859000E+01	  0.062284570	-1.811700E+01
213	  0.062484972	-5.820000E+00	  0.062484972	-1.363590E+02	  0.062484972	1.843400E+01	  0.062484972	-1.763400E+01
214	  0.062685370	-5.817000E+00	  0.062685370	-1.375460E+02	  0.062685370	1.829300E+01	  0.062685370	-1.712600E+01
215	  0.062885776	-5.818000E+00	  0.062885776	-1.387660E+02	  0.062885776	1.816500E+01	  0.062885776	-1.660300E+01
216	  0.063086174	-5.814000E+00	  0.063086174	-1.399200E+02	  0.063086174	1.803400E+01	  0.063086174	-1.611400E+01
217	  0.063286573	-5.810000E+00	  0.063286573	-1.410860E+02	  0.063286573	1.790600E+01	  0.063286573	-1.562300E+01
218	  0.063486971	-5.813000E+00	  0.063486971	-1.422590E+02	  0.063486971	1.780300E+01	  0.063486971	-1.512600E+01
219	  0.063687377	-5.803000E+00	  0.063687377	-1.433970E+02	  0.063687377	1.767100E+01	  0.063687377	-1.465300E+01
220	  0.063887775	-5.800000E+00	  0.063887775	-1.445270E+02	  0.063887775	1.756000E+01	  0.063887775	-1.418300E+01
221	  0.064088173	-5.803000E+00	  0.064088173	-1.456850E+02	  0.064088173	1.747000E+01	  0.064088173	-1.369900E+01
222	  0.064288579	-5.800000E+00	  0.064288579	-1.468560E+02	  0.064288579	1.736700E+01	  0.064288579	-1.321400E+01
223	  0.064488977	-5.799000E+00	  0.064488977	-1.479850E+02	  0.064488977	1.727600E+01	  0.064488977	-1.274800E+01
224	  0.064689375	-5.800000E+00	  0.064689375	-1.491220E+02	  0.064689375	1.719200E+01	  0.064689375	-1.227900E+01
225	  0.064889781	-5.797000E+00	  0.064889781	-1.502470E+02	  0.064889781	1.710300E+01	  0.064889781	-1.181900E+01
226	  0.065090179	-5.794000E+00	  0.065090179	-1.513700E+02	  0.065090179	1.701900E+01	  0.065090179	-1.136100E+01
227	  0.065290578	-5.794000E+00	  0.065290578	-1.524650E+02	  0.065290578	1.694500E+01	  0.065290578	-1.091500E+01
228	  0.065490983	-5.796000E+00	  0.065490983	-1.535930E+02	  0.065490983	1.688000E+01	  0.065490983	-1.045600E+01
229	  0.065691382	-5.794000E+00	  0.065691382	-1.547070E+02	  0.065691382	1.680600E+01	  0.065691382	-1.000500E+01
230	  0.065891780	-5.795000E+00	  0.065891780	-1.558280E+02	  0.065891780	1.674500E+01	  0.065891780	-9.552000E+00
231	  0.066092186	-5.792000E+00	  0.066092186	-1.569180E+02	  0.066092186	1.667800E+01	  0.066092186	-9.114000E+00
232	  0.066292584	-5.794000E+00	  0.066292584	-1.580100E+02	  0.066292584	1.662700E+01	  0.066292584	-8.675000E+00
233	  0.066492982	-5.793000E+00	  0.066492982	-1.591000E+02	  0.066492982	1.657200E+01	  0.066492982	-8.238000E+00
234	  0.066693388	-5.794000E+00	  0.066693388	-1.601870E+02	  0.066693388	1.652300E+01	  0.066693388	-7.803000E+00
235	  0.066893786	-5.797000E+00	  0.066893786	-1.612820E+02	  0.066893786	1.648300E+01	  0.066893786	-7.366000E+00
236	  0.067094192	-5.796000E+00	  0.067094192	-1.623380E+02	  0.067094192	1.643800E+01	  0.067094192	-6.945000E+00
237	  0.067294590	-5.793000E+00	  0.067294590	-1.634150E+02	  0.067294590	1.638900E+01	  0.067294590	-6.518000E+00
238	  0.067494988	-5.801000E+00	  0.067494988	-1.644750E+02	  0.067494988	1.637100E+01	  0.067494988	-6.096000E+00
239	  0.067695394	-5.798000E+00	  0.067695394	-1.655510E+02	  0.067695394	1.632800E+01	  0.067695394	-5.671000E+00
240	  0.067895792	-5.797000E+00	  0.067895792	-1.665930E+02	  0.067895792	1.629200E+01	  0.067895792	-5.260000E+00
241	  0.068096191	-5.803000E+00	  0.068096191	-1.676650E+02	  0.068096191	1.627700E+01	  0.068096191	-4.836000E+00
242	  0.068296596	-5.805000E+00	  0.068296596	-1.687390E+02	  0.068296596	1.625300E+01	  0.068296596	-4.412000E+00
243	  0.068496995	-5.805000E+00	  0.068496995	-1.697730E+02	  0.068496995	1.623000E+01	  0.068496995	-4.005000E+00
244	  0.068697393	-5.806000E+00	  0.068697393	-1.708180E+02	  0.068697393	1.621000E+01	  0.068697393	-3.595000E+00
245	  0.068897791	-5.805000E+00	  0.068897791	-1.718520E+02	  0.068897791	1.618800E+01	  0.068897791	-3.189000E+00
246	  0.069098189	-5.805000E+00	  0.069098189	-1.728690E+02	  0.069098189	1.616900E+01	  0.069098189	-2.790000E+00
247	  0.069298595	-5.805000E+00	  0.069298595	-1.739070E+02	  0.069298595	1.615500E+01	  0.069298595	-2.383000E+00
248	  0.069498993	-5.804000E+00	  0.069498993	-1.749390E+02	  0.069498993	1.613800E+01	  0.069498993	-1.979000E+00
249	  0.069699399	-5.807000E+00	  0.069699399	-1.759860E+02	  0.069699399	1.613800E+01	  0.069699399	-1.569000E+00
250	  0.069899797	-5.808000E+00	  0.069899797	-1.769790E+02	  0.069899797	1.613000E+01	  0.069899797	-1.181000E+00
251	  0.070100196	-5.814000E+00	  0.070100196	-1.779730E+02	  0.070100196	1.614100E+01	  0.070100196	-7.920000E-01
252	  0.070300601	-5.813000E+00	  0.070300601	-1.789900E+02	  0.070300601	1.613600E+01	  0.070300601	-3.940000E-01
253	  0.070501000	-5.815000E+00	  0.070501000	-1.799770E+02	  0.070501000	1.614000E+01	  0.070501000	-8.000000E-03
254	  0.070701398	-5.814000E+00	  0.070701398	1.790430E+02	  0.070701398	1.613700E+01	  0.070701398	3.730000E-01
255	  0.070901804	-5.818000E+00	  0.070901804	1.780650E+02	  0.070901804	1.615200E+01	  0.070901804	7.550000E-01
256	  0.071102202	-5.823000E+00	  0.071102202	1.770640E+02	  0.071102202	1.616900E+01	  0.071102202	1.147000E+00
257	  0.071302600	-5.826000E+00	  0.071302600	1.760450E+02	  0.071302600	1.618400E+01	  0.071302600	1.545000E+00
258	  0.071503006	-5.828000E+00	  0.071503006	1.750760E+02	  0.071503006	1.620000E+01	  0.071503006	1.924000E+00
259	  0.071703404	-5.834000E+00	  0.071703404	1.741300E+02	  0.071703404	1.622700E+01	  0.071703404	2.293000E+00
260	  0.071903802	-5.838000E+00	  0.071903802	1.731730E+02	  0.071903802	1.625000E+01	  0.071903802	2.668000E+00
261	  0.072104208	-5.846000E+00	  0.072104208	1.721630E+02	  0.072104208	1.628600E+01	  0.072104208	3.062000E+00
262	  0.072304606	-5.847000E+00	  0.072304606	1.712030E+02	  0.072304606	1.630700E+01	  0.072304606	3.438000E+00
263	  0.072505005	-5.851000E+00	  0.072505005	1.702690E+02	  0.072505005	1.633900E+01	  0.072505005	3.804000E+00
264	  0.072705410	-5.859000E+00	  0.072705410	1.692980E+02	  0.072705410	1.637900E+01	  0.072705410	4.184000E+00
265	  0.072905809	-5.860000E+00	  0.072905809	1.683210E+02	  0.072905809	1.640800E+01	  0.072905809	4.567000E+00
266	  0.073106214	-5.866000E+00	  0.073106214	1.673600E+02	  0.073106214	1.645000E+01	  0.073106214	4.944000E+00
267	  0.073306613	-5.875000E+00	  0.073306613	1.664250E+02	  0.073306613	1.650100E+01	  0.073306613	5.310000E+00
268	  0.073507011	-5.881000E+00	  0.073507011	1.654650E+02	  0.073507011	1.654700E+01	  0.073507011	5.687000E+00
269	  0.073707417	-5.885000E+00	  0.073707417	1.645090E+02	  0.073707417	1.658900E+01	  0.073707417	6.063000E+00
270	  0.073907815	-5.891000E+00	  0.073907815	1.635680E+02	  0.073907815	1.663800E+01	  0.073907815	6.434000E+00
271	  0.074108213	-5.894000E+00	  0.074108213	1.626500E+02	  0.074108213	1.668200E+01	  0.074108213	6.796000E+00
272	  0.074308619	-5.898000E+00	  0.074308619	1.617220E+02	  0.074308619	1.673000E+01	  0.074308619	7.162000E+00
273	  0.074509017	-5.906000E+00	  0.074509017	1.607860E+02	  0.074509017	1.679100E+01	  0.074509017	7.532000E+00
274	  0.074709415	-5.909000E+00	  0.074709415	1.598690E+02	  0.074709415	1.684000E+01	  0.074709415	7.895000E+00
275	  0.074909821	-5.913000E+00	  0.074909821	1.589430E+02	  0.074909821	1.689400E+01	  0.074909821	8.263000E+00
276	  0.075110219	-5.920000E+00	  0.075110219	1.579940E+02	  0.075110219	1.696000E+01	  0.075110219	8.639000E+00
277	  0.075310618	-5.920000E+00	  0.075310618	1.570950E+02	  0.075310618	1.700800E+01	  0.075310618	8.998000E+00
278	  0.075511023	-5.927000E+00	  0.075511023	1.561930E+02	  0.075511023	1.707600E+01	  0.075511023	9.357000E+00
279	  0.075711422	-5.927000E+00	  0.075711422	1.553090E+02	  0.075711422	1.712500E+01	  0.075711422	9.711000E+00
280	  0.075911827	-5.934000E+00	  0.075911827	1.543990E+02	  0.075911827	1.719800E+01	  0.075911827	1.007400E+01
281	  0.076112226	-5.939000E+00	  0.076112226	1.534920E+02	  0.076112226	1.726900E+01	  0.076112226	1.043700E+01
282	  0.076312624	-5.942000E+00	  0.076312624	1.526450E+02	  0.076312624	1.733000E+01	  0.076312624	1.077800E+01
283	  0.076513030	-5.944000E+00	  0.076513030	1.517220E+02	  0.076513030	1.739700E+01	  0.076513030	1.115100E+01
284	  0.076713428	-5.954000E+00	  0.076713428	1.508200E+02	  0.076713428	1.748500E+01	  0.076713428	1.151200E+01
285	  0.076913826	-5.956000E+00	  0.076913826	1.499420E+02	  0.076913826	1.755400E+01	  0.076913826	1.186800E+01
286	  0.077114232	-5.963000E+00	  0.077114232	1.490850E+02	  0.077114232	1.763600E+01	  0.077114232	1.221400E+01
287	  0.077314630	-5.969000E+00	  0.077314630	1.482280E+02	  0.077314630	1.771700E+01	  0.077314630	1.256200E+01
288	  0.077515028	-5.976000E+00	  0.077515028	1.473830E+02	  0.077515028	1.780300E+01	  0.077515028	1.290400E+01
289	  0.077715434	-5.982000E+00	  0.077715434	1.464940E+02	  0.077715434	1.789300E+01	  0.077715434	1.326500E+01
290	  0.077915832	-5.990000E+00	  0.077915832	1.456190E+02	  0.077915832	1.798700E+01	  0.077915832	1.362200E+01
291	  0.078116231	-5.994000E+00	  0.078116231	1.447580E+02	  0.078116231	1.807200E+01	  0.078116231	1.397500E+01
292	  0.078316636	-6.002000E+00	  0.078316636	1.438790E+02	  0.078316636	1.817300E+01	  0.078316636	1.433400E+01
293	  0.078517035	-6.010000E+00	  0.078517035	1.430140E+02	  0.078517035	1.827500E+01	  0.078517035	1.468800E+01
294	  0.078717433	-6.020000E+00	  0.078717433	1.421370E+02	  0.078717433	1.838600E+01	  0.078717433	1.504700E+01
295	  0.078917839	-6.029000E+00	  0.078917839	1.412930E+02	  0.078917839	1.849400E+01	  0.078917839	1.539300E+01
296	  0.079118237	-6.037000E+00	  0.079118237	1.404440E+02	  0.079118237	1.860000E+01	  0.079118237	1.574400E+01
297	  0.079318643	-6.048000E+00	  0.079318643	1.395830E+02	  0.079318643	1.872000E+01	  0.079318643	1.609700E+01
298	  0.079519041	-6.053000E+00	  0.079519041	1.387180E+02	  0.079519041	1.882800E+01	  0.079519041	1.645800E+01
299	  0.079719439	-6.063000E+00	  0.079719439	1.378590E+02	  0.079719439	1.895000E+01	  0.079719439	1.681300E+01
300	  0.079919845	-6.077000E+00	  0.079919845	1.370070E+02	  0.079919845	1.908300E+01	  0.079919845	1.716400E+01
301	  0.080120243	-6.084000E+00	  0.080120243	1.361120E+02	  0.080120243	1.920900E+01	  0.080120243	1.753900E+01
302	  0.080320641	-6.094000E+00	  0.080320641	1.352560E+02	  0.080320641	1.933800E+01	  0.080320641	1.789600E+01
303	  0.080521047	-6.108000E+00	  0.080521047	1.344180E+02	  0.080521047	1.948000E+01	  0.080521047	1.824300E+01
304	  0.080721445	-6.118000E+00	  0.080721445	1.335420E+02	  0.080721445	1.961700E+01	  0.080721445	1.861100E+01
305	  0.080921844	-6.130000E+00	  0.080921844	1.327100E+02	  0.080921844	1.975900E+01	  0.080921844	1.895800E+01
306	  0.081122249	-6.137000E+00	  0.081122249	1.318580E+02	  0.081122249	1.989300E+01	  0.081122249	1.932000E+01
307	  0.081322648	-6.150000E+00	  0.081322648	1.310000E+02	  0.081322648	2.004700E+01	  0.081322648	1.968000E+01
308	  0.081523046	-6.159000E+00	  0.081523046	1.301440E+02	  0.081523046	2.019200E+01	  0.081523046	2.004300E+01
309	  0.081723452	-6.170000E+00	  0.081723452	1.293110E+02	  0.081723452	2.034300E+01	  0.081723452	2.039600E+01
310	  0.081923850	-6.176000E+00	  0.081923850	1.284560E+02	  0.081923850	2.048500E+01	  0.081923850	2.076400E+01
311	  0.082124248	-6.185000E+00	  0.082124248	1.276150E+02	  0.082124248	2.063800E+01	  0.082124248	2.112400E+01
312	  0.082324654	-6.198000E+00	  0.082324654	1.268040E+02	  0.082324654	2.080100E+01	  0.082324654	2.146900E+01
313	  0.082525052	-6.211000E+00	  0.082525052	1.259790E+02	  0.082525052	2.096700E+01	  0.082525052	2.182000E+01
314	  0.082725458	-6.221000E+00	  0.082725458	1.251600E+02	  0.082725458	2.113000E+01	  0.082725458	2.217300E+01
315	  0.082925856	-6.233000E+00	  0.082925856	1.243390E+02	  0.082925856	2.130200E+01	  0.082925856	2.252500E+01
316	  0.083126254	-6.247000E+00	  0.083126254	1.235220E+02	  0.083126254	2.148000E+01	  0.083126254	2.287400E+01
317	  0.083326660	-6.256000E+00	  0.083326660	1.226890E+02	  0.083326660	2.165300E+01	  0.083326660	2.323700E+01
318	  0.083527058	-6.270000E+00	  0.083527058	1.219260E+02	  0.083527058	2.182800E+01	  0.083527058	2.356300E+01
319	  0.083727457	-6.282000E+00	  0.083727457	1.211170E+02	  0.083727457	2.201100E+01	  0.083727457	2.391400E+01
320	  0.083927862	-6.298000E+00	  0.083927862	1.202940E+02	  0.083927862	2.221400E+01	  0.083927862	2.426600E+01
321	  0.084128261	-6.309000E+00	  0.084128261	1.195010E+02	  0.084128261	2.239600E+01	  0.084128261	2.461200E+01
322	  0.084328659	-6.325000E+00	  0.084328659	1.187280E+02	  0.084328659	2.259400E+01	  0.084328659	2.494400E+01
323	  0.084529065	-6.342000E+00	  0.084529065	1.179480E+02	  0.084529065	2.280300E+01	  0.084529065	2.527700E+01
324	  0.084729463	-6.360000E+00	  0.084729463	1.171370E+02	  0.084729463	2.302000E+01	  0.084729463	2.562400E+01
325	  0.084929854	-6.376000E+00	  0.084929854	1.163400E+02	  0.084929854	2.323500E+01	  0.084929854	2.596800E+01
326	  0.085130259	-6.389000E+00	  0.085130259	1.155300E+02	  0.085130259	2.344800E+01	  0.085130259	2.632300E+01
327	  0.085330658	-6.406000E+00	  0.085330658	1.147370E+02	  0.085330658	2.367100E+01	  0.085330658	2.666500E+01
328	  0.085531056	-6.428000E+00	  0.085531056	1.139540E+02	  0.085531056	2.391400E+01	  0.085531056	2.699500E+01
329	  0.085731462	-6.444000E+00	  0.085731462	1.131450E+02	  0.085731462	2.414600E+01	  0.085731462	2.734700E+01
330	  0.085931860	-6.463000E+00	  0.085931860	1.123600E+02	  0.085931860	2.438800E+01	  0.085931860	2.768300E+01
331	  0.086132258	-6.483000E+00	  0.086132258	1.115740E+02	  0.086132258	2.463800E+01	  0.086132258	2.801800E+01
332	  0.086332664	-6.500000E+00	  0.086332664	1.108190E+02	  0.086332664	2.487400E+01	  0.086332664	2.834500E+01
333	  0.086533062	-6.519000E+00	  0.086533062	1.100200E+02	  0.086533062	2.513100E+01	  0.086533062	2.868800E+01
334	  0.086733460	-6.537000E+00	  0.086733460	1.092100E+02	  0.086733460	2.539200E+01	  0.086733460	2.904000E+01
335	  0.086933866	-6.561000E+00	  0.086933866	1.084410E+02	  0.086933866	2.566800E+01	  0.086933866	2.936000E+01
336	  0.087134264	-6.581000E+00	  0.087134264	1.076510E+02	  0.087134264	2.594000E+01	  0.087134264	2.969800E+01
337	  0.087334670	-6.600000E+00	  0.087334670	1.068570E+02	  0.087334670	2.621500E+01	  0.087334670	3.004100E+01
338	  0.087535068	-6.619000E+00	  0.087535068	1.060860E+02	  0.087535068	2.649100E+01	  0.087535068	3.037100E+01
339	  0.087735467	-6.644000E+00	  0.087735467	1.053110E+02	  0.087735467	2.678600E+01	  0.087735467	3.069300E+01
340	  0.087935872	-6.662000E+00	  0.087935872	1.045230E+02	  0.087935872	2.707400E+01	  0.087935872	3.103300E+01
341	  0.088136271	-6.686000E+00	  0.088136271	1.037530E+02	  0.088136271	2.737700E+01	  0.088136271	3.135300E+01
342	  0.088336669	-6.705000E+00	  0.088336669	1.029740E+02	  0.088336669	2.767200E+01	  0.088336669	3.168700E+01
343	  0.088537075	-6.726000E+00	  0.088537075	1.021810E+02	  0.088537075	2.798500E+01	  0.088537075	3.202300E+01
344	  0.088737473	-6.746000E+00	  0.088737473	1.014400E+02	  0.088737473	2.828300E+01	  0.088737473	3.233600E+01
345	  0.088937871	-6.766000E+00	  0.088937871	1.006470E+02	  0.088937871	2.860100E+01	  0.088937871	3.267400E+01
346	  0.089138277	-6.785000E+00	  0.089138277	9.987300E+01	  0.089138277	2.891400E+01	  0.089138277	3.300600E+01
347	  0.089338675	-6.810000E+00	  0.089338675	9.916200E+01	  0.089338675	2.923500E+01	  0.089338675	3.329100E+01
348	  0.089539073	-6.831000E+00	  0.089539073	9.840000E+01	  0.089539073	2.956300E+01	  0.089539073	3.360900E+01
349	  0.089739479	-6.858000E+00	  0.089739479	9.764900E+01	  0.089739479	2.991200E+01	  0.089739479	3.390900E+01
350	  0.089939877	-6.880000E+00	  0.089939877	9.686600E+01	  0.089939877	3.026100E+01	  0.089939877	3.423400E+01
351	  0.090140276	-6.908000E+00	  0.090140276	9.615200E+01	  0.090140276	3.061100E+01	  0.090140276	3.451000E+01
352	  0.090340681	-6.933000E+00	  0.090340681	9.541500E+01	  0.090340681	3.096400E+01	  0.090340681	3.480300E+01
353	  0.090541080	-6.962000E+00	  0.090541080	9.467600E+01	  0.090541080	3.133600E+01	  0.090541080	3.508500E+01
354	  0.090741485	-6.990000E+00	  0.090741485	9.393500E+01	  0.090741485	3.171500E+01	  0.090741485	3.536700E+01
355	  0.090941884	-7.021000E+00	  0.090941884	9.323800E+01	  0.090941884	3.208800E+01	  0.090941884	3.562000E+01
356	  0.091142282	-7.059000E+00	  0.091142282	9.248300E+01	  0.091142282	3.250900E+01	  0.091142282	3.588100E+01
357	  0.091342688	-7.089000E+00	  0.091342688	9.177900E+01	  0.091342688	3.289400E+01	  0.091342688	3.613400E+01
358	  0.091543086	-7.120000E+00	  0.091543086	9.105200E+01	  0.091543086	3.329500E+01	  0.091543086	3.639400E+01
359	  0.091743484	-7.156000E+00	  0.091743484	9.033100E+01	  0.091743484	3.371600E+01	  0.091743484	3.663300E+01
360	  0.091943890	-7.193000E+00	  0.091943890	8.964100E+01	  0.091943890	3.413000E+01	  0.091943890	3.685300E+01
361	  0.092144288	-7.224000E+00	  0.092144288	8.889000E+01	  0.092144288	3.456200E+01	  0.092144288	3.711200E+01
362	  0.092344686	-7.261000E+00	  0.092344686	8.819600E+01	  0.092344686	3.498800E+01	  0.092344686	3.732700E+01
363	  0.092545092	-7.296000E+00	  0.092545092	8.748300E+01	  0.092545092	3.542400E+01	  0.092545092	3.755200E+01
364	  0.092745490	-7.337000E+00	  0.092745490	8.681100E+01	  0.092745490	3.586300E+01	  0.092745490	3.773600E+01
365	  0.092945889	-7.378000E+00	  0.092945889	8.610300E+01	  0.092945889	3.632300E+01	  0.092945889	3.793300E+01
366	  0.093146294	-7.413000E+00	  0.093146294	8.540900E+01	  0.093146294	3.676700E+01	  0.093146294	3.813500E+01
367	  0.093346693	-7.455000E+00	  0.093346693	8.474500E+01	  0.093346693	3.721800E+01	  0.093346693	3.830200E+01
368	  0.093547091	-7.495000E+00	  0.093547091	8.405900E+01	  0.093547091	3.768200E+01	  0.093547091	3.847500E+01
369	  0.093747497	-7.530000E+00	  0.093747497	8.337400E+01	  0.093747497	3.813500E+01	  0.093747497	3.866200E+01
370	  0.093947895	-7.567000E+00	  0.093947895	8.269200E+01	  0.093947895	3.859500E+01	  0.093947895	3.883800E+01
371	  0.094148301	-7.614000E+00	  0.094148301	8.205500E+01	  0.094148301	3.906700E+01	  0.094148301	3.895200E+01
372	  0.094348699	-7.654000E+00	  0.094348699	8.136500E+01	  0.094348699	3.955000E+01	  0.094348699	3.911000E+01
373	  0.094549097	-7.697000E+00	  0.094549097	8.073300E+01	  0.094549097	4.001500E+01	  0.094549097	3.922700E+01
374	  0.094749503	-7.739000E+00	  0.094749503	8.008700E+01	  0.094749503	4.049000E+01	  0.094749503	3.934500E+01
375	  0.094949901	-7.777000E+00	  0.094949901	7.945000E+01	  0.094949901	4.095300E+01	  0.094949901	3.947000E+01
376	  0.095150299	-7.822000E+00	  0.095150299	7.880700E+01	  0.095150299	4.144000E+01	  0.095150299	3.956700E+01
377	  0.095350705	-7.857000E+00	  0.095350705	7.817800E+01	  0.095350705	4.189500E+01	  0.095350705	3.969200E+01
378	  0.095551103	-7.904000E+00	  0.095551103	7.753800E+01	  0.095551103	4.239400E+01	  0.095551103	3.976800E+01
379	  0.095751502	-7.939000E+00	  0.095751502	7.693500E+01	  0.095751502	4.284400E+01	  0.095751502	3.986800E+01
380	  0.095951907	-7.980000E+00	  0.095951907	7.633000E+01	  0.095951907	4.331100E+01	  0.095951907	3.994500E+01
381	  0.096152306	-8.022000E+00	  0.096152306	7.571800E+01	  0.096152306	4.379100E+01	  0.096152306	4.001000E+01
382	  0.096352704	-8.062000E+00	  0.096352704	7.515600E+01	  0.096352704	4.423500E+01	  0.096352704	4.006100E+01
383	  0.096553110	-8.100000E+00	  0.096553110	7.459600E+01	  0.096553110	4.467800E+01	  0.096553110	4.011100E+01
384	  0.096753508	-8.146000E+00	  0.096753508	7.402500E+01	  0.096753508	4.514800E+01	  0.096753508	4.012900E+01
385	  0.096953906	-8.186000E+00	  0.096953906	7.348100E+01	  0.096953906	4.558700E+01	  0.096953906	4.015900E+01
386	  0.097154312	-8.230000E+00	  0.097154312	7.293800E+01	  0.097154312	4.603900E+01	  0.097154312	4.016100E+01
387	  0.097354710	-8.272000E+00	  0.097354710	7.240900E+01	  0.097354710	4.647800E+01	  0.097354710	4.016200E+01
388	  0.097555116	-8.314000E+00	  0.097555116	7.188800E+01	  0.097555116	4.691000E+01	  0.097555116	4.016000E+01
389	  0.097755514	-8.359000E+00	  0.097755514	7.137200E+01	  0.097755514	4.735000E+01	  0.097755514	4.013400E+01
390	  0.097955912	-8.402000E+00	  0.097955912	7.086900E+01	  0.097955912	4.777800E+01	  0.097955912	4.010400E+01
391	  0.098156318	-8.445000E+00	  0.098156318	7.038900E+01	  0.098156318	4.818900E+01	  0.098156318	4.006700E+01
392	  0.098356716	-8.487000E+00	  0.098356716	6.989100E+01	  0.098356716	4.861100E+01	  0.098356716	4.003200E+01
393	  0.098557115	-8.530000E+00	  0.098557115	6.941500E+01	  0.098557115	4.902100E+01	  0.098557115	3.998000E+01
394	  0.098757520	-8.578000E+00	  0.098757520	6.889200E+01	  0.098757520	4.947100E+01	  0.098757520	3.991700E+01
395	  0.098957919	-8.623000E+00	  0.098957919	6.844700E+01	  0.098957919	4.986400E+01	  0.098957919	3.983600E+01
396	  0.099158317	-8.662000E+00	  0.099158317	6.798900E+01	  0.099158317	5.025200E+01	  0.099158317	3.978600E+01
397	  0.099358723	-8.707000E+00	  0.099358723	6.751300E+01	  0.099358723	5.066600E+01	  0.099358723	3.970400E+01
398	  0.099559121	-8.751000E+00	  0.099559121	6.704100E+01	  0.099559121	5.107300E+01	  0.099559121	3.962200E+01
399	  0.099759519	-8.793000E+00	  0.099759519	6.662900E+01	  0.099759519	5.143400E+01	  0.099759519	3.953000E+01
400	  0.099959925	-8.830000E+00	  0.099959925	6.618800E+01	  0.099959925	5.180800E+01	  0.099959925	3.946200E+01
401	  0.100160323	-8.878000E+00	  0.100160323	6.579200E+01	  0.100160323	5.216500E+01	  0.100160323	3.933100E+01
402	  0.100360721	-8.912000E+00	  0.100360721	6.532400E+01	  0.100360721	5.255300E+01	  0.100360721	3.927400E+01
403	  0.100561127	-8.960000E+00	  0.100561127	6.490800E+01	  0.100561127	5.292300E+01	  0.100561127	3.913700E+01
404	  0.100761525	-8.998000E+00	  0.100761525	6.447500E+01	  0.100761525	5.328900E+01	  0.100761525	3.904700E+01
405	  0.100961931	-9.043000E+00	  0.100961931	6.411600E+01	  0.100961931	5.361100E+01	  0.100961931	3.890300E+01
406	  0.101162329	-9.080000E+00	  0.101162329	6.367200E+01	  0.101162329	5.398200E+01	  0.101162329	3.881400E+01
407	  0.101362728	-9.118000E+00	  0.101362728	6.326900E+01	  0.101362728	5.432400E+01	  0.101362728	3.870300E+01
408	  0.101563133	-9.160000E+00	  0.101563133	6.296600E+01	  0.101563133	5.459600E+01	  0.101563133	3.855600E+01
409	  0.101763532	-9.192000E+00	  0.101763532	6.256100E+01	  0.101763532	5.493100E+01	  0.101763532	3.846900E+01
410	  0.101963930	-9.228000E+00	  0.101963930	6.215700E+01	  0.101963930	5.526800E+01	  0.101963930	3.836000E+01
411	  0.102164328	-9.262000E+00	  0.102164328	6.175400E+01	  0.102164328	5.560200E+01	  0.102164328	3.825700E+01
412	  0.102364726	-9.295000E+00	  0.102364726	6.142100E+01	  0.102364726	5.588200E+01	  0.102364726	3.814600E+01
413	  0.102565125	-9.323000E+00	  0.102565125	6.110800E+01	  0.102565125	5.614200E+01	  0.102565125	3.805100E+01
414	  0.102765530	-9.356000E+00	  0.102765530	6.066900E+01	  0.102765530	5.649900E+01	  0.102765530	3.794700E+01
415	  0.102965929	-9.387000E+00	  0.102965929	6.035400E+01	  0.102965929	5.676000E+01	  0.102965929	3.783500E+01
416	  0.103166327	-9.411000E+00	  0.103166327	6.004600E+01	  0.103166327	5.701100E+01	  0.103166327	3.775200E+01
417	  0.103366733	-9.443000E+00	  0.103366733	5.975200E+01	  0.103366733	5.725600E+01	  0.103366733	3.763000E+01
418	  0.103567131	-9.461000E+00	  0.103567131	5.932300E+01	  0.103567131	5.759200E+01	  0.103567131	3.758400E+01
419	  0.103767529	-9.485000E+00	  0.103767529	5.897300E+01	  0.103767529	5.787300E+01	  0.103767529	3.750000E+01
420	  0.103967935	-9.505000E+00	  0.103967935	5.871300E+01	  0.103967935	5.808300E+01	  0.103967935	3.742400E+01
421	  0.104168333	-9.521000E+00	  0.104168333	5.839800E+01	  0.104168333	5.833100E+01	  0.104168333	3.737400E+01
422	  0.104368731	-9.548000E+00	  0.104368731	5.803800E+01	  0.104368731	5.862000E+01	  0.104368731	3.726900E+01
423	  0.104569137	-9.561000E+00	  0.104569137	5.771600E+01	  0.104569137	5.887200E+01	  0.104569137	3.722600E+01
424	  0.104769535	-9.571000E+00	  0.104769535	5.743700E+01	  0.104769535	5.909100E+01	  0.104769535	3.719600E+01
425	  0.104969934	-9.588000E+00	  0.104969934	5.709900E+01	  0.104969934	5.935800E+01	  0.104969934	3.713100E+01
426	  0.105170339	-9.599000E+00	  0.105170339	5.683000E+01	  0.105170339	5.957000E+01	  0.105170339	3.709100E+01
427	  0.105370738	-9.612000E+00	  0.105370738	5.652700E+01	  0.105370738	5.980800E+01	  0.105370738	3.704100E+01
428	  0.105571143	-9.632000E+00	  0.105571143	5.619100E+01	  0.105571143	6.007400E+01	  0.105571143	3.695700E+01
429	  0.105771542	-9.637000E+00	  0.105771542	5.583700E+01	  0.105771542	6.035100E+01	  0.105771542	3.694600E+01
430	  0.105971940	-9.655000E+00	  0.105971940	5.551200E+01	  0.105971940	6.060800E+01	  0.105971940	3.686200E+01
431	  0.106172346	-9.652000E+00	  0.106172346	5.519600E+01	  0.106172346	6.085500E+01	  0.106172346	3.689100E+01
432	  0.106372744	-9.667000E+00	  0.106372744	5.489900E+01	  0.106372744	6.109100E+01	  0.106372744	3.681800E+01
433	  0.106573142	-9.656000E+00	  0.106573142	5.457300E+01	  0.106573142	6.134600E+01	  0.106573142	3.688400E+01
434	  0.106773548	-9.657000E+00	  0.106773548	5.425600E+01	  0.106773548	6.159700E+01	  0.106773548	3.688200E+01
435	  0.106973946	-9.667000E+00	  0.106973946	5.394400E+01	  0.106973946	6.184500E+01	  0.106973946	3.683100E+01
436	  0.107174344	-9.664000E+00	  0.107174344	5.356200E+01	  0.107174344	6.214900E+01	  0.107174344	3.685000E+01
437	  0.107374750	-9.657000E+00	  0.107374750	5.326300E+01	  0.107374750	6.238900E+01	  0.107374750	3.688400E+01
438	  0.107575148	-9.660000E+00	  0.107575148	5.293500E+01	  0.107575148	6.265300E+01	  0.107575148	3.686400E+01
439	  0.107775547	-9.651000E+00	  0.107775547	5.253800E+01	  0.107775547	6.297500E+01	  0.107775547	3.690800E+01
440	  0.107975952	-9.645000E+00	  0.107975952	5.211400E+01	  0.107975952	6.332100E+01	  0.107975952	3.692900E+01
441	  0.108176351	-9.637000E+00	  0.108176351	5.183000E+01	  0.108176351	6.355400E+01	  0.108176351	3.696700E+01
442	  0.108376749	-9.628000E+00	  0.108376749	5.143200E+01	  0.108376749	6.388400E+01	  0.108376749	3.700200E+01
443	  0.108577155	-9.622000E+00	  0.108577155	5.100000E+01	  0.108577155	6.424300E+01	  0.108577155	3.701600E+01
444	  0.108777553	-9.605000E+00	  0.108777553	5.060600E+01	  0.108777553	6.457700E+01	  0.108777553	3.709300E+01
445	  0.108977959	-9.597000E+00	  0.108977959	5.021700E+01	  0.108977959	6.490600E+01	  0.108977959	3.711500E+01
446	  0.109178357	-9.581000E+00	  0.109178357	4.984700E+01	  0.109178357	6.522500E+01	  0.109178357	3.718000E+01
447	  0.109378755	-9.570000E+00	  0.109378755	4.937600E+01	  0.109378755	6.562900E+01	  0.109378755	3.720800E+01
448	  0.109579161	-9.548000E+00	  0.109579161	4.892200E+01	  0.109579161	6.603000E+01	  0.109579161	3.730000E+01
449	  0.109779559	-9.537000E+00	  0.109779559	4.849800E+01	  0.109779559	6.640200E+01	  0.109779559	3.732500E+01
450	  0.109979957	-9.520000E+00	  0.109979957	4.801400E+01	  0.109979957	6.683300E+01	  0.109979957	3.737300E+01
451	  0.110180363	-9.499000E+00	  0.110180363	4.756600E+01	  0.110180363	6.724000E+01	  0.110180363	3.745300E+01
452	  0.110380761	-9.482000E+00	  0.110380761	4.708100E+01	  0.110380761	6.768000E+01	  0.110380761	3.749300E+01
453	  0.110581160	-9.470000E+00	  0.110581160	4.660600E+01	  0.110581160	6.811200E+01	  0.110581160	3.750900E+01
454	  0.110781565	-9.451000E+00	  0.110781565	4.603600E+01	  0.110781565	6.863900E+01	  0.110781565	3.754500E+01
455	  0.110981964	-9.435000E+00	  0.110981964	4.555100E+01	  0.110981964	6.909300E+01	  0.110981964	3.756800E+01
456	  0.111182362	-9.406000E+00	  0.111182362	4.505300E+01	  0.111182362	6.957600E+01	  0.111182362	3.766400E+01
457	  0.111382768	-9.394000E+00	  0.111382768	4.454100E+01	  0.111382768	7.005900E+01	  0.111382768	3.765300E+01
458	  0.111583166	-9.373000E+00	  0.111583166	4.391500E+01	  0.111583166	7.066200E+01	  0.111583166	3.766400E+01
459	  0.111783572	-9.355000E+00	  0.111783572	4.337100E+01	  0.111783572	7.119300E+01	  0.111783572	3.767200E+01
460	  0.111983970	-9.338000E+00	  0.111983970	4.279100E+01	  0.111983970	7.176100E+01	  0.111983970	3.765600E+01
461	  0.112184368	-9.319000E+00	  0.112184368	4.217100E+01	  0.112184368	7.237700E+01	  0.112184368	3.763700E+01
462	  0.112384774	-9.304000E+00	  0.112384774	4.153600E+01	  0.112384774	7.300600E+01	  0.112384774	3.758300E+01
463	  0.112585172	-9.286000E+00	  0.112585172	4.091700E+01	  0.112585172	7.363200E+01	  0.112585172	3.753900E+01
464	  0.112785570	-9.263000E+00	  0.112785570	4.024300E+01	  0.112785570	7.432600E+01	  0.112785570	3.749700E+01
465	  0.112985976	-9.248000E+00	  0.112985976	3.961600E+01	  0.112985976	7.496700E+01	  0.112985976	3.741400E+01
466	  0.113186374	-9.225000E+00	  0.113186374	3.895200E+01	  0.113186374	7.566600E+01	  0.113186374	3.735300E+01
467	  0.113386773	-9.213000E+00	  0.113386773	3.828000E+01	  0.113386773	7.635700E+01	  0.113386773	3.721300E+01
468	  0.113587178	-9.198000E+00	  0.113587178	3.757100E+01	  0.113587178	7.709700E+01	  0.113587178	3.706200E+01
469	  0.113787577	-9.182000E+00	  0.113787577	3.682100E+01	  0.113787577	7.788700E+01	  0.113787577	3.689000E+01
470	  0.113987975	-9.165000E+00	  0.113987975	3.608100E+01	  0.113987975	7.867600E+01	  0.113987975	3.671000E+01
471	  0.114188381	-9.147000E+00	  0.114188381	3.533200E+01	  0.114188381	7.948200E+01	  0.114188381	3.651300E+01
472	  0.114388779	-9.138000E+00	  0.114388779	3.456300E+01	  0.114388779	8.029000E+01	  0.114388779	3.623100E+01
473	  0.114589177	-9.128000E+00	  0.114589177	3.372700E+01	  0.114589177	8.117000E+01	  0.114589177	3.590000E+01
474	  0.114789583	-9.109000E+00	  0.114789583	3.295100E+01	  0.114789583	8.202300E+01	  0.114789583	3.563500E+01
475	  0.114989981	-9.102000E+00	  0.114989981	3.216100E+01	  0.114989981	8.285400E+01	  0.114989981	3.526600E+01
476	  0.115190387	-9.093000E+00	  0.115190387	3.127400E+01	  0.115190387	8.379200E+01	  0.115190387	3.483100E+01
477	  0.115390785	-9.083000E+00	  0.115390785	3.042800E+01	  0.115390785	8.469300E+01	  0.115390785	3.439600E+01
478	  0.115591183	-9.073000E+00	  0.115591183	2.956700E+01	  0.115591183	8.560900E+01	  0.115591183	3.392500E+01
479	  0.115791589	-9.064000E+00	  0.115791589	2.866600E+01	  0.115791589	8.655600E+01	  0.115791589	3.338500E+01
480	  0.115991987	-9.068000E+00	  0.115991987	2.778800E+01	  0.115991987	8.741900E+01	  0.115991987	3.275100E+01
481	  0.116192386	-9.063000E+00	  0.116192386	2.689700E+01	  0.116192386	8.833400E+01	  0.116192386	3.214100E+01
482	  0.116392791	-9.057000E+00	  0.116392791	2.595800E+01	  0.116392791	8.929000E+01	  0.116392791	3.146200E+01
483	  0.116593190	-9.064000E+00	  0.116593190	2.502400E+01	  0.116593190	9.016000E+01	  0.116593190	3.066700E+01
484	  0.116793588	-9.066000E+00	  0.116793588	2.406100E+01	  0.116793588	9.107200E+01	  0.116793588	2.985100E+01
485	  0.116993994	-9.068000E+00	  0.116993994	2.303300E+01	  0.116993994	9.202700E+01	  0.116993994	2.893900E+01
486	  0.117194392	-9.083000E+00	  0.117194392	2.205000E+01	  0.117194392	9.283500E+01	  0.117194392	2.794600E+01
487	  0.117394790	-9.082000E+00	  0.117394790	2.100800E+01	  0.117394790	9.377500E+01	  0.117394790	2.696200E+01
488	  0.117595196	-9.098000E+00	  0.117595196	2.000000E+01	  0.117595196	9.454300E+01	  0.117595196	2.587000E+01
489	  0.117795594	-9.108000E+00	  0.117795594	1.893300E+01	  0.117795594	9.537000E+01	  0.117795594	2.472100E+01
490	  0.117995992	-9.129000E+00	  0.117995992	1.790300E+01	  0.117995992	9.605500E+01	  0.117995992	2.351800E+01
491	  0.118196398	-9.145000E+00	  0.118196398	1.678000E+01	  0.118196398	9.680100E+01	  0.118196398	2.220500E+01
492	  0.118396796	-9.170000E+00	  0.118396796	1.569200E+01	  0.118396796	9.741200E+01	  0.118396796	2.085700E+01
493	  0.118597202	-9.191000E+00	  0.118597202	1.453100E+01	  0.118597202	9.804900E+01	  0.118597202	1.941500E+01
494	  0.118797600	-9.224000E+00	  0.118797600	1.336100E+01	  0.118797600	9.854300E+01	  0.118797600	1.788600E+01
