! Anritsu VNA Master:             	Model: MS2036C/10/77
! SN:             	1601066
! /bd0/18may09/254.ew.m10.txt
! Existing Calibration Information:
! TYPE:             	Current Settings	Active Cal Settings
! TIME:             	05/09/2018 12:03:51 PM	05/09/2018 11:52:33 AM
! INTERNAL TEMP:    	54.5 C	53.5 C
! # POINTS:         	494	494
! START FREQ:       	20.000 MHz	20.000 MHz
! STOP FREQ:        	118.797 594 MHz	118.797 594 MHz
! SOURCE POWER:     	High	High
! IFBW:             	50 Hz	50 Hz
! AVG FACTOR:       	  1 	  1 
! REF PLANE 1:      	0 mm	0 mm
! REF PLANE 2:      	0 mm	0 mm
! CAL TYPE:         	Full S22	Full S22
! CAL METHOD:       	SOLT	SOLT
! CAL LINE TYPE:    	Coax	Coax
! DUT PORT 1:       	K-Conn(M)	K-Conn(M)
! DUT PORT 2:       	K-Conn(M)	K-Conn(M)
! CAL STATUS:       	OK: Accuracy High	--
! PROP-V:       	0.700
! CABLE LOSS:       	0.000 dB/m
! REF IMPEDANCE:       	50.0
! Trace Specific Parameters:	TR1	TR2	TR3	TR4
! TRACE.#.Y (GRAPH TYPE)	LOG MAG	PHASE	REAL IMPEDANCE	IMAGINARY IMPEDANCE
! TRACE.#.X 	FREQ.GHZ	FREQ.GHZ	FREQ.GHZ	FREQ.GHZ
! S-PARAMETER	S22	S22	S22	S22
! SMOOTH/APERTURE %	0	0	0	0
! WINDOW	NSL	NSL	NSL	NSL
! GATING	OFF	OFF	OFF	OFF
! FGTD	OFF	OFF	OFF	OFF
Marker Information per Trace:	TR1	TR2	TR3	TR4
!MK1	--	"MK1 TR2:  20.000 MHz,PH:-126.61°"	--	--
!MK2	--	--	"MK2 TR3:  70.100 200 MHz,Z:(16.143 ohm, -1.048 ohm)"	--
!MK3	--	--	--	--
!MK4	--	--	--	--
!MK5	--	--	--	--
!MK6	--	--	--	--
!MK7	--	--	--	--
!MK8	--	--	--	--
PNT	TR1.FREQ.GHZ	TR1.LOG MAG.dB	TR2.FREQ.GHZ	TR2.PHASE.deg	TR3.FREQ.GHZ	TR3.REAL IMPEDANCE.ohm	TR4.FREQ.GHZ	TR4.IMAGINARY IMPEDANCE.ohm
1	  0.020000000	-6.400000E-01	  0.020000000	-1.266140E+02	  0.020000000	2.307000E+00	  0.020000000	-2.509600E+01
2	  0.020200402	-6.400000E-01	  0.020200402	-1.280870E+02	  0.020200402	2.278000E+00	  0.020200402	-2.429800E+01
3	  0.020400802	-6.450000E-01	  0.020400802	-1.295580E+02	  0.020400802	2.267000E+00	  0.020400802	-2.351000E+01
4	  0.020601204	-6.470000E-01	  0.020601204	-1.310620E+02	  0.020601204	2.246000E+00	  0.020601204	-2.271500E+01
5	  0.020801604	-6.500000E-01	  0.020801604	-1.325930E+02	  0.020801604	2.230000E+00	  0.020801604	-2.191500E+01
6	  0.021002004	-6.500000E-01	  0.021002004	-1.341430E+02	  0.021002004	2.205000E+00	  0.021002004	-2.111500E+01
7	  0.021202406	-6.530000E-01	  0.021202406	-1.356880E+02	  0.021202406	2.190000E+00	  0.021202406	-2.032500E+01
8	  0.021402806	-6.580000E-01	  0.021402806	-1.372290E+02	  0.021402806	2.185000E+00	  0.021402806	-1.954700E+01
9	  0.021603208	-6.590000E-01	  0.021603208	-1.387600E+02	  0.021603208	2.163000E+00	  0.021603208	-1.878200E+01
10	  0.021803608	-6.620000E-01	  0.021803608	-1.403030E+02	  0.021803608	2.153000E+00	  0.021803608	-1.801900E+01
11	  0.022004008	-6.680000E-01	  0.022004008	-1.418520E+02	  0.022004008	2.151000E+00	  0.022004008	-1.725900E+01
12	  0.022204408	-6.710000E-01	  0.022204408	-1.434230E+02	  0.022204408	2.141000E+00	  0.022204408	-1.649700E+01
13	  0.022404809	-6.780000E-01	  0.022404809	-1.450030E+02	  0.022404809	2.144000E+00	  0.022404809	-1.573700E+01
14	  0.022605211	-6.830000E-01	  0.022605211	-1.465870E+02	  0.022605211	2.141000E+00	  0.022605211	-1.498100E+01
15	  0.022805611	-6.830000E-01	  0.022805611	-1.481840E+02	  0.022805611	2.125000E+00	  0.022805611	-1.422600E+01
16	  0.023006011	-6.860000E-01	  0.023006011	-1.497690E+02	  0.023006011	2.120000E+00	  0.023006011	-1.348200E+01
17	  0.023206413	-6.890000E-01	  0.023206413	-1.513530E+02	  0.023206413	2.113000E+00	  0.023206413	-1.274500E+01
18	  0.023406813	-6.960000E-01	  0.023406813	-1.529360E+02	  0.023406813	2.118000E+00	  0.023406813	-1.201200E+01
19	  0.023607215	-7.030000E-01	  0.023607215	-1.545090E+02	  0.023607215	2.126000E+00	  0.023607215	-1.129000E+01
20	  0.023807615	-7.110000E-01	  0.023807615	-1.561060E+02	  0.023807615	2.139000E+00	  0.023807615	-1.056000E+01
21	  0.024008015	-7.170000E-01	  0.024008015	-1.577360E+02	  0.024008015	2.144000E+00	  0.024008015	-9.821000E+00
22	  0.024208417	-7.230000E-01	  0.024208417	-1.593750E+02	  0.024208417	2.150000E+00	  0.024208417	-9.081000E+00
23	  0.024408817	-7.300000E-01	  0.024408817	-1.610310E+02	  0.024408817	2.160000E+00	  0.024408817	-8.337000E+00
24	  0.024609219	-7.360000E-01	  0.024609219	-1.626720E+02	  0.024609219	2.166000E+00	  0.024609219	-7.604000E+00
25	  0.024809619	-7.450000E-01	  0.024809619	-1.643220E+02	  0.024809619	2.183000E+00	  0.024809619	-6.870000E+00
26	  0.025010020	-7.540000E-01	  0.025010020	-1.659840E+02	  0.025010020	2.201000E+00	  0.025010020	-6.134000E+00
27	  0.025210422	-7.640000E-01	  0.025210422	-1.676610E+02	  0.025210422	2.225000E+00	  0.025210422	-5.394000E+00
28	  0.025410822	-7.740000E-01	  0.025410822	-1.693500E+02	  0.025410822	2.246000E+00	  0.025410822	-4.650000E+00
29	  0.025611224	-7.850000E-01	  0.025611224	-1.710490E+02	  0.025611224	2.273000E+00	  0.025611224	-3.905000E+00
30	  0.025811624	-7.960000E-01	  0.025811624	-1.727600E+02	  0.025811624	2.301000E+00	  0.025811624	-3.156000E+00
31	  0.026012026	-8.070000E-01	  0.026012026	-1.744950E+02	  0.026012026	2.328000E+00	  0.026012026	-2.398000E+00
32	  0.026212426	-8.180000E-01	  0.026212426	-1.762330E+02	  0.026212426	2.357000E+00	  0.026212426	-1.640000E+00
33	  0.026412826	-8.320000E-01	  0.026412826	-1.779890E+02	  0.026412826	2.396000E+00	  0.026412826	-8.750000E-01
34	  0.026613226	-8.470000E-01	  0.026613226	-1.797460E+02	  0.026613226	2.437000E+00	  0.026613226	-1.100000E-01
35	  0.026813626	-8.630000E-01	  0.026813626	1.784740E+02	  0.026813626	2.483000E+00	  0.026813626	6.640000E-01
36	  0.027014028	-8.770000E-01	  0.027014028	1.766950E+02	  0.027014028	2.524000E+00	  0.027014028	1.438000E+00
37	  0.027214428	-8.920000E-01	  0.027214428	1.749130E+02	  0.027214428	2.572000E+00	  0.027214428	2.215000E+00
38	  0.027414829	-9.090000E-01	  0.027414829	1.731110E+02	  0.027414829	2.623000E+00	  0.027414829	3.001000E+00
39	  0.027615231	-9.260000E-01	  0.027615231	1.712950E+02	  0.027615231	2.678000E+00	  0.027615231	3.794000E+00
40	  0.027815631	-9.410000E-01	  0.027815631	1.694810E+02	  0.027815631	2.731000E+00	  0.027815631	4.588000E+00
41	  0.028016033	-9.590000E-01	  0.028016033	1.676460E+02	  0.028016033	2.791000E+00	  0.028016033	5.394000E+00
42	  0.028216433	-9.790000E-01	  0.028216433	1.658020E+02	  0.028216433	2.860000E+00	  0.028216433	6.206000E+00
43	  0.028416833	-9.970000E-01	  0.028416833	1.639580E+02	  0.028416833	2.924000E+00	  0.028416833	7.021000E+00
44	  0.028617235	-1.017000E+00	  0.028617235	1.621140E+02	  0.028617235	2.996000E+00	  0.028617235	7.840000E+00
45	  0.028817635	-1.036000E+00	  0.028817635	1.602670E+02	  0.028817635	3.069000E+00	  0.028817635	8.664000E+00
46	  0.029018037	-1.057000E+00	  0.029018037	1.584240E+02	  0.029018037	3.150000E+00	  0.029018037	9.490000E+00
47	  0.029218437	-1.079000E+00	  0.029218437	1.565580E+02	  0.029218437	3.235000E+00	  0.029218437	1.033100E+01
48	  0.029418837	-1.104000E+00	  0.029418837	1.546760E+02	  0.029418837	3.332000E+00	  0.029418837	1.118500E+01
49	  0.029619239	-1.125000E+00	  0.029619239	1.528040E+02	  0.029619239	3.424000E+00	  0.029619239	1.204000E+01
50	  0.029819639	-1.150000E+00	  0.029819639	1.509150E+02	  0.029819639	3.526000E+00	  0.029819639	1.290900E+01
51	  0.030020041	-1.175000E+00	  0.030020041	1.490270E+02	  0.030020041	3.635000E+00	  0.030020041	1.378500E+01
52	  0.030220442	-1.200000E+00	  0.030220442	1.471340E+02	  0.030220442	3.747000E+00	  0.030220442	1.467000E+01
53	  0.030420844	-1.226000E+00	  0.030420844	1.452500E+02	  0.030420844	3.867000E+00	  0.030420844	1.555900E+01
54	  0.030621244	-1.254000E+00	  0.030621244	1.433530E+02	  0.030621244	3.996000E+00	  0.030621244	1.646300E+01
55	  0.030821642	-1.284000E+00	  0.030821642	1.414520E+02	  0.030821642	4.139000E+00	  0.030821642	1.737700E+01
56	  0.031022044	-1.313000E+00	  0.031022044	1.395260E+02	  0.031022044	4.283000E+00	  0.031022044	1.831300E+01
57	  0.031222444	-1.338000E+00	  0.031222444	1.376090E+02	  0.031222444	4.419000E+00	  0.031222444	1.925600E+01
58	  0.031422846	-1.372000E+00	  0.031422846	1.356470E+02	  0.031422846	4.591000E+00	  0.031422846	2.023200E+01
59	  0.031623244	-1.404000E+00	  0.031623244	1.336820E+02	  0.031623244	4.765000E+00	  0.031623244	2.122200E+01
60	  0.031823646	-1.438000E+00	  0.031823646	1.317110E+02	  0.031823646	4.953000E+00	  0.031823646	2.222800E+01
61	  0.032024048	-1.474000E+00	  0.032024048	1.297280E+02	  0.032024048	5.156000E+00	  0.032024048	2.325400E+01
62	  0.032224450	-1.508000E+00	  0.032224450	1.277490E+02	  0.032224450	5.364000E+00	  0.032224450	2.429400E+01
63	  0.032424849	-1.546000E+00	  0.032424849	1.257550E+02	  0.032424849	5.593000E+00	  0.032424849	2.535600E+01
64	  0.032625251	-1.583000E+00	  0.032625251	1.237350E+02	  0.032625251	5.829000E+00	  0.032625251	2.645000E+01
65	  0.032825653	-1.620000E+00	  0.032825653	1.217010E+02	  0.032825653	6.081000E+00	  0.032825653	2.757000E+01
66	  0.033026051	-1.656000E+00	  0.033026051	1.196540E+02	  0.033026051	6.341000E+00	  0.033026051	2.871800E+01
67	  0.033226453	-1.696000E+00	  0.033226453	1.176180E+02	  0.033226453	6.626000E+00	  0.033226453	2.987900E+01
68	  0.033426855	-1.732000E+00	  0.033426855	1.155790E+02	  0.033426855	6.915000E+00	  0.033426855	3.106600E+01
69	  0.033627257	-1.772000E+00	  0.033627257	1.135220E+02	  0.033627257	7.233000E+00	  0.033627257	3.228500E+01
70	  0.033827655	-1.812000E+00	  0.033827655	1.114770E+02	  0.033827655	7.572000E+00	  0.033827655	3.352200E+01
71	  0.034028057	-1.851000E+00	  0.034028057	1.094110E+02	  0.034028057	7.925000E+00	  0.034028057	3.479800E+01
72	  0.034228459	-1.893000E+00	  0.034228459	1.073480E+02	  0.034228459	8.309000E+00	  0.034228459	3.610000E+01
73	  0.034428857	-1.936000E+00	  0.034428857	1.052640E+02	  0.034428857	8.722000E+00	  0.034428857	3.744300E+01
74	  0.034629259	-1.977000E+00	  0.034629259	1.031810E+02	  0.034629259	9.157000E+00	  0.034629259	3.881900E+01
75	  0.034829661	-2.020000E+00	  0.034829661	1.011050E+02	  0.034829661	9.620000E+00	  0.034829661	4.022300E+01
76	  0.035030060	-2.064000E+00	  0.035030060	9.904800E+01	  0.035030060	1.012000E+01	  0.035030060	4.164500E+01
77	  0.035230462	-2.109000E+00	  0.035230462	9.696400E+01	  0.035230462	1.065400E+01	  0.035230462	4.312300E+01
78	  0.035430863	-2.156000E+00	  0.035430863	9.488600E+01	  0.035430863	1.123800E+01	  0.035430863	4.463300E+01
79	  0.035631265	-2.202000E+00	  0.035631265	9.280100E+01	  0.035631265	1.185400E+01	  0.035631265	4.618900E+01
80	  0.035831664	-2.253000E+00	  0.035831664	9.074700E+01	  0.035831664	1.252800E+01	  0.035831664	4.775700E+01
81	  0.036032066	-2.299000E+00	  0.036032066	8.865400E+01	  0.036032066	1.323600E+01	  0.036032066	4.940500E+01
82	  0.036232468	-2.348000E+00	  0.036232468	8.655700E+01	  0.036232468	1.400800E+01	  0.036232468	5.109900E+01
83	  0.036432866	-2.397000E+00	  0.036432866	8.447400E+01	  0.036432866	1.483800E+01	  0.036432866	5.282900E+01
84	  0.036633268	-2.449000E+00	  0.036633268	8.239900E+01	  0.036633268	1.573900E+01	  0.036633268	5.459600E+01
85	  0.036833670	-2.501000E+00	  0.036833670	8.032900E+01	  0.036833670	1.670700E+01	  0.036833670	5.641000E+01
86	  0.037034072	-2.554000E+00	  0.037034072	7.824100E+01	  0.037034072	1.776600E+01	  0.037034072	5.828900E+01
87	  0.037234470	-2.608000E+00	  0.037234470	7.616200E+01	  0.037234470	1.890500E+01	  0.037234470	6.021400E+01
88	  0.037434869	-2.662000E+00	  0.037434869	7.409000E+01	  0.037434869	2.013400E+01	  0.037434869	6.218600E+01
89	  0.037635271	-2.714000E+00	  0.037635271	7.202600E+01	  0.037635271	2.144500E+01	  0.037635271	6.421200E+01
90	  0.037835669	-2.769000E+00	  0.037835669	6.990400E+01	  0.037835669	2.291400E+01	  0.037835669	6.635100E+01
91	  0.038036071	-2.826000E+00	  0.038036071	6.779400E+01	  0.038036071	2.451100E+01	  0.038036071	6.853200E+01
92	  0.038236473	-2.883000E+00	  0.038236473	6.567400E+01	  0.038236473	2.626100E+01	  0.038236473	7.078100E+01
93	  0.038436871	-2.941000E+00	  0.038436871	6.356200E+01	  0.038436871	2.817100E+01	  0.038436871	7.307300E+01
94	  0.038637273	-3.000000E+00	  0.038637273	6.145400E+01	  0.038637273	3.024900E+01	  0.038637273	7.541500E+01
95	  0.038837675	-3.054000E+00	  0.038837675	5.934200E+01	  0.038837675	3.248400E+01	  0.038837675	7.783700E+01
96	  0.039038073	-3.107000E+00	  0.039038073	5.724900E+01	  0.039038073	3.488800E+01	  0.039038073	8.029800E+01
97	  0.039238475	-3.162000E+00	  0.039238475	5.514400E+01	  0.039238475	3.755500E+01	  0.039238475	8.280400E+01
98	  0.039438877	-3.216000E+00	  0.039438877	5.305500E+01	  0.039438877	4.044800E+01	  0.039438877	8.532900E+01
99	  0.039639279	-3.271000E+00	  0.039639279	5.094300E+01	  0.039639279	4.365100E+01	  0.039639279	8.790600E+01
100	  0.039839678	-3.324000E+00	  0.039839678	4.883200E+01	  0.039839678	4.715100E+01	  0.039839678	9.050000E+01
101	  0.040040080	-3.376000E+00	  0.040040080	4.671600E+01	  0.040040080	5.098400E+01	  0.040040080	9.311200E+01
102	  0.040240481	-3.428000E+00	  0.040240481	4.460200E+01	  0.040240481	5.519800E+01	  0.040240481	9.568200E+01
103	  0.040440880	-3.478000E+00	  0.040440880	4.251300E+01	  0.040440880	5.975300E+01	  0.040440880	9.817400E+01
104	  0.040641282	-3.529000E+00	  0.040641282	4.042700E+01	  0.040641282	6.474900E+01	  0.040641282	1.005530E+02
105	  0.040841684	-3.579000E+00	  0.040841684	3.836000E+01	  0.040841684	7.017900E+01	  0.040841684	1.027470E+02
106	  0.041042086	-3.632000E+00	  0.041042086	3.629700E+01	  0.041042086	7.611900E+01	  0.041042086	1.046750E+02
107	  0.041242484	-3.684000E+00	  0.041242484	3.423700E+01	  0.041242484	8.257400E+01	  0.041242484	1.063170E+02
108	  0.041442886	-3.734000E+00	  0.041442886	3.217100E+01	  0.041442886	8.959700E+01	  0.041442886	1.076030E+02
109	  0.041643288	-3.784000E+00	  0.041643288	3.010600E+01	  0.041643288	9.718000E+01	  0.041643288	1.084080E+02
110	  0.041843686	-3.832000E+00	  0.041843686	2.803900E+01	  0.041843686	1.053350E+02	  0.041843686	1.086540E+02
111	  0.042044088	-3.881000E+00	  0.042044088	2.598700E+01	  0.042044088	1.139770E+02	  0.042044088	1.081160E+02
112	  0.042244490	-3.929000E+00	  0.042244490	2.396100E+01	  0.042244490	1.229810E+02	  0.042244490	1.067360E+02
113	  0.042444889	-3.981000E+00	  0.042444889	2.193600E+01	  0.042444889	1.323410E+02	  0.042444889	1.041790E+02
114	  0.042645290	-4.031000E+00	  0.042645290	1.990800E+01	  0.042645290	1.419440E+02	  0.042645290	1.004890E+02
115	  0.042845692	-4.081000E+00	  0.042845692	1.791300E+01	  0.042845692	1.514240E+02	  0.042845692	9.555100E+01
116	  0.043046094	-4.130000E+00	  0.043046094	1.589900E+01	  0.043046094	1.608390E+02	  0.043046094	8.926600E+01
117	  0.043246493	-4.182000E+00	  0.043246493	1.387000E+01	  0.043246493	1.697920E+02	  0.043246493	8.136000E+01
118	  0.043446895	-4.228000E+00	  0.043446895	1.187100E+01	  0.043446895	1.779580E+02	  0.043446895	7.231100E+01
119	  0.043647297	-4.276000E+00	  0.043647297	9.869000E+00	  0.043647297	1.850600E+02	  0.043647297	6.190000E+01
120	  0.043847695	-4.322000E+00	  0.043847695	7.897000E+00	  0.043847695	1.907590E+02	  0.043847695	5.055200E+01
121	  0.044048097	-4.372000E+00	  0.044048097	5.914000E+00	  0.044048097	1.948090E+02	  0.044048097	3.824000E+01
122	  0.044248499	-4.420000E+00	  0.044248499	3.932000E+00	  0.044248499	1.971980E+02	  0.044248499	2.546000E+01
123	  0.044448901	-4.468000E+00	  0.044448901	1.977000E+00	  0.044448901	1.977640E+02	  0.044448901	1.269800E+01
124	  0.044649299	-4.514000E+00	  0.044649299	2.000000E-02	  0.044649299	1.967030E+02	  0.044649299	1.320000E-01
125	  0.044849701	-4.561000E+00	  0.044849701	-1.925000E+00	  0.044849701	1.939870E+02	  0.044849701	-1.186000E+01
126	  0.045050103	-4.604000E+00	  0.045050103	-3.872000E+00	  0.045050103	1.900310E+02	  0.045050103	-2.311100E+01
127	  0.045250501	-4.645000E+00	  0.045250501	-5.833000E+00	  0.045250501	1.848820E+02	  0.045250501	-3.351700E+01
128	  0.045450903	-4.685000E+00	  0.045450903	-7.772000E+00	  0.045450903	1.788270E+02	  0.045450903	-4.273200E+01
129	  0.045651305	-4.725000E+00	  0.045651305	-9.698000E+00	  0.045651305	1.720900E+02	  0.045651305	-5.074400E+01
130	  0.045851704	-4.768000E+00	  0.045851704	-1.161000E+01	  0.045851704	1.648710E+02	  0.045851704	-5.750700E+01
131	  0.046052102	-4.807000E+00	  0.046052102	-1.350400E+01	  0.046052102	1.575430E+02	  0.046052102	-6.319600E+01
132	  0.046252504	-4.846000E+00	  0.046252504	-1.537800E+01	  0.046252504	1.501860E+02	  0.046252504	-6.780700E+01
133	  0.046452906	-4.884000E+00	  0.046452906	-1.723800E+01	  0.046452906	1.429300E+02	  0.046452906	-7.148700E+01
134	  0.046653304	-4.921000E+00	  0.046653304	-1.910000E+01	  0.046653304	1.358220E+02	  0.046653304	-7.438800E+01
135	  0.046853706	-4.958000E+00	  0.046853706	-2.096500E+01	  0.046853706	1.289270E+02	  0.046853706	-7.658800E+01
136	  0.047054108	-4.992000E+00	  0.047054108	-2.280000E+01	  0.047054108	1.224050E+02	  0.047054108	-7.814900E+01
137	  0.047254506	-5.025000E+00	  0.047254506	-2.464700E+01	  0.047254506	1.161450E+02	  0.047254506	-7.921900E+01
138	  0.047454908	-5.055000E+00	  0.047454908	-2.647400E+01	  0.047454908	1.102630E+02	  0.047454908	-7.986800E+01
139	  0.047655310	-5.088000E+00	  0.047655310	-2.828000E+01	  0.047655310	1.047440E+02	  0.047655310	-8.006000E+01
140	  0.047855709	-5.119000E+00	  0.047855709	-3.006700E+01	  0.047855709	9.958900E+01	  0.047855709	-7.994500E+01
141	  0.048056111	-5.153000E+00	  0.048056111	-3.183200E+01	  0.048056111	9.479300E+01	  0.048056111	-7.952100E+01
142	  0.048256513	-5.183000E+00	  0.048256513	-3.359500E+01	  0.048256513	9.028700E+01	  0.048256513	-7.894700E+01
143	  0.048456915	-5.217000E+00	  0.048456915	-3.535200E+01	  0.048456915	8.607400E+01	  0.048456915	-7.813100E+01
144	  0.048657313	-5.245000E+00	  0.048657313	-3.710800E+01	  0.048657313	8.211800E+01	  0.048657313	-7.725500E+01
145	  0.048857715	-5.273000E+00	  0.048857715	-3.885300E+01	  0.048857715	7.842600E+01	  0.048857715	-7.626900E+01
146	  0.049058117	-5.300000E+00	  0.049058117	-4.061000E+01	  0.049058117	7.493900E+01	  0.049058117	-7.518500E+01
147	  0.049258515	-5.326000E+00	  0.049258515	-4.232200E+01	  0.049258515	7.175000E+01	  0.049258515	-7.404800E+01
148	  0.049458917	-5.352000E+00	  0.049458917	-4.402400E+01	  0.049458917	6.877200E+01	  0.049458917	-7.286400E+01
149	  0.049659319	-5.383000E+00	  0.049659319	-4.572300E+01	  0.049659319	6.600100E+01	  0.049659319	-7.157100E+01
150	  0.049859721	-5.410000E+00	  0.049859721	-4.742500E+01	  0.049859721	6.337700E+01	  0.049859721	-7.029400E+01
151	  0.050060119	-5.434000E+00	  0.050060119	-4.909300E+01	  0.050060119	6.095300E+01	  0.050060119	-6.903700E+01
152	  0.050260521	-5.459000E+00	  0.050260521	-5.079600E+01	  0.050260521	5.862600E+01	  0.050260521	-6.773400E+01
153	  0.050460923	-5.481000E+00	  0.050460923	-5.248300E+01	  0.050460923	5.644600E+01	  0.050460923	-6.645200E+01
154	  0.050661322	-5.501000E+00	  0.050661322	-5.414200E+01	  0.050661322	5.442100E+01	  0.050661322	-6.519400E+01
155	  0.050861724	-5.522000E+00	  0.050861724	-5.580800E+01	  0.050861724	5.250600E+01	  0.050861724	-6.391900E+01
156	  0.051062126	-5.541000E+00	  0.051062126	-5.747500E+01	  0.051062126	5.069000E+01	  0.051062126	-6.265700E+01
157	  0.051262524	-5.564000E+00	  0.051262524	-5.907700E+01	  0.051262524	4.906100E+01	  0.051262524	-6.141500E+01
158	  0.051462926	-5.584000E+00	  0.051462926	-6.068900E+01	  0.051462926	4.750000E+01	  0.051462926	-6.019100E+01
159	  0.051663328	-5.599000E+00	  0.051663328	-6.231500E+01	  0.051663328	4.598500E+01	  0.051663328	-5.899800E+01
160	  0.051863730	-5.617000E+00	  0.051863730	-6.388800E+01	  0.051863730	4.461200E+01	  0.051863730	-5.782900E+01
161	  0.052064128	-5.631000E+00	  0.052064128	-6.549100E+01	  0.052064128	4.326700E+01	  0.052064128	-5.667000E+01
162	  0.052264530	-5.640000E+00	  0.052264530	-6.706300E+01	  0.052264530	4.199400E+01	  0.052264530	-5.556900E+01
163	  0.052464932	-5.651000E+00	  0.052464932	-6.859700E+01	  0.052464932	4.082300E+01	  0.052464932	-5.449000E+01
164	  0.052665330	-5.663000E+00	  0.052665330	-7.015400E+01	  0.052665330	3.969600E+01	  0.052665330	-5.339900E+01
165	  0.052865732	-5.674000E+00	  0.052865732	-7.166400E+01	  0.052865732	3.865000E+01	  0.052865732	-5.235800E+01
166	  0.053066134	-5.684000E+00	  0.053066134	-7.316300E+01	  0.053066134	3.765900E+01	  0.053066134	-5.133300E+01
167	  0.053266536	-5.696000E+00	  0.053266536	-7.466400E+01	  0.053266536	3.672100E+01	  0.053266536	-5.031200E+01
168	  0.053466935	-5.704000E+00	  0.053466935	-7.615100E+01	  0.053466935	3.581600E+01	  0.053466935	-4.932700E+01
169	  0.053667337	-5.713000E+00	  0.053667337	-7.764700E+01	  0.053667337	3.495300E+01	  0.053667337	-4.834100E+01
170	  0.053867739	-5.718000E+00	  0.053867739	-7.910100E+01	  0.053867739	3.413200E+01	  0.053867739	-4.741100E+01
171	  0.054068137	-5.726000E+00	  0.054068137	-8.057400E+01	  0.054068137	3.335000E+01	  0.054068137	-4.646600E+01
172	  0.054268539	-5.729000E+00	  0.054268539	-8.203000E+01	  0.054268539	3.259400E+01	  0.054268539	-4.555600E+01
173	  0.054468941	-5.736000E+00	  0.054468941	-8.344100E+01	  0.054468941	3.190300E+01	  0.054468941	-4.467300E+01
174	  0.054669335	-5.747000E+00	  0.054669335	-8.488500E+01	  0.054669335	3.124300E+01	  0.054669335	-4.376700E+01
175	  0.054869737	-5.755000E+00	  0.054869737	-8.631000E+01	  0.054869737	3.060900E+01	  0.054869737	-4.289100E+01
176	  0.055070139	-5.762000E+00	  0.055070139	-8.772700E+01	  0.055070139	3.000200E+01	  0.055070139	-4.203100E+01
177	  0.055270538	-5.769000E+00	  0.055270538	-8.913000E+01	  0.055270538	2.942300E+01	  0.055270538	-4.119100E+01
178	  0.055470940	-5.776000E+00	  0.055470940	-9.054500E+01	  0.055470940	2.886300E+01	  0.055470940	-4.035400E+01
179	  0.055671342	-5.780000E+00	  0.055671342	-9.196600E+01	  0.055671342	2.831100E+01	  0.055671342	-3.953100E+01
180	  0.055871744	-5.789000E+00	  0.055871744	-9.338300E+01	  0.055871744	2.780000E+01	  0.055871744	-3.870700E+01
181	  0.056072142	-5.793000E+00	  0.056072142	-9.477600E+01	  0.056072142	2.730400E+01	  0.056072142	-3.791600E+01
182	  0.056272544	-5.800000E+00	  0.056272544	-9.618100E+01	  0.056272544	2.682800E+01	  0.056272544	-3.712300E+01
183	  0.056472946	-5.806000E+00	  0.056472946	-9.758500E+01	  0.056472946	2.637300E+01	  0.056472946	-3.633900E+01
184	  0.056673344	-5.811000E+00	  0.056673344	-9.896500E+01	  0.056673344	2.593800E+01	  0.056673344	-3.557900E+01
185	  0.056873746	-5.817000E+00	  0.056873746	-1.003580E+02	  0.056873746	2.551700E+01	  0.056873746	-3.481900E+01
186	  0.057074148	-5.819000E+00	  0.057074148	-1.017480E+02	  0.057074148	2.510200E+01	  0.057074148	-3.407500E+01
187	  0.057274550	-5.824000E+00	  0.057274550	-1.031230E+02	  0.057274550	2.471800E+01	  0.057274550	-3.334100E+01
188	  0.057474948	-5.825000E+00	  0.057474948	-1.045030E+02	  0.057474948	2.433000E+01	  0.057474948	-3.262100E+01
189	  0.057675350	-5.829000E+00	  0.057675350	-1.058730E+02	  0.057675350	2.397100E+01	  0.057675350	-3.190700E+01
190	  0.057875752	-5.830000E+00	  0.057875752	-1.072340E+02	  0.057875752	2.361900E+01	  0.057875752	-3.120900E+01
191	  0.058076151	-5.834000E+00	  0.058076151	-1.086090E+02	  0.058076151	2.328300E+01	  0.058076151	-3.050600E+01
192	  0.058276553	-5.832000E+00	  0.058276553	-1.099500E+02	  0.058276553	2.295100E+01	  0.058276553	-2.983600E+01
193	  0.058476955	-5.832000E+00	  0.058476955	-1.112820E+02	  0.058476955	2.263900E+01	  0.058476955	-2.917200E+01
194	  0.058677353	-5.831000E+00	  0.058677353	-1.126190E+02	  0.058677353	2.233300E+01	  0.058677353	-2.851500E+01
195	  0.058877755	-5.829000E+00	  0.058877755	-1.139420E+02	  0.058877755	2.203800E+01	  0.058877755	-2.787000E+01
196	  0.059078157	-5.825000E+00	  0.059078157	-1.152400E+02	  0.059078157	2.175200E+01	  0.059078157	-2.724600E+01
197	  0.059278559	-5.822000E+00	  0.059278559	-1.165360E+02	  0.059278559	2.147700E+01	  0.059278559	-2.662700E+01
198	  0.059478957	-5.818000E+00	  0.059478957	-1.178120E+02	  0.059478957	2.121400E+01	  0.059478957	-2.602200E+01
199	  0.059679359	-5.818000E+00	  0.059679359	-1.191060E+02	  0.059679359	2.097100E+01	  0.059679359	-2.540800E+01
200	  0.059879761	-5.814000E+00	  0.059879761	-1.203510E+02	  0.059879761	2.072900E+01	  0.059879761	-2.482800E+01
201	  0.060080159	-5.814000E+00	  0.060080159	-1.215920E+02	  0.060080159	2.051100E+01	  0.060080159	-2.424800E+01
202	  0.060280561	-5.808000E+00	  0.060280561	-1.228410E+02	  0.060280561	2.028100E+01	  0.060280561	-2.367400E+01
203	  0.060480963	-5.810000E+00	  0.060480963	-1.240500E+02	  0.060480963	2.008700E+01	  0.060480963	-2.311500E+01
204	  0.060681365	-5.807000E+00	  0.060681365	-1.252620E+02	  0.060681365	1.988600E+01	  0.060681365	-2.256300E+01
205	  0.060881764	-5.803000E+00	  0.060881764	-1.264670E+02	  0.060881764	1.968700E+01	  0.060881764	-2.202000E+01
206	  0.061082166	-5.803000E+00	  0.061082166	-1.276940E+02	  0.061082166	1.950500E+01	  0.061082166	-2.146500E+01
207	  0.061282568	-5.801000E+00	  0.061282568	-1.289000E+02	  0.061282568	1.932600E+01	  0.061282568	-2.092600E+01
208	  0.061482966	-5.802000E+00	  0.061482966	-1.300800E+02	  0.061482966	1.916300E+01	  0.061482966	-2.039900E+01
209	  0.061683368	-5.804000E+00	  0.061683368	-1.312680E+02	  0.061683368	1.901100E+01	  0.061683368	-1.987000E+01
210	  0.061883770	-5.804000E+00	  0.061883770	-1.324450E+02	  0.061883770	1.886000E+01	  0.061883770	-1.935100E+01
211	  0.062084168	-5.807000E+00	  0.062084168	-1.336160E+02	  0.062084168	1.872100E+01	  0.062084168	-1.883500E+01
212	  0.062284570	-5.807000E+00	  0.062284570	-1.347970E+02	  0.062284570	1.857700E+01	  0.062284570	-1.832100E+01
213	  0.062484972	-5.801000E+00	  0.062484972	-1.359450E+02	  0.062484972	1.842600E+01	  0.062484972	-1.782800E+01
214	  0.062685370	-5.802000E+00	  0.062685370	-1.371140E+02	  0.062685370	1.829700E+01	  0.062685370	-1.732300E+01
215	  0.062885776	-5.800000E+00	  0.062885776	-1.383060E+02	  0.062885776	1.816300E+01	  0.062885776	-1.681200E+01
216	  0.063086174	-5.801000E+00	  0.063086174	-1.394780E+02	  0.063086174	1.804300E+01	  0.063086174	-1.631100E+01
217	  0.063286573	-5.804000E+00	  0.063286573	-1.406500E+02	  0.063286573	1.793200E+01	  0.063286573	-1.581100E+01
218	  0.063486971	-5.804000E+00	  0.063486971	-1.418200E+02	  0.063486971	1.782000E+01	  0.063486971	-1.531600E+01
219	  0.063687377	-5.804000E+00	  0.063687377	-1.429670E+02	  0.063687377	1.771300E+01	  0.063687377	-1.483300E+01
220	  0.063887775	-5.798000E+00	  0.063887775	-1.441500E+02	  0.063887775	1.758900E+01	  0.063887775	-1.434100E+01
221	  0.064088173	-5.803000E+00	  0.064088173	-1.453110E+02	  0.064088173	1.750200E+01	  0.064088173	-1.385400E+01
222	  0.064288579	-5.798000E+00	  0.064288579	-1.464860E+02	  0.064288579	1.739200E+01	  0.064288579	-1.336800E+01
223	  0.064488977	-5.797000E+00	  0.064488977	-1.476500E+02	  0.064488977	1.729700E+01	  0.064488977	-1.288700E+01
224	  0.064689375	-5.796000E+00	  0.064689375	-1.487850E+02	  0.064689375	1.720700E+01	  0.064689375	-1.242000E+01
225	  0.064889781	-5.795000E+00	  0.064889781	-1.499650E+02	  0.064889781	1.711900E+01	  0.064889781	-1.193500E+01
226	  0.065090179	-5.795000E+00	  0.065090179	-1.510780E+02	  0.065090179	1.704100E+01	  0.065090179	-1.148000E+01
227	  0.065290578	-5.792000E+00	  0.065290578	-1.522100E+02	  0.065290578	1.695600E+01	  0.065290578	-1.102000E+01
228	  0.065490983	-5.789000E+00	  0.065490983	-1.533020E+02	  0.065490983	1.687800E+01	  0.065490983	-1.057600E+01
229	  0.065691382	-5.781000E+00	  0.065691382	-1.544340E+02	  0.065691382	1.678800E+01	  0.065691382	-1.012100E+01
230	  0.065891780	-5.779000E+00	  0.065891780	-1.555550E+02	  0.065891780	1.671700E+01	  0.065891780	-9.668000E+00
231	  0.066092186	-5.779000E+00	  0.066092186	-1.566270E+02	  0.066092186	1.665900E+01	  0.066092186	-9.236000E+00
232	  0.066292584	-5.774000E+00	  0.066292584	-1.576950E+02	  0.066292584	1.659000E+01	  0.066292584	-8.807000E+00
233	  0.066492982	-5.770000E+00	  0.066492982	-1.588050E+02	  0.066492982	1.652500E+01	  0.066492982	-8.364000E+00
234	  0.066693388	-5.771000E+00	  0.066693388	-1.598510E+02	  0.066693388	1.647700E+01	  0.066693388	-7.945000E+00
235	  0.066893786	-5.769000E+00	  0.066893786	-1.608780E+02	  0.066893786	1.642600E+01	  0.066893786	-7.535000E+00
236	  0.067094192	-5.765000E+00	  0.067094192	-1.619600E+02	  0.067094192	1.637100E+01	  0.067094192	-7.104000E+00
237	  0.067294590	-5.763000E+00	  0.067294590	-1.629810E+02	  0.067294590	1.632600E+01	  0.067294590	-6.699000E+00
238	  0.067494988	-5.767000E+00	  0.067494988	-1.640230E+02	  0.067494988	1.629700E+01	  0.067494988	-6.284000E+00
239	  0.067695394	-5.763000E+00	  0.067695394	-1.650670E+02	  0.067695394	1.625100E+01	  0.067695394	-5.870000E+00
240	  0.067895792	-5.768000E+00	  0.067895792	-1.660770E+02	  0.067895792	1.623200E+01	  0.067895792	-5.469000E+00
241	  0.068096191	-5.770000E+00	  0.068096191	-1.671210E+02	  0.068096191	1.620700E+01	  0.068096191	-5.056000E+00
242	  0.068296596	-5.772000E+00	  0.068296596	-1.681520E+02	  0.068296596	1.618300E+01	  0.068296596	-4.649000E+00
243	  0.068496995	-5.777000E+00	  0.068496995	-1.691600E+02	  0.068496995	1.617000E+01	  0.068496995	-4.251000E+00
244	  0.068697393	-5.779000E+00	  0.068697393	-1.701510E+02	  0.068697393	1.615400E+01	  0.068697393	-3.861000E+00
245	  0.068897791	-5.782000E+00	  0.068897791	-1.711850E+02	  0.068897791	1.614100E+01	  0.068897791	-3.454000E+00
246	  0.069098189	-5.786000E+00	  0.069098189	-1.721890E+02	  0.069098189	1.613200E+01	  0.069098189	-3.059000E+00
247	  0.069298595	-5.793000E+00	  0.069298595	-1.732070E+02	  0.069298595	1.613400E+01	  0.069298595	-2.659000E+00
248	  0.069498993	-5.793000E+00	  0.069498993	-1.742510E+02	  0.069498993	1.611800E+01	  0.069498993	-2.249000E+00
249	  0.069699399	-5.801000E+00	  0.069699399	-1.752880E+02	  0.069699399	1.612800E+01	  0.069699399	-1.843000E+00
250	  0.069899797	-5.807000E+00	  0.069899797	-1.762970E+02	  0.069899797	1.613500E+01	  0.069899797	-1.447000E+00
251	  0.070100196	-5.813000E+00	  0.070100196	-1.773180E+02	  0.070100196	1.614200E+01	  0.070100196	-1.048000E+00
252	  0.070300601	-5.814000E+00	  0.070300601	-1.783210E+02	  0.070300601	1.614100E+01	  0.070300601	-6.560000E-01
253	  0.070501000	-5.821000E+00	  0.070501000	-1.793370E+02	  0.070501000	1.615500E+01	  0.070501000	-2.580000E-01
254	  0.070701398	-5.826000E+00	  0.070701398	1.796470E+02	  0.070701398	1.616800E+01	  0.070701398	1.370000E-01
255	  0.070901804	-5.830000E+00	  0.070901804	1.786420E+02	  0.070901804	1.618100E+01	  0.070901804	5.300000E-01
256	  0.071102202	-5.830000E+00	  0.071102202	1.776030E+02	  0.071102202	1.618600E+01	  0.071102202	9.360000E-01
257	  0.071302600	-5.836000E+00	  0.071302600	1.765930E+02	  0.071302600	1.620700E+01	  0.071302600	1.330000E+00
258	  0.071503006	-5.840000E+00	  0.071503006	1.756000E+02	  0.071503006	1.622400E+01	  0.071503006	1.718000E+00
259	  0.071703404	-5.841000E+00	  0.071703404	1.745980E+02	  0.071703404	1.623900E+01	  0.071703404	2.110000E+00
260	  0.071903802	-5.848000E+00	  0.071903802	1.735960E+02	  0.071903802	1.627000E+01	  0.071903802	2.501000E+00
261	  0.072104208	-5.849000E+00	  0.072104208	1.726060E+02	  0.072104208	1.628800E+01	  0.072104208	2.888000E+00
262	  0.072304606	-5.851000E+00	  0.072304606	1.716280E+02	  0.072304606	1.630900E+01	  0.072304606	3.271000E+00
263	  0.072505005	-5.852000E+00	  0.072505005	1.706650E+02	  0.072505005	1.633100E+01	  0.072505005	3.649000E+00
264	  0.072705410	-5.856000E+00	  0.072705410	1.696950E+02	  0.072705410	1.636200E+01	  0.072705410	4.028000E+00
265	  0.072905809	-5.855000E+00	  0.072905809	1.687360E+02	  0.072905809	1.638500E+01	  0.072905809	4.405000E+00
266	  0.073106214	-5.858000E+00	  0.073106214	1.677910E+02	  0.073106214	1.641600E+01	  0.073106214	4.776000E+00
267	  0.073306613	-5.861000E+00	  0.073306613	1.668600E+02	  0.073306613	1.645100E+01	  0.073306613	5.142000E+00
268	  0.073507011	-5.866000E+00	  0.073507011	1.659380E+02	  0.073507011	1.649000E+01	  0.073507011	5.504000E+00
269	  0.073707417	-5.871000E+00	  0.073707417	1.649890E+02	  0.073707417	1.653500E+01	  0.073707417	5.877000E+00
270	  0.073907815	-5.869000E+00	  0.073907815	1.640940E+02	  0.073907815	1.656300E+01	  0.073907815	6.231000E+00
271	  0.074108213	-5.875000E+00	  0.074108213	1.631900E+02	  0.074108213	1.661200E+01	  0.074108213	6.587000E+00
272	  0.074308619	-5.876000E+00	  0.074308619	1.622920E+02	  0.074308619	1.664900E+01	  0.074308619	6.943000E+00
273	  0.074509017	-5.883000E+00	  0.074509017	1.613730E+02	  0.074509017	1.670600E+01	  0.074509017	7.305000E+00
274	  0.074709415	-5.885000E+00	  0.074709415	1.604800E+02	  0.074709415	1.675000E+01	  0.074709415	7.659000E+00
275	  0.074909821	-5.893000E+00	  0.074909821	1.596020E+02	  0.074909821	1.681000E+01	  0.074909821	8.007000E+00
276	  0.075110219	-5.896000E+00	  0.075110219	1.587100E+02	  0.075110219	1.686300E+01	  0.075110219	8.361000E+00
277	  0.075310618	-5.903000E+00	  0.075310618	1.578100E+02	  0.075310618	1.692500E+01	  0.075310618	8.718000E+00
278	  0.075511023	-5.908000E+00	  0.075511023	1.569510E+02	  0.075511023	1.698500E+01	  0.075511023	9.060000E+00
279	  0.075711422	-5.918000E+00	  0.075711422	1.560770E+02	  0.075711422	1.705800E+01	  0.075711422	9.406000E+00
280	  0.075911827	-5.926000E+00	  0.075911827	1.552020E+02	  0.075911827	1.712900E+01	  0.075911827	9.754000E+00
281	  0.076112226	-5.936000E+00	  0.076112226	1.543170E+02	  0.076112226	1.720900E+01	  0.076112226	1.010700E+01
282	  0.076312624	-5.940000E+00	  0.076312624	1.534340E+02	  0.076312624	1.727400E+01	  0.076312624	1.046000E+01
283	  0.076513030	-5.952000E+00	  0.076513030	1.525460E+02	  0.076513030	1.736200E+01	  0.076513030	1.081400E+01
284	  0.076713428	-5.961000E+00	  0.076713428	1.516320E+02	  0.076713428	1.744800E+01	  0.076713428	1.118000E+01
285	  0.076913826	-5.972000E+00	  0.076913826	1.507580E+02	  0.076913826	1.753700E+01	  0.076913826	1.152900E+01
286	  0.077114232	-5.980000E+00	  0.077114232	1.498790E+02	  0.077114232	1.762400E+01	  0.077114232	1.188200E+01
287	  0.077314630	-5.986000E+00	  0.077314630	1.489860E+02	  0.077314630	1.770600E+01	  0.077314630	1.224300E+01
288	  0.077515028	-5.996000E+00	  0.077515028	1.481070E+02	  0.077515028	1.779900E+01	  0.077515028	1.259700E+01
289	  0.077715434	-6.004000E+00	  0.077715434	1.472130E+02	  0.077715434	1.789100E+01	  0.077715434	1.295900E+01
290	  0.077915832	-6.014000E+00	  0.077915832	1.463030E+02	  0.077915832	1.799500E+01	  0.077915832	1.332700E+01
291	  0.078116231	-6.017000E+00	  0.078116231	1.454350E+02	  0.078116231	1.807700E+01	  0.078116231	1.368200E+01
292	  0.078316636	-6.030000E+00	  0.078316636	1.445190E+02	  0.078316636	1.819200E+01	  0.078316636	1.405200E+01
293	  0.078517035	-6.039000E+00	  0.078517035	1.436320E+02	  0.078517035	1.829700E+01	  0.078517035	1.441400E+01
294	  0.078717433	-6.044000E+00	  0.078717433	1.427250E+02	  0.078717433	1.839700E+01	  0.078717433	1.478700E+01
295	  0.078917839	-6.052000E+00	  0.078917839	1.418350E+02	  0.078917839	1.850400E+01	  0.078917839	1.515200E+01
296	  0.079118237	-6.060000E+00	  0.079118237	1.410020E+02	  0.079118237	1.860700E+01	  0.079118237	1.549400E+01
297	  0.079318643	-6.069000E+00	  0.079318643	1.400970E+02	  0.079318643	1.872400E+01	  0.079318643	1.586700E+01
298	  0.079519041	-6.075000E+00	  0.079519041	1.392330E+02	  0.079519041	1.883400E+01	  0.079519041	1.622500E+01
299	  0.079719439	-6.083000E+00	  0.079719439	1.383800E+02	  0.079719439	1.894600E+01	  0.079719439	1.657900E+01
300	  0.079919845	-6.093000E+00	  0.079919845	1.375110E+02	  0.079919845	1.907100E+01	  0.079919845	1.693900E+01
301	  0.080120243	-6.099000E+00	  0.080120243	1.366330E+02	  0.080120243	1.919000E+01	  0.080120243	1.730600E+01
302	  0.080320641	-6.106000E+00	  0.080320641	1.357490E+02	  0.080320641	1.931200E+01	  0.080320641	1.767600E+01
303	  0.080521047	-6.112000E+00	  0.080521047	1.349150E+02	  0.080521047	1.943100E+01	  0.080521047	1.802700E+01
304	  0.080721445	-6.122000E+00	  0.080721445	1.340570E+02	  0.080721445	1.956600E+01	  0.080721445	1.838600E+01
305	  0.080921844	-6.132000E+00	  0.080921844	1.332380E+02	  0.080921844	1.969800E+01	  0.080921844	1.872900E+01
306	  0.081122249	-6.142000E+00	  0.081122249	1.324280E+02	  0.081122249	1.983100E+01	  0.081122249	1.906900E+01
307	  0.081322648	-6.154000E+00	  0.081322648	1.315930E+02	  0.081322648	1.997800E+01	  0.081322648	1.941900E+01
308	  0.081523046	-6.164000E+00	  0.081523046	1.307600E+02	  0.081523046	2.012000E+01	  0.081523046	1.977100E+01
309	  0.081723452	-6.169000E+00	  0.081723452	1.299380E+02	  0.081723452	2.025000E+01	  0.081723452	2.012400E+01
310	  0.081923850	-6.181000E+00	  0.081923850	1.291160E+02	  0.081923850	2.040400E+01	  0.081923850	2.047100E+01
311	  0.082124248	-6.192000E+00	  0.082124248	1.282850E+02	  0.082124248	2.055600E+01	  0.082124248	2.082400E+01
312	  0.082324654	-6.206000E+00	  0.082324654	1.274980E+02	  0.082324654	2.071700E+01	  0.082324654	2.115500E+01
313	  0.082525052	-6.218000E+00	  0.082525052	1.266870E+02	  0.082525052	2.087700E+01	  0.082525052	2.150000E+01
314	  0.082725458	-6.231000E+00	  0.082725458	1.258820E+02	  0.082725458	2.104200E+01	  0.082725458	2.184200E+01
315	  0.082925856	-6.249000E+00	  0.082925856	1.250770E+02	  0.082925856	2.122500E+01	  0.082925856	2.218000E+01
316	  0.083126254	-6.262000E+00	  0.083126254	1.243000E+02	  0.083126254	2.139300E+01	  0.083126254	2.251000E+01
317	  0.083326660	-6.276000E+00	  0.083326660	1.234830E+02	  0.083326660	2.157300E+01	  0.083326660	2.285800E+01
318	  0.083527058	-6.290000E+00	  0.083527058	1.226670E+02	  0.083527058	2.175800E+01	  0.083527058	2.320700E+01
319	  0.083727457	-6.308000E+00	  0.083727457	1.218770E+02	  0.083727457	2.195000E+01	  0.083727457	2.354000E+01
320	  0.083927862	-6.326000E+00	  0.083927862	1.210550E+02	  0.083927862	2.215500E+01	  0.083927862	2.388800E+01
321	  0.084128261	-6.350000E+00	  0.084128261	1.202610E+02	  0.084128261	2.237400E+01	  0.084128261	2.421600E+01
322	  0.084328659	-6.362000E+00	  0.084328659	1.194610E+02	  0.084328659	2.256300E+01	  0.084328659	2.456300E+01
323	  0.084529065	-6.383000E+00	  0.084529065	1.186380E+02	  0.084529065	2.278500E+01	  0.084529065	2.490900E+01
324	  0.084729463	-6.401000E+00	  0.084729463	1.178540E+02	  0.084729463	2.299600E+01	  0.084729463	2.524200E+01
325	  0.084929854	-6.419000E+00	  0.084929854	1.170020E+02	  0.084929854	2.322600E+01	  0.084929854	2.560600E+01
326	  0.085130259	-6.434000E+00	  0.085130259	1.161840E+02	  0.085130259	2.344400E+01	  0.085130259	2.595900E+01
327	  0.085330658	-6.454000E+00	  0.085330658	1.153770E+02	  0.085330658	2.367800E+01	  0.085330658	2.630000E+01
328	  0.085531056	-6.473000E+00	  0.085531056	1.145410E+02	  0.085531056	2.391900E+01	  0.085531056	2.665800E+01
329	  0.085731462	-6.492000E+00	  0.085731462	1.137070E+02	  0.085731462	2.416600E+01	  0.085731462	2.701300E+01
330	  0.085931860	-6.510000E+00	  0.085931860	1.129320E+02	  0.085931860	2.439800E+01	  0.085931860	2.734500E+01
331	  0.086132258	-6.529000E+00	  0.086132258	1.121290E+02	  0.086132258	2.464500E+01	  0.086132258	2.768800E+01
332	  0.086332664	-6.547000E+00	  0.086332664	1.113340E+02	  0.086332664	2.489100E+01	  0.086332664	2.802900E+01
333	  0.086533062	-6.565000E+00	  0.086533062	1.105400E+02	  0.086533062	2.514400E+01	  0.086533062	2.836900E+01
334	  0.086733460	-6.585000E+00	  0.086733460	1.097200E+02	  0.086733460	2.541200E+01	  0.086733460	2.871800E+01
335	  0.086933866	-6.601000E+00	  0.086933866	1.089240E+02	  0.086933866	2.566700E+01	  0.086933866	2.906300E+01
336	  0.087134264	-6.619000E+00	  0.087134264	1.081520E+02	  0.087134264	2.592400E+01	  0.087134264	2.939600E+01
337	  0.087334670	-6.637000E+00	  0.087334670	1.073280E+02	  0.087334670	2.620400E+01	  0.087334670	2.975000E+01
338	  0.087535068	-6.659000E+00	  0.087535068	1.065380E+02	  0.087535068	2.648800E+01	  0.087535068	3.008300E+01
339	  0.087735467	-6.680000E+00	  0.087735467	1.057780E+02	  0.087735467	2.676500E+01	  0.087735467	3.040400E+01
340	  0.087935872	-6.698000E+00	  0.087935872	1.050120E+02	  0.087935872	2.704400E+01	  0.087935872	3.073100E+01
341	  0.088136271	-6.720000E+00	  0.088136271	1.042200E+02	  0.088136271	2.734500E+01	  0.088136271	3.106400E+01
342	  0.088336669	-6.739000E+00	  0.088336669	1.034610E+02	  0.088336669	2.763100E+01	  0.088336669	3.138700E+01
343	  0.088537075	-6.759000E+00	  0.088537075	1.026720E+02	  0.088537075	2.793400E+01	  0.088537075	3.172300E+01
344	  0.088737473	-6.780000E+00	  0.088737473	1.019150E+02	  0.088737473	2.823800E+01	  0.088737473	3.203800E+01
345	  0.088937871	-6.800000E+00	  0.088937871	1.011130E+02	  0.088937871	2.855800E+01	  0.088937871	3.237900E+01
346	  0.089138277	-6.827000E+00	  0.089138277	1.004000E+02	  0.089138277	2.887400E+01	  0.089138277	3.266100E+01
347	  0.089338675	-6.841000E+00	  0.089338675	9.963700E+01	  0.089338675	2.917300E+01	  0.089338675	3.299300E+01
348	  0.089539073	-6.871000E+00	  0.089539073	9.887600E+01	  0.089539073	2.952400E+01	  0.089539073	3.329200E+01
349	  0.089739479	-6.894000E+00	  0.089739479	9.813800E+01	  0.089739479	2.985300E+01	  0.089739479	3.359100E+01
350	  0.089939877	-6.923000E+00	  0.089939877	9.739000E+01	  0.089939877	3.020900E+01	  0.089939877	3.388000E+01
351	  0.090140276	-6.947000E+00	  0.090140276	9.662400E+01	  0.090140276	3.056100E+01	  0.090140276	3.418900E+01
352	  0.090340681	-6.974000E+00	  0.090340681	9.590200E+01	  0.090340681	3.091300E+01	  0.090340681	3.446700E+01
353	  0.090541080	-7.001000E+00	  0.090541080	9.514400E+01	  0.090541080	3.128100E+01	  0.090541080	3.476300E+01
354	  0.090741485	-7.028000E+00	  0.090741485	9.441800E+01	  0.090741485	3.164600E+01	  0.090741485	3.503900E+01
355	  0.090941884	-7.071000E+00	  0.090941884	9.368600E+01	  0.090941884	3.206500E+01	  0.090941884	3.527700E+01
356	  0.091142282	-7.097000E+00	  0.091142282	9.296400E+01	  0.091142282	3.243600E+01	  0.091142282	3.555000E+01
357	  0.091342688	-7.136000E+00	  0.091342688	9.222400E+01	  0.091342688	3.285600E+01	  0.091342688	3.579600E+01
358	  0.091543086	-7.169000E+00	  0.091543086	9.149300E+01	  0.091543086	3.326300E+01	  0.091543086	3.604900E+01
359	  0.091743484	-7.199000E+00	  0.091743484	9.074600E+01	  0.091743484	3.367000E+01	  0.091743484	3.631700E+01
360	  0.091943890	-7.236000E+00	  0.091943890	9.003000E+01	  0.091943890	3.409300E+01	  0.091943890	3.654600E+01
361	  0.092144288	-7.270000E+00	  0.092144288	8.927400E+01	  0.092144288	3.453200E+01	  0.092144288	3.679800E+01
362	  0.092344686	-7.305000E+00	  0.092344686	8.855400E+01	  0.092344686	3.495900E+01	  0.092344686	3.703100E+01
363	  0.092545092	-7.340000E+00	  0.092545092	8.785700E+01	  0.092545092	3.538600E+01	  0.092545092	3.724400E+01
364	  0.092745490	-7.378000E+00	  0.092745490	8.716200E+01	  0.092745490	3.582300E+01	  0.092745490	3.744700E+01
365	  0.092945889	-7.418000E+00	  0.092945889	8.646800E+01	  0.092945889	3.627100E+01	  0.092945889	3.763800E+01
366	  0.093146294	-7.455000E+00	  0.093146294	8.575700E+01	  0.093146294	3.672100E+01	  0.093146294	3.784500E+01
367	  0.093346693	-7.493000E+00	  0.093346693	8.508000E+01	  0.093346693	3.716500E+01	  0.093346693	3.802600E+01
368	  0.093547091	-7.531000E+00	  0.093547091	8.441800E+01	  0.093547091	3.760700E+01	  0.093547091	3.819500E+01
369	  0.093747497	-7.568000E+00	  0.093747497	8.372300E+01	  0.093747497	3.806700E+01	  0.093747497	3.837900E+01
370	  0.093947895	-7.610000E+00	  0.093947895	8.304600E+01	  0.093947895	3.853600E+01	  0.093947895	3.853400E+01
371	  0.094148301	-7.645000E+00	  0.094148301	8.238300E+01	  0.094148301	3.898300E+01	  0.094148301	3.870000E+01
372	  0.094348699	-7.691000E+00	  0.094348699	8.172300E+01	  0.094348699	3.946400E+01	  0.094348699	3.882400E+01
373	  0.094549097	-7.728000E+00	  0.094549097	8.107100E+01	  0.094549097	3.991900E+01	  0.094549097	3.897000E+01
374	  0.094749503	-7.770000E+00	  0.094749503	8.045800E+01	  0.094749503	4.037200E+01	  0.094749503	3.907600E+01
375	  0.094949901	-7.808000E+00	  0.094949901	7.984900E+01	  0.094949901	4.081200E+01	  0.094949901	3.919200E+01
376	  0.095150299	-7.850000E+00	  0.095150299	7.923800E+01	  0.095150299	4.127100E+01	  0.095150299	3.928500E+01
377	  0.095350705	-7.894000E+00	  0.095350705	7.859900E+01	  0.095350705	4.175200E+01	  0.095350705	3.938000E+01
378	  0.095551103	-7.928000E+00	  0.095551103	7.797500E+01	  0.095551103	4.220300E+01	  0.095551103	3.949900E+01
379	  0.095751502	-7.976000E+00	  0.095751502	7.735700E+01	  0.095751502	4.268800E+01	  0.095751502	3.956100E+01
380	  0.095951907	-8.018000E+00	  0.095951907	7.677900E+01	  0.095951907	4.314000E+01	  0.095951907	3.961800E+01
381	  0.096152306	-8.057000E+00	  0.096152306	7.619500E+01	  0.096152306	4.358900E+01	  0.096152306	3.968800E+01
382	  0.096352704	-8.101000E+00	  0.096352704	7.560100E+01	  0.096352704	4.405700E+01	  0.096352704	3.973700E+01
383	  0.096553110	-8.144000E+00	  0.096553110	7.502600E+01	  0.096553110	4.451600E+01	  0.096553110	3.977500E+01
384	  0.096753508	-8.186000E+00	  0.096753508	7.450400E+01	  0.096753508	4.494100E+01	  0.096753508	3.979300E+01
385	  0.096953906	-8.232000E+00	  0.096953906	7.393900E+01	  0.096953906	4.540400E+01	  0.096953906	3.980300E+01
386	  0.097154312	-8.276000E+00	  0.097154312	7.336600E+01	  0.097154312	4.586900E+01	  0.097154312	3.981800E+01
387	  0.097354710	-8.319000E+00	  0.097354710	7.284100E+01	  0.097354710	4.630300E+01	  0.097354710	3.981500E+01
388	  0.097555116	-8.366000E+00	  0.097555116	7.230800E+01	  0.097555116	4.675000E+01	  0.097555116	3.979700E+01
389	  0.097755514	-8.412000E+00	  0.097755514	7.178000E+01	  0.097755514	4.719400E+01	  0.097755514	3.977200E+01
390	  0.097955912	-8.457000E+00	  0.097955912	7.124100E+01	  0.097955912	4.764500E+01	  0.097955912	3.974700E+01
391	  0.098156318	-8.499000E+00	  0.098156318	7.073300E+01	  0.098156318	4.806800E+01	  0.098156318	3.972200E+01
392	  0.098356716	-8.543000E+00	  0.098356716	7.023100E+01	  0.098356716	4.849300E+01	  0.098356716	3.967900E+01
393	  0.098557115	-8.595000E+00	  0.098557115	6.975400E+01	  0.098557115	4.891600E+01	  0.098557115	3.959100E+01
394	  0.098757520	-8.632000E+00	  0.098757520	6.922100E+01	  0.098757520	4.934800E+01	  0.098757520	3.957800E+01
395	  0.098957919	-8.679000E+00	  0.098957919	6.873900E+01	  0.098957919	4.976400E+01	  0.098957919	3.950200E+01
396	  0.099158317	-8.726000E+00	  0.099158317	6.824500E+01	  0.099158317	5.018900E+01	  0.099158317	3.942300E+01
397	  0.099358723	-8.768000E+00	  0.099358723	6.775700E+01	  0.099358723	5.060000E+01	  0.099358723	3.936100E+01
398	  0.099559121	-8.814000E+00	  0.099559121	6.731300E+01	  0.099559121	5.098700E+01	  0.099559121	3.926200E+01
399	  0.099759519	-8.853000E+00	  0.099759519	6.682800E+01	  0.099759519	5.139100E+01	  0.099759519	3.920100E+01
400	  0.099959925	-8.893000E+00	  0.099959925	6.639300E+01	  0.099959925	5.176000E+01	  0.099959925	3.912100E+01
401	  0.100160323	-8.925000E+00	  0.100160323	6.593800E+01	  0.100160323	5.213300E+01	  0.100160323	3.907500E+01
402	  0.100360721	-8.968000E+00	  0.100360721	6.549500E+01	  0.100360721	5.251200E+01	  0.100360721	3.897400E+01
403	  0.100561127	-9.016000E+00	  0.100561127	6.504000E+01	  0.100561127	5.290500E+01	  0.100561127	3.884600E+01
404	  0.100761525	-9.051000E+00	  0.100761525	6.463200E+01	  0.100761525	5.324700E+01	  0.100761525	3.876300E+01
405	  0.100961931	-9.090000E+00	  0.100961931	6.420300E+01	  0.100961931	5.360800E+01	  0.100961931	3.866300E+01
406	  0.101162329	-9.129000E+00	  0.101162329	6.379900E+01	  0.101162329	5.395000E+01	  0.101162329	3.855600E+01
407	  0.101362728	-9.168000E+00	  0.101362728	6.338900E+01	  0.101362728	5.429500E+01	  0.101362728	3.844400E+01
408	  0.101563133	-9.194000E+00	  0.101563133	6.299100E+01	  0.101563133	5.461700E+01	  0.101563133	3.838500E+01
409	  0.101763532	-9.228000E+00	  0.101763532	6.263800E+01	  0.101763532	5.491300E+01	  0.101763532	3.828400E+01
410	  0.101963930	-9.267000E+00	  0.101963930	6.223400E+01	  0.101963930	5.525200E+01	  0.101963930	3.815700E+01
411	  0.102164328	-9.292000E+00	  0.102164328	6.182900E+01	  0.102164328	5.557600E+01	  0.102164328	3.809900E+01
412	  0.102364726	-9.322000E+00	  0.102364726	6.150600E+01	  0.102364726	5.584500E+01	  0.102364726	3.800000E+01
413	  0.102565125	-9.351000E+00	  0.102565125	6.115100E+01	  0.102565125	5.613500E+01	  0.102565125	3.790900E+01
414	  0.102765530	-9.389000E+00	  0.102765530	6.079200E+01	  0.102765530	5.643500E+01	  0.102765530	3.777000E+01
415	  0.102965929	-9.408000E+00	  0.102965929	6.046200E+01	  0.102965929	5.669700E+01	  0.102965929	3.771900E+01
416	  0.103166327	-9.431000E+00	  0.103166327	6.015500E+01	  0.103166327	5.694400E+01	  0.103166327	3.764300E+01
417	  0.103366733	-9.446000E+00	  0.103366733	5.986100E+01	  0.103366733	5.717600E+01	  0.103366733	3.760300E+01
418	  0.103567131	-9.486000E+00	  0.103567131	5.948600E+01	  0.103567131	5.748600E+01	  0.103567131	3.744600E+01
419	  0.103767529	-9.499000E+00	  0.103767529	5.922900E+01	  0.103767529	5.768900E+01	  0.103767529	3.740400E+01
420	  0.103967935	-9.524000E+00	  0.103967935	5.887300E+01	  0.103967935	5.797300E+01	  0.103967935	3.731600E+01
421	  0.104168333	-9.549000E+00	  0.104168333	5.856700E+01	  0.104168333	5.821900E+01	  0.104168333	3.721900E+01
422	  0.104368731	-9.559000E+00	  0.104368731	5.829300E+01	  0.104368731	5.843200E+01	  0.104368731	3.719000E+01
423	  0.104569137	-9.582000E+00	  0.104569137	5.800400E+01	  0.104569137	5.866300E+01	  0.104569137	3.710100E+01
424	  0.104769535	-9.594000E+00	  0.104769535	5.771500E+01	  0.104769535	5.888900E+01	  0.104769535	3.706300E+01
425	  0.104969934	-9.612000E+00	  0.104969934	5.740600E+01	  0.104969934	5.913300E+01	  0.104969934	3.699000E+01
426	  0.105170339	-9.629000E+00	  0.105170339	5.713300E+01	  0.105170339	5.934800E+01	  0.105170339	3.692100E+01
427	  0.105370738	-9.643000E+00	  0.105370738	5.683500E+01	  0.105370738	5.958200E+01	  0.105370738	3.686700E+01
428	  0.105571143	-9.650000E+00	  0.105571143	5.648000E+01	  0.105571143	5.985700E+01	  0.105571143	3.685000E+01
429	  0.105771542	-9.664000E+00	  0.105771542	5.618400E+01	  0.105771542	6.009000E+01	  0.105771542	3.679400E+01
430	  0.105971940	-9.672000E+00	  0.105971940	5.582900E+01	  0.105971940	6.036600E+01	  0.105971940	3.676800E+01
431	  0.106172346	-9.675000E+00	  0.106172346	5.558800E+01	  0.106172346	6.055400E+01	  0.106172346	3.675700E+01
432	  0.106372744	-9.687000E+00	  0.106372744	5.525000E+01	  0.106372744	6.081900E+01	  0.106372744	3.670900E+01
433	  0.106573142	-9.695000E+00	  0.106573142	5.493000E+01	  0.106573142	6.107000E+01	  0.106573142	3.667200E+01
434	  0.106773548	-9.701000E+00	  0.106773548	5.463400E+01	  0.106773548	6.130200E+01	  0.106773548	3.664600E+01
435	  0.106973946	-9.705000E+00	  0.106973946	5.426400E+01	  0.106973946	6.159300E+01	  0.106973946	3.663000E+01
436	  0.107174344	-9.695000E+00	  0.107174344	5.390500E+01	  0.107174344	6.187600E+01	  0.107174344	3.668700E+01
437	  0.107374750	-9.698000E+00	  0.107374750	5.354800E+01	  0.107374750	6.216000E+01	  0.107374750	3.666700E+01
438	  0.107575148	-9.699000E+00	  0.107575148	5.317500E+01	  0.107575148	6.245800E+01	  0.107575148	3.666300E+01
439	  0.107775547	-9.688000E+00	  0.107775547	5.280100E+01	  0.107775547	6.275800E+01	  0.107775547	3.671600E+01
440	  0.107975952	-9.680000E+00	  0.107975952	5.248400E+01	  0.107975952	6.301500E+01	  0.107975952	3.675300E+01
441	  0.108176351	-9.677000E+00	  0.108176351	5.207000E+01	  0.108176351	6.335100E+01	  0.108176351	3.675900E+01
442	  0.108376749	-9.663000E+00	  0.108376749	5.165100E+01	  0.108376749	6.369500E+01	  0.108376749	3.681900E+01
443	  0.108577155	-9.666000E+00	  0.108577155	5.124000E+01	  0.108577155	6.403300E+01	  0.108577155	3.678800E+01
444	  0.108777553	-9.641000E+00	  0.108777553	5.085700E+01	  0.108777553	6.435600E+01	  0.108777553	3.690700E+01
445	  0.108977959	-9.638000E+00	  0.108977959	5.042700E+01	  0.108977959	6.471500E+01	  0.108977959	3.689800E+01
446	  0.109178357	-9.618000E+00	  0.109178357	5.002900E+01	  0.109178357	6.505600E+01	  0.109178357	3.698700E+01
447	  0.109378755	-9.608000E+00	  0.109378755	4.960900E+01	  0.109378755	6.541300E+01	  0.109378755	3.701100E+01
448	  0.109579161	-9.594000E+00	  0.109579161	4.914200E+01	  0.109579161	6.581700E+01	  0.109579161	3.705600E+01
449	  0.109779559	-9.568000E+00	  0.109779559	4.867600E+01	  0.109779559	6.623000E+01	  0.109779559	3.716300E+01
450	  0.109979957	-9.555000E+00	  0.109979957	4.825300E+01	  0.109979957	6.660300E+01	  0.109979957	3.719700E+01
451	  0.110180363	-9.541000E+00	  0.110180363	4.779400E+01	  0.110180363	6.701000E+01	  0.110180363	3.723100E+01
452	  0.110380761	-9.514000E+00	  0.110380761	4.731100E+01	  0.110380761	6.745200E+01	  0.110380761	3.733300E+01
453	  0.110581160	-9.497000E+00	  0.110581160	4.676600E+01	  0.110581160	6.794600E+01	  0.110581160	3.736600E+01
454	  0.110781565	-9.477000E+00	  0.110781565	4.632200E+01	  0.110781565	6.835900E+01	  0.110781565	3.742900E+01
455	  0.110981964	-9.455000E+00	  0.110981964	4.575000E+01	  0.110981964	6.889300E+01	  0.110981964	3.747900E+01
456	  0.111182362	-9.436000E+00	  0.111182362	4.527600E+01	  0.111182362	6.934000E+01	  0.111182362	3.751700E+01
457	  0.111382768	-9.413000E+00	  0.111382768	4.472900E+01	  0.111382768	6.986400E+01	  0.111382768	3.756700E+01
458	  0.111583166	-9.392000E+00	  0.111583166	4.422100E+01	  0.111583166	7.035600E+01	  0.111583166	3.760700E+01
459	  0.111783572	-9.374000E+00	  0.111783572	4.363000E+01	  0.111783572	7.092600E+01	  0.111783572	3.760400E+01
460	  0.111983970	-9.356000E+00	  0.111983970	4.308700E+01	  0.111983970	7.145700E+01	  0.111983970	3.760600E+01
461	  0.112184368	-9.337000E+00	  0.112184368	4.248700E+01	  0.112184368	7.204900E+01	  0.112184368	3.759400E+01
462	  0.112384774	-9.321000E+00	  0.112384774	4.182200E+01	  0.112384774	7.270600E+01	  0.112384774	3.754500E+01
463	  0.112585172	-9.304000E+00	  0.112585172	4.119400E+01	  0.112585172	7.333300E+01	  0.112585172	3.749200E+01
464	  0.112785570	-9.288000E+00	  0.112785570	4.058500E+01	  0.112785570	7.394900E+01	  0.112785570	3.743500E+01
465	  0.112985976	-9.266000E+00	  0.112985976	3.997300E+01	  0.112985976	7.458300E+01	  0.112985976	3.740000E+01
466	  0.113186374	-9.250000E+00	  0.113186374	3.930600E+01	  0.113186374	7.526700E+01	  0.113186374	3.730700E+01
467	  0.113386773	-9.235000E+00	  0.113386773	3.859900E+01	  0.113386773	7.599400E+01	  0.113386773	3.718000E+01
468	  0.113587178	-9.221000E+00	  0.113587178	3.796400E+01	  0.113587178	7.665200E+01	  0.113587178	3.705000E+01
469	  0.113787577	-9.208000E+00	  0.113787577	3.716000E+01	  0.113787577	7.748100E+01	  0.113787577	3.684300E+01
470	  0.113987975	-9.189000E+00	  0.113987975	3.645900E+01	  0.113987975	7.823300E+01	  0.113987975	3.670400E+01
471	  0.114188381	-9.183000E+00	  0.114188381	3.570400E+01	  0.114188381	7.900600E+01	  0.114188381	3.643400E+01
472	  0.114388779	-9.167000E+00	  0.114388779	3.488300E+01	  0.114388779	7.987900E+01	  0.114388779	3.618400E+01
473	  0.114589177	-9.158000E+00	  0.114589177	3.406400E+01	  0.114589177	8.073300E+01	  0.114589177	3.586400E+01
474	  0.114789583	-9.146000E+00	  0.114789583	3.333000E+01	  0.114789583	8.151500E+01	  0.114789583	3.558400E+01
475	  0.114989981	-9.142000E+00	  0.114989981	3.248200E+01	  0.114989981	8.238600E+01	  0.114989981	3.517100E+01
476	  0.115190387	-9.135000E+00	  0.115190387	3.163100E+01	  0.115190387	8.327400E+01	  0.115190387	3.475400E+01
477	  0.115390785	-9.125000E+00	  0.115390785	3.073100E+01	  0.115390785	8.421800E+01	  0.115390785	3.429600E+01
478	  0.115591183	-9.120000E+00	  0.115591183	2.985400E+01	  0.115591183	8.512200E+01	  0.115591183	3.379500E+01
479	  0.115791589	-9.111000E+00	  0.115791589	2.893300E+01	  0.115791589	8.608300E+01	  0.115791589	3.325700E+01
480	  0.115991987	-9.107000E+00	  0.115991987	2.802200E+01	  0.115991987	8.700800E+01	  0.115991987	3.266300E+01
481	  0.116192386	-9.102000E+00	  0.116192386	2.711700E+01	  0.116192386	8.792600E+01	  0.116192386	3.204800E+01
482	  0.116392791	-9.103000E+00	  0.116392791	2.618700E+01	  0.116392791	8.883000E+01	  0.116392791	3.134300E+01
483	  0.116593190	-9.104000E+00	  0.116593190	2.518100E+01	  0.116593190	8.979300E+01	  0.116593190	3.054000E+01
484	  0.116793588	-9.101000E+00	  0.116793588	2.417900E+01	  0.116793588	9.076000E+01	  0.116793588	2.972800E+01
485	  0.116993994	-9.107000E+00	  0.116993994	2.320400E+01	  0.116993994	9.163600E+01	  0.116993994	2.884900E+01
486	  0.117194392	-9.103000E+00	  0.117194392	2.217400E+01	  0.117194392	9.260100E+01	  0.117194392	2.794200E+01
487	  0.117394790	-9.113000E+00	  0.117394790	2.121100E+01	  0.117394790	9.339600E+01	  0.117394790	2.697400E+01
488	  0.117595196	-9.120000E+00	  0.117595196	2.011900E+01	  0.117595196	9.429600E+01	  0.117595196	2.586600E+01
489	  0.117795594	-9.136000E+00	  0.117795594	1.906100E+01	  0.117795594	9.507500E+01	  0.117795594	2.470400E+01
490	  0.117995992	-9.147000E+00	  0.117995992	1.795400E+01	  0.117995992	9.588900E+01	  0.117995992	2.348000E+01
491	  0.118196398	-9.160000E+00	  0.118196398	1.691100E+01	  0.118196398	9.659500E+01	  0.118196398	2.227600E+01
492	  0.118396796	-9.179000E+00	  0.118396796	1.579200E+01	  0.118396796	9.727200E+01	  0.118396796	2.093000E+01
493	  0.118597202	-9.197000E+00	  0.118597202	1.466400E+01	  0.118597202	9.791600E+01	  0.118597202	1.954700E+01
494	  0.118797600	-9.221000E+00	  0.118797600	1.352900E+01	  0.118797600	9.845600E+01	  0.118797600	1.809700E+01
