! Anritsu VNA Master:             	Model: MS2036C/10/77
! SN:             	1601066
! /bd0/18may10/256.ns.m10.txt
! Existing Calibration Information:
! TYPE:             	Current Settings	Active Cal Settings
! TIME:             	05/10/2018 11:20:45 AM	05/10/2018 11:07:23 AM
! INTERNAL TEMP:    	52.8 C	51.3 C
! # POINTS:         	494	494
! START FREQ:       	20.000 MHz	20.000 MHz
! STOP FREQ:        	118.797 594 MHz	118.797 594 MHz
! SOURCE POWER:     	High	High
! IFBW:             	50 Hz	50 Hz
! AVG FACTOR:       	  1 	  1 
! REF PLANE 1:      	0 mm	0 mm
! REF PLANE 2:      	0 mm	0 mm
! CAL TYPE:         	Full S22	Full S22
! CAL METHOD:       	SOLT	SOLT
! CAL LINE TYPE:    	Coax	Coax
! DUT PORT 1:       	K-Conn(M)	K-Conn(M)
! DUT PORT 2:       	K-Conn(M)	K-Conn(M)
! CAL STATUS:       	OK: Accuracy High	--
! PROP-V:       	0.700
! CABLE LOSS:       	0.000 dB/m
! REF IMPEDANCE:       	50.0
! Trace Specific Parameters:	TR1	TR2	TR3	TR4
! TRACE.#.Y (GRAPH TYPE)	LOG MAG	PHASE	REAL IMPEDANCE	IMAGINARY IMPEDANCE
! TRACE.#.X 	FREQ.GHZ	FREQ.GHZ	FREQ.GHZ	FREQ.GHZ
! S-PARAMETER	S22	S22	S22	S22
! SMOOTH/APERTURE %	0	0	0	0
! WINDOW	NSL	NSL	NSL	NSL
! GATING	OFF	OFF	OFF	OFF
! FGTD	OFF	OFF	OFF	OFF
Marker Information per Trace:	TR1	TR2	TR3	TR4
!MK1	--	"MK1 TR2:  20.000 MHz,PH:-126.90°"	--	--
!MK2	--	--	"MK2 TR3:  70.100 200 MHz,Z:(16.888 ohm, -1.409 ohm)"	--
!MK3	--	--	--	--
!MK4	--	--	--	--
!MK5	--	--	--	--
!MK6	--	--	--	--
!MK7	--	--	--	--
!MK8	--	--	--	--
PNT	TR1.FREQ.GHZ	TR1.LOG MAG.dB	TR2.FREQ.GHZ	TR2.PHASE.deg	TR3.FREQ.GHZ	TR3.REAL IMPEDANCE.ohm	TR4.FREQ.GHZ	TR4.IMAGINARY IMPEDANCE.ohm
1	  0.020000000	-6.140000E-01	  0.020000000	-1.269030E+02	  0.020000000	2.207000E+00	  0.020000000	-2.494200E+01
2	  0.020200402	-6.170000E-01	  0.020200402	-1.283640E+02	  0.020200402	2.193000E+00	  0.020200402	-2.415200E+01
3	  0.020400802	-6.230000E-01	  0.020400802	-1.298610E+02	  0.020400802	2.185000E+00	  0.020400802	-2.335200E+01
4	  0.020601204	-6.280000E-01	  0.020601204	-1.313660E+02	  0.020601204	2.176000E+00	  0.020601204	-2.255700E+01
5	  0.020801604	-6.310000E-01	  0.020801604	-1.329110E+02	  0.020801604	2.160000E+00	  0.020801604	-2.175200E+01
6	  0.021002004	-6.350000E-01	  0.021002004	-1.344540E+02	  0.021002004	2.151000E+00	  0.021002004	-2.095600E+01
7	  0.021202406	-6.400000E-01	  0.021202406	-1.360190E+02	  0.021202406	2.141000E+00	  0.021202406	-2.015900E+01
8	  0.021402806	-6.410000E-01	  0.021402806	-1.375530E+02	  0.021402806	2.124000E+00	  0.021402806	-1.938600E+01
9	  0.021603208	-6.480000E-01	  0.021603208	-1.391070E+02	  0.021603208	2.125000E+00	  0.021603208	-1.861100E+01
10	  0.021803608	-6.530000E-01	  0.021803608	-1.406460E+02	  0.021803608	2.120000E+00	  0.021803608	-1.785100E+01
11	  0.022004008	-6.590000E-01	  0.022004008	-1.422090E+02	  0.022004008	2.119000E+00	  0.022004008	-1.708600E+01
12	  0.022204408	-6.660000E-01	  0.022204408	-1.437920E+02	  0.022204408	2.122000E+00	  0.022204408	-1.631900E+01
13	  0.022404809	-6.730000E-01	  0.022404809	-1.454030E+02	  0.022404809	2.123000E+00	  0.022404809	-1.554500E+01
14	  0.022605211	-6.790000E-01	  0.022605211	-1.470060E+02	  0.022605211	2.126000E+00	  0.022605211	-1.478300E+01
15	  0.022805611	-6.860000E-01	  0.022805611	-1.486200E+02	  0.022805611	2.130000E+00	  0.022805611	-1.402100E+01
16	  0.023006011	-6.900000E-01	  0.023006011	-1.502250E+02	  0.023006011	2.127000E+00	  0.023006011	-1.326900E+01
17	  0.023206413	-6.960000E-01	  0.023206413	-1.518420E+02	  0.023206413	2.128000E+00	  0.023206413	-1.251800E+01
18	  0.023406813	-7.010000E-01	  0.023406813	-1.534510E+02	  0.023406813	2.131000E+00	  0.023406813	-1.177500E+01
19	  0.023607215	-7.110000E-01	  0.023607215	-1.550650E+02	  0.023607215	2.145000E+00	  0.023607215	-1.103500E+01
20	  0.023807615	-7.230000E-01	  0.023807615	-1.566930E+02	  0.023807615	2.169000E+00	  0.023807615	-1.029300E+01
21	  0.024008015	-7.320000E-01	  0.024008015	-1.583550E+02	  0.024008015	2.184000E+00	  0.024008015	-9.540000E+00
22	  0.024208417	-7.400000E-01	  0.024208417	-1.600270E+02	  0.024208417	2.195000E+00	  0.024208417	-8.787000E+00
23	  0.024408817	-7.490000E-01	  0.024408817	-1.616960E+02	  0.024408817	2.210000E+00	  0.024408817	-8.039000E+00
24	  0.024609219	-7.570000E-01	  0.024609219	-1.633690E+02	  0.024609219	2.226000E+00	  0.024609219	-7.293000E+00
25	  0.024809619	-7.700000E-01	  0.024809619	-1.650410E+02	  0.024809619	2.253000E+00	  0.024809619	-6.551000E+00
26	  0.025010020	-7.810000E-01	  0.025010020	-1.667260E+02	  0.025010020	2.277000E+00	  0.025010020	-5.805000E+00
27	  0.025210422	-7.930000E-01	  0.025210422	-1.684140E+02	  0.025210422	2.305000E+00	  0.025210422	-5.061000E+00
28	  0.025410822	-8.060000E-01	  0.025410822	-1.701120E+02	  0.025410822	2.337000E+00	  0.025410822	-4.315000E+00
29	  0.025611224	-8.200000E-01	  0.025611224	-1.718290E+02	  0.025611224	2.372000E+00	  0.025611224	-3.563000E+00
30	  0.025811624	-8.340000E-01	  0.025811624	-1.735560E+02	  0.025811624	2.408000E+00	  0.025811624	-2.808000E+00
31	  0.026012026	-8.470000E-01	  0.026012026	-1.753010E+02	  0.026012026	2.440000E+00	  0.026012026	-2.046000E+00
32	  0.026212426	-8.630000E-01	  0.026212426	-1.770500E+02	  0.026212426	2.484000E+00	  0.026212426	-1.284000E+00
33	  0.026412826	-8.780000E-01	  0.026412826	-1.788240E+02	  0.026412826	2.528000E+00	  0.026412826	-5.110000E-01
34	  0.026613226	-8.960000E-01	  0.026613226	1.794080E+02	  0.026613226	2.578000E+00	  0.026613226	2.570000E-01
35	  0.026813626	-9.140000E-01	  0.026813626	1.776190E+02	  0.026813626	2.631000E+00	  0.026813626	1.035000E+00
36	  0.027014028	-9.330000E-01	  0.027014028	1.758310E+02	  0.027014028	2.688000E+00	  0.027014028	1.814000E+00
37	  0.027214428	-9.510000E-01	  0.027214428	1.740330E+02	  0.027214428	2.743000E+00	  0.027214428	2.597000E+00
38	  0.027414829	-9.700000E-01	  0.027414829	1.722260E+02	  0.027414829	2.804000E+00	  0.027414829	3.386000E+00
39	  0.027615231	-9.900000E-01	  0.027615231	1.703950E+02	  0.027615231	2.867000E+00	  0.027615231	4.186000E+00
40	  0.027815631	-1.011000E+00	  0.027815631	1.685630E+02	  0.027815631	2.937000E+00	  0.027815631	4.989000E+00
41	  0.028016033	-1.034000E+00	  0.028016033	1.667110E+02	  0.028016033	3.013000E+00	  0.028016033	5.803000E+00
42	  0.028216433	-1.057000E+00	  0.028216433	1.648480E+02	  0.028216433	3.093000E+00	  0.028216433	6.624000E+00
43	  0.028416833	-1.079000E+00	  0.028416833	1.629800E+02	  0.028416833	3.171000E+00	  0.028416833	7.451000E+00
44	  0.028617235	-1.101000E+00	  0.028617235	1.611120E+02	  0.028617235	3.254000E+00	  0.028617235	8.282000E+00
45	  0.028817635	-1.125000E+00	  0.028817635	1.592480E+02	  0.028817635	3.342000E+00	  0.028817635	9.115000E+00
46	  0.029018037	-1.151000E+00	  0.029018037	1.573650E+02	  0.029018037	3.440000E+00	  0.029018037	9.960000E+00
47	  0.029218437	-1.178000E+00	  0.029218437	1.554790E+02	  0.029218437	3.546000E+00	  0.029218437	1.081300E+01
48	  0.029418837	-1.205000E+00	  0.029418837	1.535760E+02	  0.029418837	3.654000E+00	  0.029418837	1.167800E+01
49	  0.029619239	-1.234000E+00	  0.029619239	1.516770E+02	  0.029619239	3.770000E+00	  0.029619239	1.254800E+01
50	  0.029819639	-1.262000E+00	  0.029819639	1.497580E+02	  0.029819639	3.889000E+00	  0.029819639	1.343400E+01
51	  0.030020041	-1.292000E+00	  0.030020041	1.478460E+02	  0.030020041	4.018000E+00	  0.030020041	1.432300E+01
52	  0.030220442	-1.319000E+00	  0.030220442	1.459260E+02	  0.030220442	4.145000E+00	  0.030220442	1.522500E+01
53	  0.030420844	-1.350000E+00	  0.030420844	1.440240E+02	  0.030420844	4.285000E+00	  0.030420844	1.612600E+01
54	  0.030621244	-1.383000E+00	  0.030621244	1.421230E+02	  0.030621244	4.437000E+00	  0.030621244	1.703500E+01
55	  0.030821642	-1.416000E+00	  0.030821642	1.402000E+02	  0.030821642	4.597000E+00	  0.030821642	1.796400E+01
56	  0.031022044	-1.452000E+00	  0.031022044	1.382570E+02	  0.031022044	4.771000E+00	  0.031022044	1.891200E+01
57	  0.031222444	-1.485000E+00	  0.031222444	1.363190E+02	  0.031222444	4.943000E+00	  0.031222444	1.987000E+01
58	  0.031422846	-1.520000E+00	  0.031422846	1.343680E+02	  0.031422846	5.130000E+00	  0.031422846	2.084500E+01
59	  0.031623244	-1.557000E+00	  0.031623244	1.324000E+02	  0.031623244	5.332000E+00	  0.031623244	2.184100E+01
60	  0.031823646	-1.596000E+00	  0.031823646	1.304350E+02	  0.031823646	5.547000E+00	  0.031823646	2.285000E+01
61	  0.032024048	-1.635000E+00	  0.032024048	1.284570E+02	  0.032024048	5.775000E+00	  0.032024048	2.387800E+01
62	  0.032224450	-1.673000E+00	  0.032224450	1.264770E+02	  0.032224450	6.008000E+00	  0.032224450	2.492300E+01
63	  0.032424849	-1.712000E+00	  0.032424849	1.245010E+02	  0.032424849	6.257000E+00	  0.032424849	2.598100E+01
64	  0.032625251	-1.753000E+00	  0.032625251	1.224760E+02	  0.032625251	6.524000E+00	  0.032625251	2.708400E+01
65	  0.032825653	-1.794000E+00	  0.032825653	1.204480E+02	  0.032825653	6.809000E+00	  0.032825653	2.820600E+01
66	  0.033026051	-1.834000E+00	  0.033026051	1.183980E+02	  0.033026051	7.101000E+00	  0.033026051	2.936100E+01
67	  0.033226453	-1.876000E+00	  0.033226453	1.163680E+02	  0.033226453	7.416000E+00	  0.033226453	3.052500E+01
68	  0.033426855	-1.920000E+00	  0.033426855	1.143290E+02	  0.033426855	7.758000E+00	  0.033426855	3.171400E+01
69	  0.033627257	-1.963000E+00	  0.033627257	1.122830E+02	  0.033627257	8.115000E+00	  0.033627257	3.293200E+01
70	  0.033827655	-2.008000E+00	  0.033827655	1.102480E+02	  0.033827655	8.495000E+00	  0.033827655	3.416700E+01
71	  0.034028057	-2.051000E+00	  0.034028057	1.081870E+02	  0.034028057	8.895000E+00	  0.034028057	3.544400E+01
72	  0.034228459	-2.100000E+00	  0.034228459	1.061070E+02	  0.034228459	9.341000E+00	  0.034228459	3.675900E+01
73	  0.034428857	-2.147000E+00	  0.034428857	1.040250E+02	  0.034428857	9.807000E+00	  0.034428857	3.810400E+01
74	  0.034629259	-2.194000E+00	  0.034629259	1.019260E+02	  0.034629259	1.030600E+01	  0.034629259	3.949200E+01
75	  0.034829661	-2.242000E+00	  0.034829661	9.983600E+01	  0.034829661	1.083700E+01	  0.034829661	4.090500E+01
76	  0.035030060	-2.293000E+00	  0.035030060	9.773800E+01	  0.035030060	1.141700E+01	  0.035030060	4.235600E+01
77	  0.035230462	-2.345000E+00	  0.035230462	9.564400E+01	  0.035230462	1.203800E+01	  0.035230462	4.383800E+01
78	  0.035430863	-2.396000E+00	  0.035430863	9.355800E+01	  0.035430863	1.269400E+01	  0.035430863	4.535100E+01
79	  0.035631265	-2.449000E+00	  0.035631265	9.147600E+01	  0.035631265	1.340800E+01	  0.035631265	4.689700E+01
80	  0.035831664	-2.498000E+00	  0.035831664	8.939000E+01	  0.035831664	1.414500E+01	  0.035831664	4.849200E+01
81	  0.036032066	-2.553000E+00	  0.036032066	8.728300E+01	  0.036032066	1.497000E+01	  0.036032066	5.013700E+01
82	  0.036232468	-2.607000E+00	  0.036232468	8.521900E+01	  0.036232468	1.583600E+01	  0.036232468	5.179100E+01
83	  0.036432866	-2.659000E+00	  0.036432866	8.312600E+01	  0.036432866	1.676500E+01	  0.036432866	5.351600E+01
84	  0.036633268	-2.713000E+00	  0.036633268	8.105600E+01	  0.036633268	1.776400E+01	  0.036633268	5.526300E+01
85	  0.036833670	-2.771000E+00	  0.036833670	7.897800E+01	  0.036833670	1.886600E+01	  0.036833670	5.705500E+01
86	  0.037034072	-2.827000E+00	  0.037034072	7.689300E+01	  0.037034072	2.003800E+01	  0.037034072	5.890600E+01
87	  0.037234470	-2.884000E+00	  0.037234470	7.480800E+01	  0.037234470	2.130700E+01	  0.037234470	6.080300E+01
88	  0.037434869	-2.942000E+00	  0.037434869	7.271200E+01	  0.037434869	2.269200E+01	  0.037434869	6.275400E+01
89	  0.037635271	-3.008000E+00	  0.037635271	7.060600E+01	  0.037635271	2.424800E+01	  0.037635271	6.473700E+01
90	  0.037835669	-3.086000E+00	  0.037835669	6.857000E+01	  0.037835669	2.597300E+01	  0.037835669	6.664000E+01
91	  0.038036071	-3.153000E+00	  0.038036071	6.659400E+01	  0.038036071	2.771400E+01	  0.038036071	6.854900E+01
92	  0.038236473	-3.208000E+00	  0.038236473	6.461800E+01	  0.038236473	2.950100E+01	  0.038236473	7.054500E+01
93	  0.038436871	-3.262000E+00	  0.038436871	6.260000E+01	  0.038436871	3.145200E+01	  0.038436871	7.263300E+01
94	  0.038637273	-3.316000E+00	  0.038637273	6.056300E+01	  0.038637273	3.358600E+01	  0.038637273	7.477700E+01
95	  0.038837675	-3.371000E+00	  0.038837675	5.850300E+01	  0.038837675	3.592800E+01	  0.038837675	7.697800E+01
96	  0.039038073	-3.421000E+00	  0.039038073	5.649900E+01	  0.039038073	3.837200E+01	  0.039038073	7.916900E+01
97	  0.039238475	-3.478000E+00	  0.039238475	5.443300E+01	  0.039238475	4.115800E+01	  0.039238475	8.140400E+01
98	  0.039438877	-3.530000E+00	  0.039438877	5.241600E+01	  0.039438877	4.407800E+01	  0.039438877	8.362400E+01
99	  0.039639279	-3.583000E+00	  0.039639279	5.038200E+01	  0.039639279	4.729300E+01	  0.039639279	8.584700E+01
100	  0.039839678	-3.636000E+00	  0.039839678	4.832000E+01	  0.039839678	5.083000E+01	  0.039839678	8.808200E+01
101	  0.040040080	-3.689000E+00	  0.040040080	4.626100E+01	  0.040040080	5.467600E+01	  0.040040080	9.026900E+01
102	  0.040240481	-3.738000E+00	  0.040240481	4.421900E+01	  0.040240481	5.880300E+01	  0.040240481	9.239600E+01
103	  0.040440880	-3.789000E+00	  0.040440880	4.218500E+01	  0.040440880	6.328800E+01	  0.040440880	9.439200E+01
104	  0.040641282	-3.840000E+00	  0.040641282	4.015100E+01	  0.040641282	6.816200E+01	  0.040641282	9.623700E+01
105	  0.040841684	-3.889000E+00	  0.040841684	3.812800E+01	  0.040841684	7.340600E+01	  0.040841684	9.789900E+01
106	  0.041042086	-3.940000E+00	  0.041042086	3.610500E+01	  0.041042086	7.908600E+01	  0.041042086	9.929000E+01
107	  0.041242484	-3.992000E+00	  0.041242484	3.406700E+01	  0.041242484	8.526600E+01	  0.041242484	1.003400E+02
108	  0.041442886	-4.038000E+00	  0.041442886	3.201900E+01	  0.041442886	9.189800E+01	  0.041442886	1.011100E+02
109	  0.041643288	-4.085000E+00	  0.041643288	2.998400E+01	  0.041643288	9.896100E+01	  0.041643288	1.013600E+02
110	  0.041843686	-4.130000E+00	  0.041843686	2.793700E+01	  0.041843686	1.065070E+02	  0.041843686	1.010660E+02
111	  0.042044088	-4.177000E+00	  0.042044088	2.590400E+01	  0.042044088	1.144140E+02	  0.042044088	1.000340E+02
112	  0.042244490	-4.222000E+00	  0.042244490	2.388600E+01	  0.042244490	1.226010E+02	  0.042244490	9.820000E+01
113	  0.042444889	-4.267000E+00	  0.042444889	2.188100E+01	  0.042444889	1.309820E+02	  0.042444889	9.546500E+01
114	  0.042645290	-4.312000E+00	  0.042645290	1.986200E+01	  0.042645290	1.395510E+02	  0.042645290	9.169400E+01
115	  0.042845692	-4.355000E+00	  0.042845692	1.785200E+01	  0.042845692	1.480540E+02	  0.042845692	8.682600E+01
116	  0.043046094	-4.399000E+00	  0.043046094	1.585700E+01	  0.043046094	1.562570E+02	  0.043046094	8.079900E+01
117	  0.043246493	-4.442000E+00	  0.043246493	1.382600E+01	  0.043246493	1.641670E+02	  0.043246493	7.346200E+01
118	  0.043446895	-4.482000E+00	  0.043446895	1.185600E+01	  0.043446895	1.712290E+02	  0.043446895	6.524200E+01
119	  0.043647297	-4.521000E+00	  0.043647297	9.861000E+00	  0.043647297	1.774950E+02	  0.043647297	5.583700E+01
120	  0.043847695	-4.565000E+00	  0.043847695	7.893000E+00	  0.043847695	1.823830E+02	  0.043847695	4.552300E+01
121	  0.044048097	-4.604000E+00	  0.044048097	5.919000E+00	  0.044048097	1.861390E+02	  0.044048097	3.456800E+01
122	  0.044248499	-4.644000E+00	  0.044248499	3.950000E+00	  0.044248499	1.883790E+02	  0.044248499	2.314800E+01
123	  0.044448901	-4.684000E+00	  0.044448901	2.006000E+00	  0.044448901	1.891220E+02	  0.044448901	1.170300E+01
124	  0.044649299	-4.724000E+00	  0.044649299	5.500000E-02	  0.044649299	1.883610E+02	  0.044649299	3.210000E-01
125	  0.044849701	-4.764000E+00	  0.044849701	-1.886000E+00	  0.044849701	1.861820E+02	  0.044849701	-1.062900E+01
126	  0.045050103	-4.802000E+00	  0.045050103	-3.814000E+00	  0.045050103	1.828570E+02	  0.045050103	-2.092000E+01
127	  0.045250501	-4.838000E+00	  0.045250501	-5.746000E+00	  0.045250501	1.784930E+02	  0.045250501	-3.048200E+01
128	  0.045450903	-4.874000E+00	  0.045450903	-7.655000E+00	  0.045450903	1.732930E+02	  0.045450903	-3.905400E+01
129	  0.045651305	-4.910000E+00	  0.045651305	-9.583000E+00	  0.045651305	1.673330E+02	  0.045651305	-4.674500E+01
130	  0.045851704	-4.944000E+00	  0.045851704	-1.146400E+01	  0.045851704	1.610650E+02	  0.045851704	-5.330600E+01
131	  0.046052102	-4.980000E+00	  0.046052102	-1.336200E+01	  0.046052102	1.544150E+02	  0.046052102	-5.895700E+01
132	  0.046252504	-5.016000E+00	  0.046252504	-1.523000E+01	  0.046252504	1.476720E+02	  0.046252504	-6.357100E+01
133	  0.046452906	-5.052000E+00	  0.046452906	-1.709200E+01	  0.046452906	1.409520E+02	  0.046452906	-6.735500E+01
134	  0.046653304	-5.090000E+00	  0.046653304	-1.897000E+01	  0.046653304	1.342210E+02	  0.046653304	-7.034700E+01
135	  0.046853706	-5.126000E+00	  0.046853706	-2.081500E+01	  0.046853706	1.277980E+02	  0.046853706	-7.265500E+01
136	  0.047054108	-5.162000E+00	  0.047054108	-2.266700E+01	  0.047054108	1.215510E+02	  0.047054108	-7.435500E+01
137	  0.047254506	-5.196000E+00	  0.047254506	-2.450800E+01	  0.047254506	1.156060E+02	  0.047254506	-7.556300E+01
138	  0.047454908	-5.232000E+00	  0.047454908	-2.632600E+01	  0.047454908	1.099860E+02	  0.047454908	-7.626900E+01
139	  0.047655310	-5.266000E+00	  0.047655310	-2.813100E+01	  0.047655310	1.046910E+02	  0.047655310	-7.662000E+01
140	  0.047855709	-5.299000E+00	  0.047855709	-2.991100E+01	  0.047855709	9.974200E+01	  0.047855709	-7.667100E+01
141	  0.048056111	-5.334000E+00	  0.048056111	-3.168200E+01	  0.048056111	9.508700E+01	  0.048056111	-7.641400E+01
142	  0.048256513	-5.367000E+00	  0.048256513	-3.345700E+01	  0.048256513	9.069100E+01	  0.048256513	-7.597800E+01
143	  0.048456915	-5.398000E+00	  0.048456915	-3.520800E+01	  0.048456915	8.660300E+01	  0.048456915	-7.538600E+01
144	  0.048657313	-5.428000E+00	  0.048657313	-3.698000E+01	  0.048657313	8.270700E+01	  0.048657313	-7.465500E+01
145	  0.048857715	-5.459000E+00	  0.048857715	-3.873100E+01	  0.048857715	7.909000E+01	  0.048857715	-7.378000E+01
146	  0.049058117	-5.486000E+00	  0.049058117	-4.051000E+01	  0.049058117	7.562900E+01	  0.049058117	-7.283800E+01
147	  0.049258515	-5.514000E+00	  0.049258515	-4.224400E+01	  0.049258515	7.246000E+01	  0.049258515	-7.181000E+01
148	  0.049458917	-5.541000E+00	  0.049458917	-4.395000E+01	  0.049458917	6.952700E+01	  0.049458917	-7.073300E+01
149	  0.049659319	-5.570000E+00	  0.049659319	-4.566400E+01	  0.049659319	6.675800E+01	  0.049659319	-6.958700E+01
150	  0.049859721	-5.598000E+00	  0.049859721	-4.736300E+01	  0.049859721	6.417600E+01	  0.049859721	-6.841400E+01
151	  0.050060119	-5.623000E+00	  0.050060119	-4.905900E+01	  0.050060119	6.173900E+01	  0.050060119	-6.723500E+01
152	  0.050260521	-5.646000E+00	  0.050260521	-5.073900E+01	  0.050260521	5.945600E+01	  0.050260521	-6.606600E+01
153	  0.050460923	-5.667000E+00	  0.050460923	-5.244200E+01	  0.050460923	5.726600E+01	  0.050460923	-6.487800E+01
154	  0.050661322	-5.689000E+00	  0.050661322	-5.412800E+01	  0.050661322	5.522700E+01	  0.050661322	-6.367400E+01
155	  0.050861724	-5.706000E+00	  0.050861724	-5.577700E+01	  0.050861724	5.332500E+01	  0.050861724	-6.252300E+01
156	  0.051062126	-5.729000E+00	  0.051062126	-5.741300E+01	  0.051062126	5.156600E+01	  0.051062126	-6.132400E+01
157	  0.051262524	-5.748000E+00	  0.051262524	-5.903400E+01	  0.051262524	4.990000E+01	  0.051262524	-6.016800E+01
158	  0.051462926	-5.769000E+00	  0.051462926	-6.064600E+01	  0.051462926	4.834500E+01	  0.051462926	-5.899700E+01
159	  0.051663328	-5.783000E+00	  0.051663328	-6.226600E+01	  0.051663328	4.683000E+01	  0.051663328	-5.787800E+01
160	  0.051863730	-5.803000E+00	  0.051863730	-6.387700E+01	  0.051863730	4.542600E+01	  0.051863730	-5.673000E+01
161	  0.052064128	-5.813000E+00	  0.052064128	-6.545900E+01	  0.052064128	4.408200E+01	  0.052064128	-5.566000E+01
162	  0.052264530	-5.825000E+00	  0.052264530	-6.704600E+01	  0.052264530	4.280500E+01	  0.052264530	-5.458300E+01
163	  0.052464932	-5.838000E+00	  0.052464932	-6.858100E+01	  0.052464932	4.163700E+01	  0.052464932	-5.354000E+01
164	  0.052665330	-5.855000E+00	  0.052665330	-7.012300E+01	  0.052665330	4.053600E+01	  0.052665330	-5.247900E+01
165	  0.052865732	-5.866000E+00	  0.052865732	-7.164200E+01	  0.052865732	3.947700E+01	  0.052865732	-5.147400E+01
166	  0.053066134	-5.881000E+00	  0.053066134	-7.316300E+01	  0.053066134	3.848400E+01	  0.053066134	-5.045600E+01
167	  0.053266536	-5.894000E+00	  0.053266536	-7.465900E+01	  0.053266536	3.754500E+01	  0.053266536	-4.947200E+01
168	  0.053466935	-5.908000E+00	  0.053466935	-7.615300E+01	  0.053466935	3.665700E+01	  0.053466935	-4.849100E+01
169	  0.053667337	-5.919000E+00	  0.053667337	-7.764400E+01	  0.053667337	3.579400E+01	  0.053667337	-4.754000E+01
170	  0.053867739	-5.928000E+00	  0.053867739	-7.911700E+01	  0.053867739	3.497200E+01	  0.053867739	-4.661600E+01
171	  0.054068137	-5.942000E+00	  0.054068137	-8.058900E+01	  0.054068137	3.421000E+01	  0.054068137	-4.568100E+01
172	  0.054268539	-5.951000E+00	  0.054268539	-8.203700E+01	  0.054268539	3.347000E+01	  0.054268539	-4.479100E+01
173	  0.054468941	-5.965000E+00	  0.054468941	-8.345700E+01	  0.054468941	3.279800E+01	  0.054468941	-4.390600E+01
174	  0.054669335	-5.979000E+00	  0.054669335	-8.487200E+01	  0.054669335	3.215300E+01	  0.054669335	-4.303800E+01
175	  0.054869737	-5.991000E+00	  0.054869737	-8.628200E+01	  0.054869737	3.152900E+01	  0.054869737	-4.219000E+01
176	  0.055070139	-6.005000E+00	  0.055070139	-8.772700E+01	  0.055070139	3.092500E+01	  0.055070139	-4.132300E+01
177	  0.055270538	-6.016000E+00	  0.055270538	-8.910300E+01	  0.055270538	3.036400E+01	  0.055270538	-4.051400E+01
178	  0.055470940	-6.026000E+00	  0.055470940	-9.052200E+01	  0.055470940	2.980300E+01	  0.055470940	-3.969300E+01
179	  0.055671342	-6.036000E+00	  0.055671342	-9.191000E+01	  0.055671342	2.927700E+01	  0.055671342	-3.889800E+01
180	  0.055871744	-6.045000E+00	  0.055871744	-9.330800E+01	  0.055871744	2.876700E+01	  0.055871744	-3.810700E+01
181	  0.056072142	-6.053000E+00	  0.056072142	-9.471700E+01	  0.056072142	2.826600E+01	  0.056072142	-3.732200E+01
182	  0.056272544	-6.066000E+00	  0.056272544	-9.607400E+01	  0.056272544	2.781900E+01	  0.056272544	-3.656400E+01
183	  0.056472946	-6.076000E+00	  0.056472946	-9.743600E+01	  0.056472946	2.738200E+01	  0.056472946	-3.581400E+01
184	  0.056673344	-6.085000E+00	  0.056673344	-9.877800E+01	  0.056673344	2.696000E+01	  0.056673344	-3.508900E+01
185	  0.056873746	-6.093000E+00	  0.056873746	-1.001370E+02	  0.056873746	2.654800E+01	  0.056873746	-3.436200E+01
186	  0.057074148	-6.099000E+00	  0.057074148	-1.015280E+02	  0.057074148	2.613300E+01	  0.057074148	-3.363100E+01
187	  0.057274550	-6.105000E+00	  0.057274550	-1.028810E+02	  0.057274550	2.574500E+01	  0.057274550	-3.292600E+01
188	  0.057474948	-6.114000E+00	  0.057474948	-1.042370E+02	  0.057474948	2.538200E+01	  0.057474948	-3.222000E+01
189	  0.057675350	-6.118000E+00	  0.057675350	-1.055670E+02	  0.057675350	2.502300E+01	  0.057675350	-3.154400E+01
190	  0.057875752	-6.125000E+00	  0.057875752	-1.069090E+02	  0.057875752	2.468000E+01	  0.057875752	-3.086300E+01
191	  0.058076151	-6.127000E+00	  0.058076151	-1.082320E+02	  0.058076151	2.434300E+01	  0.058076151	-3.020600E+01
192	  0.058276553	-6.132000E+00	  0.058276553	-1.095360E+02	  0.058276553	2.403100E+01	  0.058276553	-2.955700E+01
193	  0.058476955	-6.135000E+00	  0.058476955	-1.108460E+02	  0.058476955	2.372000E+01	  0.058476955	-2.891600E+01
194	  0.058677353	-6.139000E+00	  0.058677353	-1.121590E+02	  0.058677353	2.342300E+01	  0.058677353	-2.827800E+01
195	  0.058877755	-6.138000E+00	  0.058877755	-1.134520E+02	  0.058877755	2.312800E+01	  0.058877755	-2.766000E+01
196	  0.059078157	-6.137000E+00	  0.059078157	-1.147230E+02	  0.059078157	2.284400E+01	  0.059078157	-2.705900E+01
197	  0.059278559	-6.135000E+00	  0.059278559	-1.159960E+02	  0.059278559	2.256900E+01	  0.059278559	-2.646100E+01
198	  0.059478957	-6.136000E+00	  0.059478957	-1.172690E+02	  0.059478957	2.231200E+01	  0.059478957	-2.586400E+01
199	  0.059679359	-6.137000E+00	  0.059679359	-1.185160E+02	  0.059679359	2.206500E+01	  0.059679359	-2.528400E+01
200	  0.059879761	-6.139000E+00	  0.059879761	-1.197350E+02	  0.059879761	2.183800E+01	  0.059879761	-2.471900E+01
201	  0.060080159	-6.136000E+00	  0.060080159	-1.209740E+02	  0.060080159	2.160200E+01	  0.060080159	-2.415400E+01
202	  0.060280561	-6.138000E+00	  0.060280561	-1.221840E+02	  0.060280561	2.139000E+01	  0.060280561	-2.360100E+01
203	  0.060480963	-6.139000E+00	  0.060480963	-1.234030E+02	  0.060480963	2.118200E+01	  0.060480963	-2.304900E+01
204	  0.060681365	-6.136000E+00	  0.060681365	-1.245980E+02	  0.060681365	2.097400E+01	  0.060681365	-2.251500E+01
205	  0.060881764	-6.133000E+00	  0.060881764	-1.258050E+02	  0.060881764	2.076900E+01	  0.060881764	-2.197900E+01
206	  0.061082166	-6.134000E+00	  0.061082166	-1.269910E+02	  0.061082166	2.058400E+01	  0.061082166	-2.145200E+01
207	  0.061282568	-6.132000E+00	  0.061282568	-1.281950E+02	  0.061282568	2.039700E+01	  0.061282568	-2.092200E+01
208	  0.061482966	-6.135000E+00	  0.061482966	-1.293410E+02	  0.061482966	2.023600E+01	  0.061482966	-2.041700E+01
209	  0.061683368	-6.134000E+00	  0.061683368	-1.305190E+02	  0.061683368	2.006800E+01	  0.061683368	-1.990300E+01
210	  0.061883770	-6.133000E+00	  0.061883770	-1.316640E+02	  0.061883770	1.990900E+01	  0.061883770	-1.940700E+01
211	  0.062084168	-6.136000E+00	  0.062084168	-1.328280E+02	  0.062084168	1.976200E+01	  0.062084168	-1.890200E+01
212	  0.062284570	-6.135000E+00	  0.062284570	-1.339740E+02	  0.062284570	1.961200E+01	  0.062284570	-1.841100E+01
213	  0.062484972	-6.133000E+00	  0.062484972	-1.351110E+02	  0.062484972	1.946400E+01	  0.062484972	-1.792700E+01
214	  0.062685370	-6.132000E+00	  0.062685370	-1.362620E+02	  0.062685370	1.932500E+01	  0.062685370	-1.743800E+01
215	  0.062885776	-6.134000E+00	  0.062885776	-1.374000E+02	  0.062885776	1.920000E+01	  0.062885776	-1.695500E+01
216	  0.063086174	-6.133000E+00	  0.063086174	-1.385240E+02	  0.063086174	1.907000E+01	  0.063086174	-1.648200E+01
217	  0.063286573	-6.136000E+00	  0.063286573	-1.396820E+02	  0.063286573	1.895400E+01	  0.063286573	-1.599500E+01
218	  0.063486971	-6.134000E+00	  0.063486971	-1.408230E+02	  0.063486971	1.883100E+01	  0.063486971	-1.551900E+01
219	  0.063687377	-6.136000E+00	  0.063687377	-1.419060E+02	  0.063687377	1.872800E+01	  0.063687377	-1.506800E+01
220	  0.063887775	-6.135000E+00	  0.063887775	-1.430290E+02	  0.063887775	1.861400E+01	  0.063887775	-1.460400E+01
221	  0.064088173	-6.135000E+00	  0.064088173	-1.441790E+02	  0.064088173	1.850900E+01	  0.064088173	-1.413000E+01
222	  0.064288579	-6.136000E+00	  0.064288579	-1.453250E+02	  0.064288579	1.841000E+01	  0.064288579	-1.365900E+01
223	  0.064488977	-6.140000E+00	  0.064488977	-1.464410E+02	  0.064488977	1.832200E+01	  0.064488977	-1.320000E+01
224	  0.064689375	-6.143000E+00	  0.064689375	-1.475710E+02	  0.064689375	1.823700E+01	  0.064689375	-1.273800E+01
225	  0.064889781	-6.141000E+00	  0.064889781	-1.487170E+02	  0.064889781	1.814200E+01	  0.064889781	-1.227400E+01
226	  0.065090179	-6.142000E+00	  0.065090179	-1.498130E+02	  0.065090179	1.806000E+01	  0.065090179	-1.183000E+01
227	  0.065290578	-6.141000E+00	  0.065290578	-1.508990E+02	  0.065290578	1.797800E+01	  0.065290578	-1.139300E+01
228	  0.065490983	-6.138000E+00	  0.065490983	-1.520410E+02	  0.065490983	1.789100E+01	  0.065490983	-1.093500E+01
229	  0.065691382	-6.138000E+00	  0.065691382	-1.531530E+02	  0.065691382	1.781600E+01	  0.065691382	-1.049000E+01
230	  0.065891780	-6.137000E+00	  0.065891780	-1.542780E+02	  0.065891780	1.774300E+01	  0.065891780	-1.004000E+01
231	  0.066092186	-6.138000E+00	  0.066092186	-1.553650E+02	  0.066092186	1.767900E+01	  0.066092186	-9.607000E+00
232	  0.066292584	-6.132000E+00	  0.066292584	-1.564550E+02	  0.066292584	1.760100E+01	  0.066292584	-9.176000E+00
233	  0.066492982	-6.130000E+00	  0.066492982	-1.575560E+02	  0.066492982	1.753500E+01	  0.066492982	-8.740000E+00
234	  0.066693388	-6.130000E+00	  0.066693388	-1.586300E+02	  0.066693388	1.747800E+01	  0.066693388	-8.316000E+00
235	  0.066893786	-6.126000E+00	  0.066893786	-1.596870E+02	  0.066893786	1.741500E+01	  0.066893786	-7.900000E+00
236	  0.067094192	-6.124000E+00	  0.067094192	-1.607880E+02	  0.067094192	1.736100E+01	  0.067094192	-7.467000E+00
237	  0.067294590	-6.125000E+00	  0.067294590	-1.618540E+02	  0.067294590	1.731500E+01	  0.067294590	-7.047000E+00
238	  0.067494988	-6.120000E+00	  0.067494988	-1.629010E+02	  0.067494988	1.725900E+01	  0.067494988	-6.638000E+00
239	  0.067695394	-6.117000E+00	  0.067695394	-1.639790E+02	  0.067695394	1.721000E+01	  0.067695394	-6.216000E+00
240	  0.067895792	-6.119000E+00	  0.067895792	-1.650420E+02	  0.067895792	1.717700E+01	  0.067895792	-5.800000E+00
241	  0.068096191	-6.115000E+00	  0.068096191	-1.660900E+02	  0.068096191	1.713200E+01	  0.068096191	-5.392000E+00
242	  0.068296596	-6.110000E+00	  0.068296596	-1.671340E+02	  0.068296596	1.708600E+01	  0.068296596	-4.986000E+00
243	  0.068496995	-6.114000E+00	  0.068496995	-1.681580E+02	  0.068496995	1.706600E+01	  0.068496995	-4.587000E+00
244	  0.068697393	-6.111000E+00	  0.068697393	-1.691980E+02	  0.068697393	1.703100E+01	  0.068697393	-4.182000E+00
245	  0.068897791	-6.106000E+00	  0.068897791	-1.702260E+02	  0.068897791	1.699500E+01	  0.068897791	-3.783000E+00
246	  0.069098189	-6.102000E+00	  0.069098189	-1.712860E+02	  0.069098189	1.696300E+01	  0.069098189	-3.373000E+00
247	  0.069298595	-6.100000E+00	  0.069298595	-1.722890E+02	  0.069298595	1.693800E+01	  0.069298595	-2.984000E+00
248	  0.069498993	-6.100000E+00	  0.069498993	-1.733490E+02	  0.069498993	1.692100E+01	  0.069498993	-2.573000E+00
249	  0.069699399	-6.101000E+00	  0.069699399	-1.743700E+02	  0.069699399	1.690800E+01	  0.069699399	-2.177000E+00
250	  0.069899797	-6.101000E+00	  0.069899797	-1.753520E+02	  0.069899797	1.689700E+01	  0.069899797	-1.797000E+00
251	  0.070100196	-6.101000E+00	  0.070100196	-1.763550E+02	  0.070100196	1.688700E+01	  0.070100196	-1.409000E+00
252	  0.070300601	-6.105000E+00	  0.070300601	-1.773560E+02	  0.070300601	1.689200E+01	  0.070300601	-1.022000E+00
253	  0.070501000	-6.101000E+00	  0.070501000	-1.783540E+02	  0.070501000	1.687600E+01	  0.070501000	-6.360000E-01
254	  0.070701398	-6.101000E+00	  0.070701398	-1.793520E+02	  0.070701398	1.687400E+01	  0.070701398	-2.500000E-01
255	  0.070901804	-6.105000E+00	  0.070901804	1.796450E+02	  0.070901804	1.688200E+01	  0.070901804	1.360000E-01
256	  0.071102202	-6.108000E+00	  0.071102202	1.786430E+02	  0.071102202	1.689400E+01	  0.071102202	5.240000E-01
257	  0.071302600	-6.109000E+00	  0.071302600	1.776570E+02	  0.071302600	1.689800E+01	  0.071302600	9.050000E-01
258	  0.071503006	-6.116000E+00	  0.071503006	1.766520E+02	  0.071503006	1.692300E+01	  0.071503006	1.293000E+00
259	  0.071703404	-6.116000E+00	  0.071703404	1.756530E+02	  0.071703404	1.693400E+01	  0.071703404	1.680000E+00
260	  0.071903802	-6.122000E+00	  0.071903802	1.746740E+02	  0.071903802	1.695900E+01	  0.071903802	2.058000E+00
261	  0.072104208	-6.126000E+00	  0.072104208	1.736930E+02	  0.072104208	1.698200E+01	  0.072104208	2.437000E+00
262	  0.072304606	-6.131000E+00	  0.072304606	1.726960E+02	  0.072304606	1.701000E+01	  0.072304606	2.823000E+00
263	  0.072505005	-6.132000E+00	  0.072505005	1.717210E+02	  0.072505005	1.703100E+01	  0.072505005	3.200000E+00
264	  0.072705410	-6.138000E+00	  0.072705410	1.707380E+02	  0.072705410	1.706500E+01	  0.072705410	3.580000E+00
265	  0.072905809	-6.142000E+00	  0.072905809	1.697570E+02	  0.072905809	1.709900E+01	  0.072905809	3.960000E+00
266	  0.073106214	-6.151000E+00	  0.073106214	1.687590E+02	  0.073106214	1.714500E+01	  0.073106214	4.346000E+00
267	  0.073306613	-6.159000E+00	  0.073306613	1.677840E+02	  0.073306613	1.719200E+01	  0.073306613	4.724000E+00
268	  0.073507011	-6.164000E+00	  0.073507011	1.668000E+02	  0.073507011	1.723500E+01	  0.073507011	5.105000E+00
269	  0.073707417	-6.169000E+00	  0.073707417	1.658400E+02	  0.073707417	1.727900E+01	  0.073707417	5.477000E+00
270	  0.073907815	-6.174000E+00	  0.073907815	1.648570E+02	  0.073907815	1.732500E+01	  0.073907815	5.860000E+00
271	  0.074108213	-6.183000E+00	  0.074108213	1.638930E+02	  0.074108213	1.738200E+01	  0.074108213	6.234000E+00
272	  0.074308619	-6.192000E+00	  0.074308619	1.629200E+02	  0.074308619	1.744400E+01	  0.074308619	6.611000E+00
273	  0.074509017	-6.200000E+00	  0.074509017	1.619360E+02	  0.074509017	1.750500E+01	  0.074509017	6.994000E+00
274	  0.074709415	-6.203000E+00	  0.074709415	1.609910E+02	  0.074709415	1.755500E+01	  0.074709415	7.363000E+00
275	  0.074909821	-6.214000E+00	  0.074909821	1.600160E+02	  0.074909821	1.762800E+01	  0.074909821	7.742000E+00
276	  0.075110219	-6.223000E+00	  0.075110219	1.590630E+02	  0.075110219	1.769900E+01	  0.075110219	8.114000E+00
277	  0.075310618	-6.229000E+00	  0.075310618	1.581220E+02	  0.075310618	1.776200E+01	  0.075310618	8.482000E+00
278	  0.075511023	-6.238000E+00	  0.075511023	1.571900E+02	  0.075511023	1.783500E+01	  0.075511023	8.846000E+00
279	  0.075711422	-6.244000E+00	  0.075711422	1.562560E+02	  0.075711422	1.790300E+01	  0.075711422	9.213000E+00
280	  0.075911827	-6.255000E+00	  0.075911827	1.553090E+02	  0.075911827	1.798800E+01	  0.075911827	9.583000E+00
281	  0.076112226	-6.261000E+00	  0.076112226	1.543510E+02	  0.076112226	1.806400E+01	  0.076112226	9.960000E+00
282	  0.076312624	-6.273000E+00	  0.076312624	1.534330E+02	  0.076312624	1.815500E+01	  0.076312624	1.031900E+01
283	  0.076513030	-6.286000E+00	  0.076513030	1.525100E+02	  0.076513030	1.824900E+01	  0.076513030	1.068100E+01
284	  0.076713428	-6.293000E+00	  0.076713428	1.515540E+02	  0.076713428	1.833400E+01	  0.076713428	1.105900E+01
285	  0.076913826	-6.302000E+00	  0.076913826	1.506600E+02	  0.076913826	1.842200E+01	  0.076913826	1.141200E+01
286	  0.077114232	-6.312000E+00	  0.077114232	1.497480E+02	  0.077114232	1.851700E+01	  0.077114232	1.177200E+01
287	  0.077314630	-6.327000E+00	  0.077314630	1.488520E+02	  0.077314630	1.862500E+01	  0.077314630	1.212400E+01
288	  0.077515028	-6.338000E+00	  0.077515028	1.479080E+02	  0.077515028	1.873200E+01	  0.077515028	1.249700E+01
289	  0.077715434	-6.351000E+00	  0.077715434	1.470220E+02	  0.077715434	1.883900E+01	  0.077715434	1.284700E+01
290	  0.077915832	-6.364000E+00	  0.077915832	1.461200E+02	  0.077915832	1.895200E+01	  0.077915832	1.320300E+01
291	  0.078116231	-6.376000E+00	  0.078116231	1.452340E+02	  0.078116231	1.906200E+01	  0.078116231	1.355500E+01
292	  0.078316636	-6.388000E+00	  0.078316636	1.443470E+02	  0.078316636	1.917500E+01	  0.078316636	1.390700E+01
293	  0.078517035	-6.403000E+00	  0.078517035	1.434460E+02	  0.078517035	1.930100E+01	  0.078517035	1.426400E+01
294	  0.078717433	-6.418000E+00	  0.078717433	1.425750E+02	  0.078717433	1.942600E+01	  0.078717433	1.460900E+01
295	  0.078917839	-6.436000E+00	  0.078917839	1.417270E+02	  0.078917839	1.955800E+01	  0.078917839	1.494400E+01
296	  0.079118237	-6.447000E+00	  0.079118237	1.408310E+02	  0.079118237	1.968200E+01	  0.079118237	1.530200E+01
297	  0.079318643	-6.467000E+00	  0.079318643	1.399770E+02	  0.079318643	1.982700E+01	  0.079318643	1.563900E+01
298	  0.079519041	-6.482000E+00	  0.079519041	1.391170E+02	  0.079519041	1.996300E+01	  0.079519041	1.598100E+01
299	  0.079719439	-6.500000E+00	  0.079719439	1.382850E+02	  0.079719439	2.010500E+01	  0.079719439	1.631000E+01
300	  0.079919845	-6.520000E+00	  0.079919845	1.374010E+02	  0.079919845	2.026200E+01	  0.079919845	1.665900E+01
301	  0.080120243	-6.538000E+00	  0.080120243	1.365660E+02	  0.080120243	2.041100E+01	  0.080120243	1.699100E+01
302	  0.080320641	-6.555000E+00	  0.080320641	1.357100E+02	  0.080320641	2.056400E+01	  0.080320641	1.733200E+01
303	  0.080521047	-6.574000E+00	  0.080521047	1.348820E+02	  0.080521047	2.071900E+01	  0.080521047	1.766000E+01
304	  0.080721445	-6.597000E+00	  0.080721445	1.340330E+02	  0.080721445	2.089100E+01	  0.080721445	1.799400E+01
305	  0.080921844	-6.616000E+00	  0.080921844	1.332410E+02	  0.080921844	2.104900E+01	  0.080921844	1.830800E+01
306	  0.081122249	-6.636000E+00	  0.081122249	1.324220E+02	  0.081122249	2.121500E+01	  0.081122249	1.863200E+01
307	  0.081322648	-6.661000E+00	  0.081322648	1.315940E+02	  0.081322648	2.140100E+01	  0.081322648	1.895500E+01
308	  0.081523046	-6.676000E+00	  0.081523046	1.307500E+02	  0.081523046	2.156400E+01	  0.081523046	1.929500E+01
309	  0.081723452	-6.699000E+00	  0.081723452	1.299140E+02	  0.081723452	2.175000E+01	  0.081723452	1.962500E+01
310	  0.081923850	-6.714000E+00	  0.081923850	1.291030E+02	  0.081923850	2.191400E+01	  0.081923850	1.995200E+01
311	  0.082124248	-6.736000E+00	  0.082124248	1.283110E+02	  0.082124248	2.209900E+01	  0.082124248	2.026300E+01
312	  0.082324654	-6.758000E+00	  0.082324654	1.275090E+02	  0.082324654	2.228700E+01	  0.082324654	2.058000E+01
313	  0.082525052	-6.779000E+00	  0.082525052	1.267420E+02	  0.082525052	2.247100E+01	  0.082525052	2.088200E+01
314	  0.082725458	-6.800000E+00	  0.082725458	1.259230E+02	  0.082725458	2.266500E+01	  0.082725458	2.120700E+01
315	  0.082925856	-6.822000E+00	  0.082925856	1.251430E+02	  0.082925856	2.285700E+01	  0.082925856	2.151500E+01
316	  0.083126254	-6.847000E+00	  0.083126254	1.243500E+02	  0.083126254	2.306700E+01	  0.083126254	2.182400E+01
317	  0.083326660	-6.864000E+00	  0.083326660	1.235540E+02	  0.083326660	2.325600E+01	  0.083326660	2.214400E+01
318	  0.083527058	-6.892000E+00	  0.083527058	1.227700E+02	  0.083527058	2.347600E+01	  0.083527058	2.244700E+01
319	  0.083727457	-6.913000E+00	  0.083727457	1.219810E+02	  0.083727457	2.368300E+01	  0.083727457	2.275900E+01
320	  0.083927862	-6.938000E+00	  0.083927862	1.211850E+02	  0.083927862	2.390500E+01	  0.083927862	2.306900E+01
321	  0.084128261	-6.958000E+00	  0.084128261	1.204370E+02	  0.084128261	2.410800E+01	  0.084128261	2.336400E+01
322	  0.084328659	-6.986000E+00	  0.084328659	1.196580E+02	  0.084328659	2.434200E+01	  0.084328659	2.366300E+01
323	  0.084529065	-7.009000E+00	  0.084529065	1.188940E+02	  0.084529065	2.456300E+01	  0.084529065	2.396100E+01
324	  0.084729463	-7.030000E+00	  0.084729463	1.181290E+02	  0.084729463	2.478000E+01	  0.084729463	2.426400E+01
325	  0.084929854	-7.056000E+00	  0.084929854	1.173590E+02	  0.084929854	2.501800E+01	  0.084929854	2.456000E+01
326	  0.085130259	-7.075000E+00	  0.085130259	1.165750E+02	  0.085130259	2.524400E+01	  0.085130259	2.487100E+01
327	  0.085330658	-7.101000E+00	  0.085330658	1.158480E+02	  0.085330658	2.547800E+01	  0.085330658	2.514800E+01
328	  0.085531056	-7.124000E+00	  0.085531056	1.150470E+02	  0.085531056	2.572400E+01	  0.085531056	2.546200E+01
329	  0.085731462	-7.150000E+00	  0.085731462	1.143030E+02	  0.085731462	2.597100E+01	  0.085731462	2.574500E+01
330	  0.085931860	-7.172000E+00	  0.085931860	1.135660E+02	  0.085931860	2.620700E+01	  0.085931860	2.603100E+01
331	  0.086132258	-7.197000E+00	  0.086132258	1.128320E+02	  0.086132258	2.645800E+01	  0.086132258	2.631000E+01
332	  0.086332664	-7.223000E+00	  0.086332664	1.121030E+02	  0.086332664	2.671000E+01	  0.086332664	2.658500E+01
333	  0.086533062	-7.247000E+00	  0.086533062	1.113520E+02	  0.086533062	2.696700E+01	  0.086533062	2.687300E+01
334	  0.086733460	-7.272000E+00	  0.086733460	1.106350E+02	  0.086733460	2.722200E+01	  0.086733460	2.714300E+01
335	  0.086933866	-7.299000E+00	  0.086933866	1.098900E+02	  0.086933866	2.749300E+01	  0.086933866	2.742200E+01
336	  0.087134264	-7.324000E+00	  0.087134264	1.091790E+02	  0.087134264	2.775400E+01	  0.087134264	2.768700E+01
337	  0.087334670	-7.347000E+00	  0.087334670	1.084550E+02	  0.087334670	2.801800E+01	  0.087334670	2.796000E+01
338	  0.087535068	-7.374000E+00	  0.087535068	1.077620E+02	  0.087535068	2.828500E+01	  0.087535068	2.821400E+01
339	  0.087735467	-7.406000E+00	  0.087735467	1.070610E+02	  0.087735467	2.857400E+01	  0.087735467	2.846100E+01
340	  0.087935872	-7.436000E+00	  0.087935872	1.063660E+02	  0.087935872	2.885900E+01	  0.087935872	2.870600E+01
341	  0.088136271	-7.465000E+00	  0.088136271	1.056740E+02	  0.088136271	2.914500E+01	  0.088136271	2.895100E+01
342	  0.088336669	-7.494000E+00	  0.088336669	1.049690E+02	  0.088336669	2.943700E+01	  0.088336669	2.920000E+01
343	  0.088537075	-7.520000E+00	  0.088537075	1.042880E+02	  0.088537075	2.971800E+01	  0.088537075	2.944300E+01
344	  0.088737473	-7.555000E+00	  0.088737473	1.036540E+02	  0.088737473	3.001300E+01	  0.088737473	2.964700E+01
345	  0.088937871	-7.579000E+00	  0.088937871	1.030030E+02	  0.088937871	3.028500E+01	  0.088937871	2.987900E+01
346	  0.089138277	-7.610000E+00	  0.089138277	1.023590E+02	  0.089138277	3.058000E+01	  0.089138277	3.009000E+01
347	  0.089338675	-7.642000E+00	  0.089338675	1.017420E+02	  0.089338675	3.086900E+01	  0.089338675	3.028900E+01
348	  0.089539073	-7.679000E+00	  0.089539073	1.011080E+02	  0.089539073	3.118300E+01	  0.089539073	3.048100E+01
349	  0.089739479	-7.702000E+00	  0.089739479	1.005030E+02	  0.089739479	3.145000E+01	  0.089739479	3.068900E+01
350	  0.089939877	-7.738000E+00	  0.089939877	9.992300E+01	  0.089939877	3.174900E+01	  0.089939877	3.085600E+01
351	  0.090140276	-7.762000E+00	  0.090140276	9.933700E+01	  0.090140276	3.201900E+01	  0.090140276	3.105000E+01
352	  0.090340681	-7.798000E+00	  0.090340681	9.872100E+01	  0.090340681	3.233400E+01	  0.090340681	3.123000E+01
353	  0.090541080	-7.827000E+00	  0.090541080	9.812800E+01	  0.090541080	3.262700E+01	  0.090541080	3.141300E+01
354	  0.090741485	-7.857000E+00	  0.090741485	9.755800E+01	  0.090741485	3.291500E+01	  0.090741485	3.158200E+01
355	  0.090941884	-7.886000E+00	  0.090941884	9.697900E+01	  0.090941884	3.320700E+01	  0.090941884	3.175600E+01
356	  0.091142282	-7.917000E+00	  0.091142282	9.642000E+01	  0.091142282	3.350200E+01	  0.091142282	3.191400E+01
357	  0.091342688	-7.949000E+00	  0.091342688	9.585900E+01	  0.091342688	3.379900E+01	  0.091342688	3.206900E+01
358	  0.091543086	-7.974000E+00	  0.091543086	9.528300E+01	  0.091543086	3.408700E+01	  0.091543086	3.224600E+01
359	  0.091743484	-8.006000E+00	  0.091743484	9.469100E+01	  0.091743484	3.440300E+01	  0.091743484	3.241000E+01
360	  0.091943890	-8.029000E+00	  0.091943890	9.413000E+01	  0.091943890	3.468700E+01	  0.091943890	3.258000E+01
361	  0.092144288	-8.057000E+00	  0.092144288	9.352100E+01	  0.092144288	3.500400E+01	  0.092144288	3.275700E+01
362	  0.092344686	-8.082000E+00	  0.092344686	9.295800E+01	  0.092344686	3.529700E+01	  0.092344686	3.292300E+01
363	  0.092545092	-8.112000E+00	  0.092545092	9.238800E+01	  0.092545092	3.561200E+01	  0.092545092	3.307200E+01
364	  0.092745490	-8.136000E+00	  0.092745490	9.180700E+01	  0.092745490	3.591500E+01	  0.092745490	3.324300E+01
365	  0.092945889	-8.157000E+00	  0.092945889	9.124800E+01	  0.092945889	3.620600E+01	  0.092945889	3.341100E+01
366	  0.093146294	-8.180000E+00	  0.093146294	9.068700E+01	  0.093146294	3.650400E+01	  0.093146294	3.357200E+01
367	  0.093346693	-8.205000E+00	  0.093346693	9.008600E+01	  0.093346693	3.683200E+01	  0.093346693	3.373800E+01
368	  0.093547091	-8.225000E+00	  0.093547091	8.951700E+01	  0.093547091	3.713200E+01	  0.093547091	3.390700E+01
369	  0.093747497	-8.249000E+00	  0.093747497	8.894200E+01	  0.093747497	3.744900E+01	  0.093747497	3.406400E+01
370	  0.093947895	-8.271000E+00	  0.093947895	8.835300E+01	  0.093947895	3.777000E+01	  0.093947895	3.423000E+01
371	  0.094148301	-8.296000E+00	  0.094148301	8.780900E+01	  0.094148301	3.808100E+01	  0.094148301	3.436900E+01
372	  0.094348699	-8.321000E+00	  0.094348699	8.726300E+01	  0.094348699	3.839600E+01	  0.094348699	3.450500E+01
373	  0.094549097	-8.346000E+00	  0.094549097	8.671700E+01	  0.094549097	3.871300E+01	  0.094549097	3.463900E+01
374	  0.094749503	-8.372000E+00	  0.094749503	8.617100E+01	  0.094749503	3.903700E+01	  0.094749503	3.476700E+01
375	  0.094949901	-8.391000E+00	  0.094949901	8.562200E+01	  0.094949901	3.934700E+01	  0.094949901	3.491500E+01
376	  0.095150299	-8.416000E+00	  0.095150299	8.510600E+01	  0.095150299	3.965700E+01	  0.095150299	3.503100E+01
377	  0.095350705	-8.438000E+00	  0.095350705	8.455000E+01	  0.095350705	3.998200E+01	  0.095350705	3.517000E+01
378	  0.095551103	-8.460000E+00	  0.095551103	8.401000E+01	  0.095551103	4.030300E+01	  0.095551103	3.529700E+01
379	  0.095751502	-8.485000E+00	  0.095751502	8.350600E+01	  0.095751502	4.061600E+01	  0.095751502	3.540000E+01
380	  0.095951907	-8.510000E+00	  0.095951907	8.300000E+01	  0.095951907	4.093100E+01	  0.095951907	3.550400E+01
381	  0.096152306	-8.531000E+00	  0.096152306	8.249000E+01	  0.096152306	4.124100E+01	  0.096152306	3.561800E+01
382	  0.096352704	-8.551000E+00	  0.096352704	8.200300E+01	  0.096352704	4.154100E+01	  0.096352704	3.572300E+01
383	  0.096553110	-8.574000E+00	  0.096553110	8.152300E+01	  0.096553110	4.184300E+01	  0.096553110	3.581800E+01
384	  0.096753508	-8.590000E+00	  0.096753508	8.103600E+01	  0.096753508	4.213800E+01	  0.096753508	3.593200E+01
385	  0.096953906	-8.614000E+00	  0.096953906	8.057300E+01	  0.096953906	4.243800E+01	  0.096953906	3.601200E+01
386	  0.097154312	-8.633000E+00	  0.097154312	8.011600E+01	  0.097154312	4.272800E+01	  0.097154312	3.610100E+01
387	  0.097354710	-8.653000E+00	  0.097354710	7.965200E+01	  0.097354710	4.302400E+01	  0.097354710	3.618900E+01
388	  0.097555116	-8.677000E+00	  0.097555116	7.924900E+01	  0.097555116	4.329700E+01	  0.097555116	3.624000E+01
389	  0.097755514	-8.700000E+00	  0.097755514	7.879400E+01	  0.097755514	4.359800E+01	  0.097755514	3.631100E+01
390	  0.097955912	-8.724000E+00	  0.097955912	7.836700E+01	  0.097955912	4.388700E+01	  0.097955912	3.636600E+01
391	  0.098156318	-8.744000E+00	  0.098156318	7.792600E+01	  0.098156318	4.417800E+01	  0.098156318	3.643600E+01
392	  0.098356716	-8.766000E+00	  0.098356716	7.750900E+01	  0.098356716	4.446000E+01	  0.098356716	3.649000E+01
393	  0.098557115	-8.790000E+00	  0.098557115	7.712200E+01	  0.098557115	4.473200E+01	  0.098557115	3.652400E+01
394	  0.098757520	-8.813000E+00	  0.098757520	7.666300E+01	  0.098757520	4.504200E+01	  0.098757520	3.658500E+01
395	  0.098957919	-8.832000E+00	  0.098957919	7.624300E+01	  0.098957919	4.532300E+01	  0.098957919	3.664500E+01
396	  0.099158317	-8.853000E+00	  0.099158317	7.583400E+01	  0.099158317	4.560400E+01	  0.099158317	3.669100E+01
397	  0.099358723	-8.866000E+00	  0.099358723	7.544000E+01	  0.099358723	4.586300E+01	  0.099358723	3.675900E+01
398	  0.099559121	-8.883000E+00	  0.099559121	7.500400E+01	  0.099559121	4.615400E+01	  0.099559121	3.682700E+01
399	  0.099759519	-8.900000E+00	  0.099759519	7.463200E+01	  0.099759519	4.640800E+01	  0.099759519	3.687300E+01
400	  0.099959925	-8.917000E+00	  0.099959925	7.421200E+01	  0.099959925	4.669500E+01	  0.099959925	3.692700E+01
401	  0.100160323	-8.931000E+00	  0.100160323	7.379000E+01	  0.100160323	4.697600E+01	  0.100160323	3.699600E+01
402	  0.100360721	-8.939000E+00	  0.100360721	7.337400E+01	  0.100360721	4.724500E+01	  0.100360721	3.708300E+01
403	  0.100561127	-8.942000E+00	  0.100561127	7.294100E+01	  0.100561127	4.751600E+01	  0.100561127	3.719400E+01
404	  0.100761525	-8.951000E+00	  0.100761525	7.255300E+01	  0.100761525	4.777400E+01	  0.100761525	3.726600E+01
405	  0.100961931	-8.960000E+00	  0.100961931	7.217800E+01	  0.100961931	4.802400E+01	  0.100961931	3.733500E+01
406	  0.101162329	-8.956000E+00	  0.101162329	7.177700E+01	  0.101162329	4.826800E+01	  0.101162329	3.746200E+01
407	  0.101362728	-8.960000E+00	  0.101362728	7.135800E+01	  0.101362728	4.854200E+01	  0.101362728	3.755800E+01
408	  0.101563133	-8.963000E+00	  0.101563133	7.094500E+01	  0.101563133	4.881100E+01	  0.101563133	3.765800E+01
409	  0.101763532	-8.963000E+00	  0.101763532	7.057200E+01	  0.101763532	4.905100E+01	  0.101763532	3.775700E+01
410	  0.101963930	-8.966000E+00	  0.101963930	7.017500E+01	  0.101963930	4.931400E+01	  0.101963930	3.784800E+01
411	  0.102164328	-8.954000E+00	  0.102164328	6.975200E+01	  0.102164328	4.957100E+01	  0.102164328	3.801000E+01
412	  0.102364726	-8.963000E+00	  0.102364726	6.941900E+01	  0.102364726	4.980600E+01	  0.102364726	3.805600E+01
413	  0.102565125	-8.947000E+00	  0.102565125	6.894200E+01	  0.102565125	5.009600E+01	  0.102565125	3.824800E+01
414	  0.102765530	-8.949000E+00	  0.102765530	6.853700E+01	  0.102765530	5.037100E+01	  0.102765530	3.834200E+01
415	  0.102965929	-8.937000E+00	  0.102965929	6.815200E+01	  0.102965929	5.061100E+01	  0.102965929	3.849400E+01
416	  0.103166327	-8.930000E+00	  0.103166327	6.777200E+01	  0.103166327	5.085900E+01	  0.103166327	3.862000E+01
417	  0.103366733	-8.914000E+00	  0.103366733	6.734600E+01	  0.103366733	5.112700E+01	  0.103366733	3.879600E+01
418	  0.103567131	-8.906000E+00	  0.103567131	6.696800E+01	  0.103567131	5.137800E+01	  0.103567131	3.892200E+01
419	  0.103767529	-8.901000E+00	  0.103767529	6.650600E+01	  0.103767529	5.169400E+01	  0.103767529	3.905500E+01
420	  0.103967935	-8.881000E+00	  0.103967935	6.608400E+01	  0.103967935	5.196200E+01	  0.103967935	3.924700E+01
421	  0.104168333	-8.867000E+00	  0.104168333	6.567200E+01	  0.104168333	5.223500E+01	  0.104168333	3.941100E+01
422	  0.104368731	-8.849000E+00	  0.104368731	6.522600E+01	  0.104368731	5.252900E+01	  0.104368731	3.960000E+01
423	  0.104569137	-8.843000E+00	  0.104569137	6.480000E+01	  0.104569137	5.283100E+01	  0.104569137	3.972500E+01
424	  0.104769535	-8.811000E+00	  0.104769535	6.432300E+01	  0.104769535	5.313500E+01	  0.104769535	3.998800E+01
425	  0.104969934	-8.801000E+00	  0.104969934	6.383700E+01	  0.104969934	5.348400E+01	  0.104969934	4.014300E+01
426	  0.105170339	-8.786000E+00	  0.105170339	6.335600E+01	  0.105170339	5.382500E+01	  0.105170339	4.032000E+01
427	  0.105370738	-8.764000E+00	  0.105370738	6.285500E+01	  0.105370738	5.417600E+01	  0.105370738	4.053800E+01
428	  0.105571143	-8.738000E+00	  0.105571143	6.237600E+01	  0.105571143	5.451000E+01	  0.105571143	4.076900E+01
429	  0.105771542	-8.722000E+00	  0.105771542	6.182800E+01	  0.105771542	5.491600E+01	  0.105771542	4.096400E+01
430	  0.105971940	-8.696000E+00	  0.105971940	6.133000E+01	  0.105971940	5.527400E+01	  0.105971940	4.120400E+01
431	  0.106172346	-8.678000E+00	  0.106172346	6.081900E+01	  0.106172346	5.566000E+01	  0.106172346	4.139600E+01
432	  0.106372744	-8.659000E+00	  0.106372744	6.023900E+01	  0.106372744	5.610500E+01	  0.106372744	4.161100E+01
433	  0.106573142	-8.629000E+00	  0.106573142	5.968700E+01	  0.106573142	5.652100E+01	  0.106573142	4.187600E+01
434	  0.106773548	-8.610000E+00	  0.106773548	5.907300E+01	  0.106773548	5.700900E+01	  0.106773548	4.209000E+01
435	  0.106973946	-8.591000E+00	  0.106973946	5.846300E+01	  0.106973946	5.750100E+01	  0.106973946	4.230400E+01
436	  0.107174344	-8.562000E+00	  0.107174344	5.785300E+01	  0.107174344	5.799100E+01	  0.107174344	4.256900E+01
437	  0.107374750	-8.546000E+00	  0.107374750	5.721000E+01	  0.107374750	5.853200E+01	  0.107374750	4.276400E+01
438	  0.107575148	-8.520000E+00	  0.107575148	5.655800E+01	  0.107575148	5.907900E+01	  0.107575148	4.301800E+01
439	  0.107775547	-8.497000E+00	  0.107775547	5.590200E+01	  0.107775547	5.964300E+01	  0.107775547	4.325000E+01
440	  0.107975952	-8.471000E+00	  0.107975952	5.525100E+01	  0.107975952	6.021000E+01	  0.107975952	4.349400E+01
441	  0.108176351	-8.451000E+00	  0.108176351	5.455300E+01	  0.108176351	6.083600E+01	  0.108176351	4.370600E+01
442	  0.108376749	-8.429000E+00	  0.108376749	5.390600E+01	  0.108376749	6.142400E+01	  0.108376749	4.391900E+01
443	  0.108577155	-8.409000E+00	  0.108577155	5.318300E+01	  0.108577155	6.209500E+01	  0.108577155	4.412300E+01
444	  0.108777553	-8.406000E+00	  0.108777553	5.246900E+01	  0.108777553	6.278200E+01	  0.108777553	4.420900E+01
445	  0.108977959	-8.380000E+00	  0.108977959	5.171800E+01	  0.108977959	6.350100E+01	  0.108977959	4.444200E+01
446	  0.109178357	-8.378000E+00	  0.109178357	5.101800E+01	  0.109178357	6.419400E+01	  0.109178357	4.450100E+01
447	  0.109378755	-8.357000E+00	  0.109378755	5.031200E+01	  0.109378755	6.489500E+01	  0.109378755	4.468200E+01
448	  0.109579161	-8.349000E+00	  0.109579161	4.957400E+01	  0.109579161	6.564500E+01	  0.109579161	4.476300E+01
449	  0.109779559	-8.343000E+00	  0.109779559	4.883400E+01	  0.109779559	6.640800E+01	  0.109779559	4.482500E+01
450	  0.109979957	-8.334000E+00	  0.109979957	4.813500E+01	  0.109979957	6.713800E+01	  0.109979957	4.489500E+01
451	  0.110180363	-8.328000E+00	  0.110180363	4.741700E+01	  0.110180363	6.789900E+01	  0.110180363	4.493400E+01
452	  0.110380761	-8.322000E+00	  0.110380761	4.670400E+01	  0.110380761	6.866300E+01	  0.110380761	4.495700E+01
453	  0.110581160	-8.319000E+00	  0.110581160	4.597600E+01	  0.110581160	6.945400E+01	  0.110581160	4.494600E+01
454	  0.110781565	-8.322000E+00	  0.110781565	4.527800E+01	  0.110781565	7.021600E+01	  0.110781565	4.488300E+01
455	  0.110981964	-8.317000E+00	  0.110981964	4.454400E+01	  0.110981964	7.103000E+01	  0.110981964	4.485500E+01
456	  0.111182362	-8.314000E+00	  0.111182362	4.384900E+01	  0.111182362	7.181000E+01	  0.111182362	4.480500E+01
457	  0.111382768	-8.309000E+00	  0.111382768	4.306100E+01	  0.111382768	7.270400E+01	  0.111382768	4.474500E+01
458	  0.111583166	-8.309000E+00	  0.111583166	4.239700E+01	  0.111583166	7.346100E+01	  0.111583166	4.464500E+01
459	  0.111783572	-8.303000E+00	  0.111783572	4.161800E+01	  0.111783572	7.436500E+01	  0.111783572	4.456200E+01
460	  0.111983970	-8.304000E+00	  0.111983970	4.085400E+01	  0.111983970	7.525000E+01	  0.111983970	4.440200E+01
461	  0.112184368	-8.299000E+00	  0.112184368	4.009300E+01	  0.112184368	7.614900E+01	  0.112184368	4.427700E+01
462	  0.112384774	-8.300000E+00	  0.112384774	3.934300E+01	  0.112384774	7.703300E+01	  0.112384774	4.407900E+01
463	  0.112585172	-8.298000E+00	  0.112585172	3.850200E+01	  0.112585172	7.803900E+01	  0.112585172	4.386900E+01
464	  0.112785570	-8.294000E+00	  0.112785570	3.772700E+01	  0.112785570	7.897500E+01	  0.112785570	4.365800E+01
465	  0.112985976	-8.293000E+00	  0.112985976	3.688000E+01	  0.112985976	8.000000E+01	  0.112985976	4.338400E+01
466	  0.113186374	-8.291000E+00	  0.113186374	3.605500E+01	  0.113186374	8.100800E+01	  0.113186374	4.309700E+01
467	  0.113386773	-8.293000E+00	  0.113386773	3.519800E+01	  0.113386773	8.204900E+01	  0.113386773	4.273500E+01
468	  0.113587178	-8.298000E+00	  0.113587178	3.431700E+01	  0.113587178	8.311700E+01	  0.113587178	4.231200E+01
469	  0.113787577	-8.305000E+00	  0.113787577	3.344400E+01	  0.113787577	8.416400E+01	  0.113787577	4.183400E+01
470	  0.113987975	-8.307000E+00	  0.113987975	3.256400E+01	  0.113987975	8.524200E+01	  0.113987975	4.137100E+01
471	  0.114188381	-8.310000E+00	  0.114188381	3.166600E+01	  0.114188381	8.633500E+01	  0.114188381	4.084700E+01
472	  0.114388779	-8.313000E+00	  0.114388779	3.073500E+01	  0.114388779	8.746800E+01	  0.114388779	4.026700E+01
473	  0.114589177	-8.321000E+00	  0.114589177	2.981700E+01	  0.114589177	8.856200E+01	  0.114589177	3.961800E+01
474	  0.114789583	-8.333000E+00	  0.114789583	2.885400E+01	  0.114789583	8.968600E+01	  0.114789583	3.886900E+01
475	  0.114989981	-8.336000E+00	  0.114989981	2.793200E+01	  0.114989981	9.079100E+01	  0.114989981	3.817700E+01
476	  0.115190387	-8.354000E+00	  0.115190387	2.693200E+01	  0.115190387	9.190000E+01	  0.115190387	3.725900E+01
477	  0.115390785	-8.365000E+00	  0.115390785	2.597000E+01	  0.115390785	9.298500E+01	  0.115390785	3.638800E+01
478	  0.115591183	-8.378000E+00	  0.115591183	2.498700E+01	  0.115591183	9.406200E+01	  0.115591183	3.543600E+01
479	  0.115791589	-8.399000E+00	  0.115791589	2.402300E+01	  0.115791589	9.504600E+01	  0.115791589	3.439500E+01
480	  0.115991987	-8.415000E+00	  0.115991987	2.301700E+01	  0.115991987	9.608300E+01	  0.115991987	3.331400E+01
481	  0.116192386	-8.442000E+00	  0.116192386	2.197500E+01	  0.116192386	9.705200E+01	  0.116192386	3.207100E+01
482	  0.116392791	-8.458000E+00	  0.116392791	2.096600E+01	  0.116392791	9.802200E+01	  0.116392791	3.089700E+01
483	  0.116593190	-8.490000E+00	  0.116593190	1.993600E+01	  0.116593190	9.886000E+01	  0.116593190	2.954800E+01
484	  0.116793588	-8.521000E+00	  0.116793588	1.888400E+01	  0.116793588	9.968200E+01	  0.116793588	2.814800E+01
485	  0.116993994	-8.553000E+00	  0.116993994	1.787500E+01	  0.116993994	1.003960E+02	  0.116993994	2.675300E+01
486	  0.117194392	-8.591000E+00	  0.117194392	1.678200E+01	  0.117194392	1.010950E+02	  0.117194392	2.519800E+01
487	  0.117394790	-8.626000E+00	  0.117394790	1.570400E+01	  0.117394790	1.017310E+02	  0.117394790	2.364100E+01
488	  0.117595196	-8.664000E+00	  0.117595196	1.462300E+01	  0.117595196	1.022890E+02	  0.117595196	2.204500E+01
489	  0.117795594	-8.703000E+00	  0.117795594	1.352000E+01	  0.117795594	1.027850E+02	  0.117795594	2.039100E+01
490	  0.117995992	-8.751000E+00	  0.117995992	1.239400E+01	  0.117995992	1.031560E+02	  0.117995992	1.865600E+01
491	  0.118196398	-8.799000E+00	  0.118196398	1.125800E+01	  0.118196398	1.034480E+02	  0.118196398	1.689400E+01
492	  0.118396796	-8.851000E+00	  0.118396796	1.006900E+01	  0.118396796	1.036520E+02	  0.118396796	1.504100E+01
493	  0.118597202	-8.906000E+00	  0.118597202	8.868000E+00	  0.118597202	1.037620E+02	  0.118597202	1.316800E+01
494	  0.118797600	-8.960000E+00	  0.118797600	7.729000E+00	  0.118797600	1.037610E+02	  0.118797600	1.139600E+01
