! Anritsu VNA Master:             	Model: MS2036C/10/77
! SN:             	1601066
! /bd0/18may8/255.ns.m7.txt
! Existing Calibration Information:
! TYPE:             	Current Settings	Active Cal Settings
! TIME:             	05/08/2018 01:03:03 PM	05/08/2018 01:00:27 PM
! INTERNAL TEMP:    	60.0 C	60.0 C
! # POINTS:         	500	500
! START FREQ:       	20.000 MHz	20.000 MHz
! STOP FREQ:        	120.000 MHz	120.000 MHz
! SOURCE POWER:     	High	High
! IFBW:             	50 Hz	50 Hz
! AVG FACTOR:       	  1 	  1 
! REF PLANE 1:      	0 mm	0 mm
! REF PLANE 2:      	0 mm	0 mm
! CAL TYPE:         	Full S11	Full S11
! CAL METHOD:       	SOLT	SOLT
! CAL LINE TYPE:    	Coax	Coax
! DUT PORT 1:       	K-Conn(F)	K-Conn(F)
! DUT PORT 2:       	K-Conn(F)	K-Conn(F)
! CAL STATUS:       	OK: Accuracy High	--
! PROP-V:       	0.700
! CABLE LOSS:       	0.000 dB/m
! REF IMPEDANCE:       	50.0
! Trace Specific Parameters:	TR1	TR2	TR3	TR4
! TRACE.#.Y (GRAPH TYPE)	LOG MAG	PHASE	REAL IMPEDANCE	IMAGINARY IMPEDANCE
! TRACE.#.X 	FREQ.GHZ	FREQ.GHZ	FREQ.GHZ	FREQ.GHZ
! S-PARAMETER	S11	S11	S11	S11
! SMOOTH/APERTURE %	0	0	0	0
! WINDOW	NSL	NSL	NSL	NSL
! GATING	OFF	OFF	OFF	OFF
! FGTD	OFF	OFF	OFF	OFF
Marker Information per Trace:	TR1	TR2	TR3	TR4
!MK1	--	"MK1 TR2:  20.000 MHz,PH:-124.35°"	--	--
!MK2	--	--	"MK2 TR3:  70.100 200 MHz,Z:(17.449 ohm, -3.197 ohm)"	--
!MK3	--	--	--	--
!MK4	--	--	--	--
!MK5	--	--	--	--
!MK6	--	--	--	--
!MK7	--	--	--	--
!MK8	--	--	--	--
PNT	TR1.FREQ.GHZ	TR1.LOG MAG.dB	TR2.FREQ.GHZ	TR2.PHASE.deg	TR3.FREQ.GHZ	TR3.REAL IMPEDANCE.ohm	TR4.FREQ.GHZ	TR4.IMAGINARY IMPEDANCE.ohm
1	  0.020000000	-6.290000E-01	  0.020000000	-1.243500E+02	  0.020000000	2.315000E+00	  0.020000000	-2.634500E+01
2	  0.020200402	-6.260000E-01	  0.020200402	-1.257870E+02	  0.020200402	2.272000E+00	  0.020200402	-2.555100E+01
3	  0.020400802	-6.240000E-01	  0.020400802	-1.272230E+02	  0.020400802	2.237000E+00	  0.020400802	-2.476700E+01
4	  0.020601204	-6.260000E-01	  0.020601204	-1.286640E+02	  0.020601204	2.216000E+00	  0.020601204	-2.399000E+01
5	  0.020801604	-6.280000E-01	  0.020801604	-1.301450E+02	  0.020801604	2.196000E+00	  0.020801604	-2.320100E+01
6	  0.021002004	-6.350000E-01	  0.021002004	-1.316290E+02	  0.021002004	2.197000E+00	  0.021002004	-2.241900E+01
7	  0.021202406	-6.400000E-01	  0.021202406	-1.331500E+02	  0.021202406	2.187000E+00	  0.021202406	-2.162700E+01
8	  0.021402806	-6.450000E-01	  0.021402806	-1.346570E+02	  0.021402806	2.179000E+00	  0.021402806	-2.085200E+01
9	  0.021603208	-6.490000E-01	  0.021603208	-1.361710E+02	  0.021603208	2.169000E+00	  0.021603208	-2.008100E+01
10	  0.021803608	-6.530000E-01	  0.021803608	-1.376900E+02	  0.021803608	2.159000E+00	  0.021803608	-1.931600E+01
11	  0.022004008	-6.590000E-01	  0.022004008	-1.392100E+02	  0.022004008	2.157000E+00	  0.022004008	-1.855900E+01
12	  0.022204408	-6.630000E-01	  0.022204408	-1.407450E+02	  0.022204408	2.151000E+00	  0.022204408	-1.780100E+01
13	  0.022404809	-6.680000E-01	  0.022404809	-1.423020E+02	  0.022404809	2.147000E+00	  0.022404809	-1.704000E+01
14	  0.022605211	-6.690000E-01	  0.022605211	-1.438760E+02	  0.022605211	2.132000E+00	  0.022605211	-1.627800E+01
15	  0.022805611	-6.710000E-01	  0.022805611	-1.454480E+02	  0.022805611	2.117000E+00	  0.022805611	-1.552400E+01
16	  0.023006011	-6.730000E-01	  0.023006011	-1.470380E+02	  0.023006011	2.105000E+00	  0.023006011	-1.476800E+01
17	  0.023206413	-6.710000E-01	  0.023206413	-1.486000E+02	  0.023206413	2.085000E+00	  0.023206413	-1.403100E+01
18	  0.023406813	-6.750000E-01	  0.023406813	-1.501690E+02	  0.023406813	2.079000E+00	  0.023406813	-1.329600E+01
19	  0.023607215	-6.770000E-01	  0.023607215	-1.517460E+02	  0.023607215	2.071000E+00	  0.023607215	-1.256300E+01
20	  0.023807615	-6.820000E-01	  0.023807615	-1.533330E+02	  0.023807615	2.073000E+00	  0.023807615	-1.183000E+01
21	  0.024008015	-6.890000E-01	  0.024008015	-1.549270E+02	  0.024008015	2.082000E+00	  0.024008015	-1.109900E+01
22	  0.024208417	-6.990000E-01	  0.024208417	-1.565530E+02	  0.024208417	2.100000E+00	  0.024208417	-1.035800E+01
23	  0.024408817	-7.060000E-01	  0.024408817	-1.581760E+02	  0.024408817	2.107000E+00	  0.024408817	-9.622000E+00
24	  0.024609219	-7.120000E-01	  0.024609219	-1.598120E+02	  0.024609219	2.114000E+00	  0.024609219	-8.885000E+00
25	  0.024809619	-7.190000E-01	  0.024809619	-1.614490E+02	  0.024809619	2.125000E+00	  0.024809619	-8.151000E+00
26	  0.025010020	-7.310000E-01	  0.025010020	-1.630950E+02	  0.025010020	2.149000E+00	  0.025010020	-7.416000E+00
27	  0.025210422	-7.400000E-01	  0.025210422	-1.647400E+02	  0.025210422	2.167000E+00	  0.025210422	-6.685000E+00
28	  0.025410822	-7.520000E-01	  0.025410822	-1.664050E+02	  0.025410822	2.194000E+00	  0.025410822	-5.948000E+00
29	  0.025611224	-7.650000E-01	  0.025611224	-1.680780E+02	  0.025611224	2.224000E+00	  0.025611224	-5.210000E+00
30	  0.025811624	-7.770000E-01	  0.025811624	-1.697860E+02	  0.025811624	2.252000E+00	  0.025811624	-4.459000E+00
31	  0.026012026	-7.870000E-01	  0.026012026	-1.715090E+02	  0.026012026	2.278000E+00	  0.026012026	-3.703000E+00
32	  0.026212426	-7.970000E-01	  0.026212426	-1.732210E+02	  0.026212426	2.301000E+00	  0.026212426	-2.954000E+00
33	  0.026412826	-8.080000E-01	  0.026412826	-1.749450E+02	  0.026412826	2.328000E+00	  0.026412826	-2.202000E+00
34	  0.026613226	-8.200000E-01	  0.026613226	-1.766770E+02	  0.026613226	2.360000E+00	  0.026613226	-1.447000E+00
35	  0.026813626	-8.340000E-01	  0.026813626	-1.784250E+02	  0.026813626	2.401000E+00	  0.026813626	-6.850000E-01
36	  0.027014028	-8.490000E-01	  0.027014028	1.798150E+02	  0.027014028	2.443000E+00	  0.027014028	8.000000E-02
37	  0.027214428	-8.660000E-01	  0.027214428	1.780490E+02	  0.027214428	2.491000E+00	  0.027214428	8.490000E-01
38	  0.027414829	-8.810000E-01	  0.027414829	1.762670E+02	  0.027414829	2.537000E+00	  0.027414829	1.624000E+00
39	  0.027615231	-8.960000E-01	  0.027615231	1.744750E+02	  0.027615231	2.584000E+00	  0.027615231	2.406000E+00
40	  0.027815631	-9.150000E-01	  0.027815631	1.726680E+02	  0.027815631	2.643000E+00	  0.027815631	3.194000E+00
41	  0.028016033	-9.350000E-01	  0.028016033	1.708540E+02	  0.028016033	2.706000E+00	  0.028016033	3.987000E+00
42	  0.028216433	-9.560000E-01	  0.028216433	1.690310E+02	  0.028216433	2.776000E+00	  0.028216433	4.785000E+00
43	  0.028416833	-9.760000E-01	  0.028416833	1.672050E+02	  0.028416833	2.843000E+00	  0.028416833	5.587000E+00
44	  0.028617235	-9.950000E-01	  0.028617235	1.653680E+02	  0.028617235	2.907000E+00	  0.028617235	6.397000E+00
45	  0.028817635	-1.014000E+00	  0.028817635	1.635390E+02	  0.028817635	2.977000E+00	  0.028817635	7.207000E+00
46	  0.029018037	-1.030000E+00	  0.029018037	1.617330E+02	  0.029018037	3.038000E+00	  0.029018037	8.009000E+00
47	  0.029218437	-1.051000E+00	  0.029218437	1.599050E+02	  0.029218437	3.115000E+00	  0.029218437	8.825000E+00
48	  0.029418837	-1.073000E+00	  0.029418837	1.580950E+02	  0.029418837	3.200000E+00	  0.029418837	9.637000E+00
49	  0.029619239	-1.095000E+00	  0.029619239	1.562550E+02	  0.029619239	3.288000E+00	  0.029619239	1.046700E+01
50	  0.029819639	-1.123000E+00	  0.029819639	1.543980E+02	  0.029819639	3.396000E+00	  0.029819639	1.131000E+01
51	  0.030020041	-1.154000E+00	  0.030020041	1.525150E+02	  0.030020041	3.515000E+00	  0.030020041	1.217000E+01
52	  0.030220442	-1.182000E+00	  0.030220442	1.506080E+02	  0.030220442	3.630000E+00	  0.030220442	1.304800E+01
53	  0.030420844	-1.211000E+00	  0.030420844	1.487020E+02	  0.030420844	3.753000E+00	  0.030420844	1.393200E+01
54	  0.030621244	-1.242000E+00	  0.030621244	1.467960E+02	  0.030621244	3.886000E+00	  0.030621244	1.482400E+01
55	  0.030821644	-1.270000E+00	  0.030821644	1.449030E+02	  0.030821644	4.014000E+00	  0.030821644	1.571800E+01
56	  0.031022044	-1.304000E+00	  0.031022044	1.429950E+02	  0.031022044	4.163000E+00	  0.031022044	1.662700E+01
57	  0.031222444	-1.332000E+00	  0.031222444	1.410990E+02	  0.031222444	4.300000E+00	  0.031222444	1.754000E+01
58	  0.031422846	-1.369000E+00	  0.031422846	1.391420E+02	  0.031422846	4.474000E+00	  0.031422846	1.849200E+01
59	  0.031623244	-1.406000E+00	  0.031623244	1.371660E+02	  0.031623244	4.655000E+00	  0.031623244	1.946400E+01
60	  0.031823646	-1.441000E+00	  0.031823646	1.351840E+02	  0.031823646	4.838000E+00	  0.031823646	2.045100E+01
61	  0.032024048	-1.479000E+00	  0.032024048	1.332040E+02	  0.032024048	5.035000E+00	  0.032024048	2.144900E+01
62	  0.032224450	-1.515000E+00	  0.032224450	1.312220E+02	  0.032224450	5.236000E+00	  0.032224450	2.246200E+01
63	  0.032424849	-1.549000E+00	  0.032424849	1.292420E+02	  0.032424849	5.439000E+00	  0.032424849	2.348900E+01
64	  0.032625251	-1.587000E+00	  0.032625251	1.272380E+02	  0.032625251	5.665000E+00	  0.032625251	2.454300E+01
65	  0.032825653	-1.621000E+00	  0.032825653	1.252490E+02	  0.032825653	5.888000E+00	  0.032825653	2.560600E+01
66	  0.033026051	-1.659000E+00	  0.033026051	1.232630E+02	  0.033026051	6.132000E+00	  0.033026051	2.668300E+01
67	  0.033226453	-1.700000E+00	  0.033226453	1.212800E+02	  0.033226453	6.403000E+00	  0.033226453	2.777500E+01
68	  0.033426855	-1.741000E+00	  0.033426855	1.192970E+02	  0.033426855	6.686000E+00	  0.033426855	2.888600E+01
69	  0.033627257	-1.791000E+00	  0.033627257	1.173220E+02	  0.033627257	7.015000E+00	  0.033627257	3.000800E+01
70	  0.033827655	-1.841000E+00	  0.033827655	1.153050E+02	  0.033827655	7.364000E+00	  0.033827655	3.117300E+01
71	  0.034028057	-1.892000E+00	  0.034028057	1.132590E+02	  0.034028057	7.740000E+00	  0.034028057	3.237800E+01
72	  0.034228459	-1.943000E+00	  0.034228459	1.111950E+02	  0.034228459	8.134000E+00	  0.034228459	3.361800E+01
73	  0.034428857	-1.992000E+00	  0.034428857	1.090960E+02	  0.034428857	8.547000E+00	  0.034428857	3.490600E+01
74	  0.034629259	-2.041000E+00	  0.034629259	1.069640E+02	  0.034629259	8.989000E+00	  0.034629259	3.624300E+01
75	  0.034829661	-2.088000E+00	  0.034829661	1.048580E+02	  0.034829661	9.442000E+00	  0.034829661	3.759500E+01
76	  0.035030060	-2.135000E+00	  0.035030060	1.027470E+02	  0.035030060	9.925000E+00	  0.035030060	3.898100E+01
77	  0.035230462	-2.178000E+00	  0.035230462	1.006180E+02	  0.035230462	1.042100E+01	  0.035230462	4.041700E+01
78	  0.035430863	-2.223000E+00	  0.035430863	9.853300E+01	  0.035430863	1.095200E+01	  0.035430863	4.185600E+01
79	  0.035631265	-2.265000E+00	  0.035631265	9.644400E+01	  0.035631265	1.150500E+01	  0.035631265	4.333700E+01
80	  0.035831664	-2.306000E+00	  0.035831664	9.437800E+01	  0.035831664	1.208300E+01	  0.035831664	4.484000E+01
81	  0.036032066	-2.353000E+00	  0.036032066	9.232200E+01	  0.036032066	1.272900E+01	  0.036032066	4.636700E+01
82	  0.036232468	-2.400000E+00	  0.036232468	9.025100E+01	  0.036232468	1.342000E+01	  0.036232468	4.794600E+01
83	  0.036432866	-2.448000E+00	  0.036432866	8.822800E+01	  0.036432866	1.415100E+01	  0.036432866	4.952700E+01
84	  0.036633268	-2.497000E+00	  0.036633268	8.619800E+01	  0.036633268	1.494200E+01	  0.036633268	5.115300E+01
85	  0.036833670	-2.550000E+00	  0.036833670	8.416500E+01	  0.036833670	1.581200E+01	  0.036833670	5.281700E+01
86	  0.037034072	-2.609000E+00	  0.037034072	8.210700E+01	  0.037034072	1.678900E+01	  0.037034072	5.453500E+01
87	  0.037234470	-2.669000E+00	  0.037234470	8.006900E+01	  0.037234470	1.783900E+01	  0.037234470	5.627600E+01
88	  0.037434869	-2.731000E+00	  0.037434869	7.798700E+01	  0.037434869	1.899200E+01	  0.037434869	5.809900E+01
89	  0.037635271	-2.793000E+00	  0.037635271	7.589500E+01	  0.037635271	2.023300E+01	  0.037635271	5.998000E+01
90	  0.037835669	-2.856000E+00	  0.037835669	7.382000E+01	  0.037835669	2.157800E+01	  0.037835669	6.188600E+01
91	  0.038036071	-2.923000E+00	  0.038036071	7.170200E+01	  0.038036071	2.307200E+01	  0.038036071	6.387300E+01
92	  0.038236473	-2.982000E+00	  0.038236473	6.956700E+01	  0.038236473	2.464300E+01	  0.038236473	6.595200E+01
93	  0.038436871	-3.044000E+00	  0.038436871	6.741300E+01	  0.038436871	2.638100E+01	  0.038436871	6.809200E+01
94	  0.038637273	-3.101000E+00	  0.038637273	6.530100E+01	  0.038637273	2.820200E+01	  0.038637273	7.025500E+01
95	  0.038837675	-3.153000E+00	  0.038837675	6.318700E+01	  0.038837675	3.013900E+01	  0.038837675	7.249500E+01
96	  0.039038073	-3.204000E+00	  0.039038073	6.111900E+01	  0.039038073	3.220900E+01	  0.039038073	7.472900E+01
97	  0.039238475	-3.253000E+00	  0.039238475	5.905400E+01	  0.039238475	3.442700E+01	  0.039238475	7.702500E+01
98	  0.039438877	-3.303000E+00	  0.039438877	5.699900E+01	  0.039438877	3.684700E+01	  0.039438877	7.933800E+01
99	  0.039639279	-3.357000E+00	  0.039639279	5.499300E+01	  0.039639279	3.947100E+01	  0.039639279	8.158400E+01
100	  0.039839678	-3.417000E+00	  0.039839678	5.296500E+01	  0.039839678	4.239400E+01	  0.039839678	8.383000E+01
101	  0.040040080	-3.478000E+00	  0.040040080	5.093300E+01	  0.040040080	4.559300E+01	  0.040040080	8.606600E+01
102	  0.040240481	-3.540000E+00	  0.040240481	4.888700E+01	  0.040240481	4.909500E+01	  0.040240481	8.828800E+01
103	  0.040440880	-3.604000E+00	  0.040440880	4.683000E+01	  0.040440880	5.294900E+01	  0.040440880	9.044900E+01
104	  0.040641282	-3.665000E+00	  0.040641282	4.477500E+01	  0.040641282	5.711500E+01	  0.040641282	9.255000E+01
105	  0.040841684	-3.725000E+00	  0.040841684	4.271700E+01	  0.040841684	6.164100E+01	  0.040841684	9.455900E+01
106	  0.041042086	-3.785000E+00	  0.041042086	4.067700E+01	  0.041042086	6.651500E+01	  0.041042086	9.639000E+01
107	  0.041242484	-3.842000E+00	  0.041242484	3.863800E+01	  0.041242484	7.177000E+01	  0.041242484	9.805800E+01
108	  0.041442886	-3.900000E+00	  0.041442886	3.658800E+01	  0.041442886	7.749000E+01	  0.041442886	9.947300E+01
109	  0.041643288	-3.957000E+00	  0.041643288	3.453800E+01	  0.041643288	8.364900E+01	  0.041643288	1.005760E+02
110	  0.041843686	-4.012000E+00	  0.041843686	3.247800E+01	  0.041843686	9.028600E+01	  0.041843686	1.013110E+02
111	  0.042044088	-4.064000E+00	  0.042044088	3.045200E+01	  0.042044088	9.725800E+01	  0.042044088	1.015860E+02
112	  0.042244490	-4.115000E+00	  0.042244490	2.844300E+01	  0.042244490	1.045900E+02	  0.042244490	1.012990E+02
113	  0.042444889	-4.167000E+00	  0.042444889	2.643600E+01	  0.042444889	1.123080E+02	  0.042444889	1.003280E+02
114	  0.042645290	-4.220000E+00	  0.042645290	2.446600E+01	  0.042645290	1.201890E+02	  0.042645290	9.853200E+01
115	  0.042845692	-4.266000E+00	  0.042845692	2.247000E+01	  0.042845692	1.284360E+02	  0.042845692	9.603000E+01
116	  0.043046094	-4.319000E+00	  0.043046094	2.049000E+01	  0.043046094	1.366960E+02	  0.043046094	9.236900E+01
117	  0.043246493	-4.368000E+00	  0.043246493	1.850900E+01	  0.043246493	1.449470E+02	  0.043246493	8.773400E+01
118	  0.043446895	-4.417000E+00	  0.043446895	1.654600E+01	  0.043446895	1.529210E+02	  0.043446895	8.204700E+01
119	  0.043647297	-4.465000E+00	  0.043647297	1.458800E+01	  0.043647297	1.604780E+02	  0.043647297	7.526300E+01
120	  0.043847695	-4.512000E+00	  0.043847695	1.262800E+01	  0.043847695	1.674450E+02	  0.043847695	6.738900E+01
121	  0.044048097	-4.563000E+00	  0.044048097	1.067100E+01	  0.044048097	1.734620E+02	  0.044048097	5.841800E+01
122	  0.044248499	-4.611000E+00	  0.044248499	8.718000E+00	  0.044248499	1.784620E+02	  0.044248499	4.863500E+01
123	  0.044448901	-4.659000E+00	  0.044448901	6.773000E+00	  0.044448901	1.822450E+02	  0.044448901	3.821300E+01
124	  0.044649299	-4.707000E+00	  0.044649299	4.845000E+00	  0.044649299	1.846240E+02	  0.044649299	2.741100E+01
125	  0.044849701	-4.750000E+00	  0.044849701	2.920000E+00	  0.044849701	1.857920E+02	  0.044849701	1.647500E+01
126	  0.045050103	-4.794000E+00	  0.045050103	9.820000E-01	  0.045050103	1.855530E+02	  0.045050103	5.478000E+00
127	  0.045250501	-4.835000E+00	  0.045250501	-9.390000E-01	  0.045250501	1.840890E+02	  0.045250501	-5.153000E+00
128	  0.045450903	-4.874000E+00	  0.045450903	-2.843000E+00	  0.045450903	1.814660E+02	  0.045450903	-1.522800E+01
129	  0.045651305	-4.914000E+00	  0.045651305	-4.726000E+00	  0.045651305	1.777490E+02	  0.045651305	-2.455600E+01
130	  0.045851704	-4.954000E+00	  0.045851704	-6.616000E+00	  0.045851704	1.731260E+02	  0.045851704	-3.314300E+01
131	  0.046052106	-4.994000E+00	  0.046052106	-8.486000E+00	  0.046052106	1.678560E+02	  0.046052106	-4.079400E+01
132	  0.046252504	-5.033000E+00	  0.046252504	-1.035800E+01	  0.046252504	1.620640E+02	  0.046252504	-4.757400E+01
133	  0.046452906	-5.072000E+00	  0.046452906	-1.220900E+01	  0.046452906	1.559720E+02	  0.046452906	-5.340300E+01
134	  0.046653304	-5.110000E+00	  0.046653304	-1.405900E+01	  0.046653304	1.496650E+02	  0.046653304	-5.836500E+01
135	  0.046853706	-5.144000E+00	  0.046853706	-1.591900E+01	  0.046853706	1.433170E+02	  0.046853706	-6.264900E+01
136	  0.047054108	-5.179000E+00	  0.047054108	-1.775800E+01	  0.047054108	1.369860E+02	  0.047054108	-6.607700E+01
137	  0.047254506	-5.211000E+00	  0.047254506	-1.959000E+01	  0.047254506	1.308030E+02	  0.047254506	-6.888100E+01
138	  0.047454908	-5.243000E+00	  0.047454908	-2.140400E+01	  0.047454908	1.248130E+02	  0.047454908	-7.105600E+01
139	  0.047655310	-5.272000E+00	  0.047655310	-2.320300E+01	  0.047655310	1.190670E+02	  0.047655310	-7.273200E+01
140	  0.047855709	-5.304000E+00	  0.047855709	-2.498400E+01	  0.047855709	1.135540E+02	  0.047855709	-7.385200E+01
141	  0.048056111	-5.334000E+00	  0.048056111	-2.673100E+01	  0.048056111	1.083830E+02	  0.048056111	-7.459800E+01
142	  0.048256513	-5.365000E+00	  0.048256513	-2.849700E+01	  0.048256513	1.033890E+02	  0.048256513	-7.499300E+01
143	  0.048456915	-5.396000E+00	  0.048456915	-3.023800E+01	  0.048456915	9.870700E+01	  0.048456915	-7.508800E+01
144	  0.048657313	-5.428000E+00	  0.048657313	-3.197500E+01	  0.048657313	9.427600E+01	  0.048657313	-7.491600E+01
145	  0.048857715	-5.454000E+00	  0.048857715	-3.373200E+01	  0.048857715	9.003700E+01	  0.048857715	-7.461800E+01
146	  0.049058117	-5.481000E+00	  0.049058117	-3.545200E+01	  0.049058117	8.611300E+01	  0.049058117	-7.413400E+01
147	  0.049258515	-5.506000E+00	  0.049258515	-3.718200E+01	  0.049258515	8.238400E+01	  0.049258515	-7.350600E+01
148	  0.049458917	-5.532000E+00	  0.049458917	-3.889000E+01	  0.049458917	7.890600E+01	  0.049458917	-7.276100E+01
149	  0.049659319	-5.561000E+00	  0.049659319	-4.058400E+01	  0.049659319	7.566200E+01	  0.049659319	-7.186300E+01
150	  0.049859721	-5.586000E+00	  0.049859721	-4.229700E+01	  0.049859721	7.255800E+01	  0.049859721	-7.093400E+01
151	  0.050060119	-5.613000E+00	  0.050060119	-4.396700E+01	  0.050060119	6.971100E+01	  0.050060119	-6.992000E+01
152	  0.050260521	-5.634000E+00	  0.050260521	-4.566400E+01	  0.050260521	6.696700E+01	  0.050260521	-6.890600E+01
153	  0.050460923	-5.658000E+00	  0.050460923	-4.733600E+01	  0.050460923	6.442600E+01	  0.050460923	-6.782000E+01
154	  0.050661322	-5.676000E+00	  0.050661322	-4.904000E+01	  0.050661322	6.195900E+01	  0.050661322	-6.674400E+01
155	  0.050861724	-5.694000E+00	  0.050861724	-5.071800E+01	  0.050861724	5.966900E+01	  0.050861724	-6.564100E+01
156	  0.051062126	-5.711000E+00	  0.051062126	-5.235600E+01	  0.051062126	5.755100E+01	  0.051062126	-6.454900E+01
157	  0.051262524	-5.726000E+00	  0.051262524	-5.400200E+01	  0.051262524	5.553000E+01	  0.051262524	-6.344800E+01
158	  0.051462926	-5.741000E+00	  0.051462926	-5.561100E+01	  0.051462926	5.366400E+01	  0.051462926	-6.234900E+01
159	  0.051663328	-5.759000E+00	  0.051663328	-5.720000E+01	  0.051663328	5.192400E+01	  0.051663328	-6.124000E+01
160	  0.051863730	-5.771000E+00	  0.051863730	-5.876600E+01	  0.051863730	5.027800E+01	  0.051863730	-6.017600E+01
161	  0.052064128	-5.788000E+00	  0.052064128	-6.035400E+01	  0.052064128	4.871300E+01	  0.052064128	-5.906300E+01
162	  0.052264530	-5.803000E+00	  0.052264530	-6.191100E+01	  0.052264530	4.725300E+01	  0.052264530	-5.797700E+01
163	  0.052464932	-5.822000E+00	  0.052464932	-6.348200E+01	  0.052464932	4.586300E+01	  0.052464932	-5.686900E+01
164	  0.052665330	-5.838000E+00	  0.052665330	-6.506300E+01	  0.052665330	4.452700E+01	  0.052665330	-5.577200E+01
165	  0.052865732	-5.856000E+00	  0.052865732	-6.660500E+01	  0.052865732	4.329700E+01	  0.052865732	-5.469500E+01
166	  0.053066134	-5.872000E+00	  0.053066134	-6.815000E+01	  0.053066134	4.211700E+01	  0.053066134	-5.363500E+01
167	  0.053266536	-5.887000E+00	  0.053266536	-6.968400E+01	  0.053266536	4.099500E+01	  0.053266536	-5.259900E+01
168	  0.053466935	-5.901000E+00	  0.053466935	-7.122400E+01	  0.053466935	3.992000E+01	  0.053466935	-5.156900E+01
169	  0.053667337	-5.913000E+00	  0.053667337	-7.276900E+01	  0.053667337	3.888400E+01	  0.053667337	-5.055600E+01
170	  0.053867739	-5.919000E+00	  0.053867739	-7.428300E+01	  0.053867739	3.789300E+01	  0.053867739	-4.959500E+01
171	  0.054068137	-5.928000E+00	  0.054068137	-7.579600E+01	  0.054068137	3.695700E+01	  0.054068137	-4.863100E+01
172	  0.054268539	-5.936000E+00	  0.054268539	-7.728900E+01	  0.054268539	3.607300E+01	  0.054268539	-4.768900E+01
173	  0.054468941	-5.943000E+00	  0.054468941	-7.875300E+01	  0.054468941	3.524200E+01	  0.054468941	-4.677600E+01
174	  0.054669339	-5.954000E+00	  0.054669339	-8.019500E+01	  0.054669339	3.447400E+01	  0.054669339	-4.587200E+01
175	  0.054869737	-5.963000E+00	  0.054869737	-8.164000E+01	  0.054869737	3.372600E+01	  0.054869737	-4.498300E+01
176	  0.055070139	-5.975000E+00	  0.055070139	-8.303900E+01	  0.055070139	3.304700E+01	  0.055070139	-4.411800E+01
177	  0.055270538	-5.987000E+00	  0.055270538	-8.446900E+01	  0.055270538	3.238000E+01	  0.055270538	-4.324600E+01
178	  0.055470940	-6.000000E+00	  0.055470940	-8.584800E+01	  0.055470940	3.176700E+01	  0.055470940	-4.241000E+01
179	  0.055671342	-6.010000E+00	  0.055671342	-8.725700E+01	  0.055671342	3.115500E+01	  0.055671342	-4.157400E+01
180	  0.055871744	-6.019000E+00	  0.055871744	-8.866500E+01	  0.055871744	3.056600E+01	  0.055871744	-4.075000E+01
181	  0.056072142	-6.035000E+00	  0.056072142	-9.004500E+01	  0.056072142	3.003600E+01	  0.056072142	-3.993300E+01
182	  0.056272544	-6.047000E+00	  0.056272544	-9.143700E+01	  0.056272544	2.950600E+01	  0.056272544	-3.913000E+01
183	  0.056472946	-6.060000E+00	  0.056472946	-9.283800E+01	  0.056472946	2.900000E+01	  0.056472946	-3.832600E+01
184	  0.056673344	-6.068000E+00	  0.056673344	-9.422100E+01	  0.056673344	2.850200E+01	  0.056673344	-3.755400E+01
185	  0.056873746	-6.075000E+00	  0.056873746	-9.559300E+01	  0.056873746	2.802500E+01	  0.056873746	-3.679800E+01
186	  0.057074148	-6.087000E+00	  0.057074148	-9.694600E+01	  0.057074148	2.758800E+01	  0.057074148	-3.605000E+01
187	  0.057274550	-6.089000E+00	  0.057274550	-9.833400E+01	  0.057274550	2.712300E+01	  0.057274550	-3.531200E+01
188	  0.057474948	-6.094000E+00	  0.057474948	-9.968300E+01	  0.057474948	2.669600E+01	  0.057474948	-3.459600E+01
189	  0.057675350	-6.096000E+00	  0.057675350	-1.010380E+02	  0.057675350	2.627400E+01	  0.057675350	-3.388900E+01
190	  0.057875752	-6.099000E+00	  0.057875752	-1.023630E+02	  0.057875752	2.588000E+01	  0.057875752	-3.320200E+01
191	  0.058076151	-6.102000E+00	  0.058076151	-1.036680E+02	  0.058076151	2.550500E+01	  0.058076151	-3.253100E+01
192	  0.058276553	-6.106000E+00	  0.058276553	-1.049560E+02	  0.058276553	2.515300E+01	  0.058276553	-3.187200E+01
193	  0.058476955	-6.106000E+00	  0.058476955	-1.062550E+02	  0.058476955	2.479600E+01	  0.058476955	-3.122100E+01
194	  0.058677353	-6.106000E+00	  0.058677353	-1.075090E+02	  0.058677353	2.446000E+01	  0.058677353	-3.059900E+01
195	  0.058877755	-6.110000E+00	  0.058877755	-1.088260E+02	  0.058877755	2.413500E+01	  0.058877755	-2.994300E+01
196	  0.059078157	-6.113000E+00	  0.059078157	-1.100800E+02	  0.059078157	2.383600E+01	  0.059078157	-2.932300E+01
197	  0.059278559	-6.116000E+00	  0.059278559	-1.113370E+02	  0.059278559	2.354100E+01	  0.059278559	-2.870900E+01
198	  0.059478957	-6.119000E+00	  0.059478957	-1.126150E+02	  0.059478957	2.325500E+01	  0.059478957	-2.808900E+01
199	  0.059679359	-6.122000E+00	  0.059679359	-1.138700E+02	  0.059679359	2.298500E+01	  0.059679359	-2.748500E+01
200	  0.059879761	-6.123000E+00	  0.059879761	-1.151470E+02	  0.059879761	2.271000E+01	  0.059879761	-2.687800E+01
201	  0.060080159	-6.125000E+00	  0.060080159	-1.163970E+02	  0.060080159	2.245300E+01	  0.060080159	-2.628700E+01
202	  0.060280561	-6.126000E+00	  0.060280561	-1.176280E+02	  0.060280561	2.220700E+01	  0.060280561	-2.571100E+01
203	  0.060480963	-6.128000E+00	  0.060480963	-1.188860E+02	  0.060480963	2.196900E+01	  0.060480963	-2.512400E+01
204	  0.060681365	-6.128000E+00	  0.060681365	-1.201350E+02	  0.060681365	2.173300E+01	  0.060681365	-2.454800E+01
205	  0.060881764	-6.129000E+00	  0.060881764	-1.213610E+02	  0.060881764	2.151100E+01	  0.060881764	-2.398600E+01
206	  0.061082166	-6.125000E+00	  0.061082166	-1.225810E+02	  0.061082166	2.128300E+01	  0.061082166	-2.343600E+01
207	  0.061282568	-6.127000E+00	  0.061282568	-1.238000E+02	  0.061282568	2.107800E+01	  0.061282568	-2.288400E+01
208	  0.061482966	-6.126000E+00	  0.061482966	-1.249960E+02	  0.061482966	2.087700E+01	  0.061482966	-2.234800E+01
209	  0.061683368	-6.126000E+00	  0.061683368	-1.261840E+02	  0.061683368	2.068700E+01	  0.061683368	-2.181800E+01
210	  0.061883770	-6.129000E+00	  0.061883770	-1.273750E+02	  0.061883770	2.051300E+01	  0.061883770	-2.128700E+01
211	  0.062084168	-6.130000E+00	  0.062084168	-1.285360E+02	  0.062084168	2.034000E+01	  0.062084168	-2.077400E+01
212	  0.062284570	-6.131000E+00	  0.062284570	-1.296960E+02	  0.062284570	2.017400E+01	  0.062284570	-2.026500E+01
213	  0.062484972	-6.124000E+00	  0.062484972	-1.308100E+02	  0.062484972	2.000000E+01	  0.062484972	-1.978500E+01
214	  0.062685370	-6.127000E+00	  0.062685370	-1.319770E+02	  0.062685370	1.985000E+01	  0.062685370	-1.927700E+01
215	  0.062885776	-6.134000E+00	  0.062885776	-1.331410E+02	  0.062885776	1.971500E+01	  0.062885776	-1.877000E+01
216	  0.063086174	-6.138000E+00	  0.063086174	-1.343120E+02	  0.063086174	1.957900E+01	  0.063086174	-1.826300E+01
217	  0.063286573	-6.141000E+00	  0.063286573	-1.354800E+02	  0.063286573	1.944400E+01	  0.063286573	-1.776300E+01
218	  0.063486971	-6.148000E+00	  0.063486971	-1.366560E+02	  0.063486971	1.932300E+01	  0.063486971	-1.725900E+01
219	  0.063687377	-6.153000E+00	  0.063687377	-1.378370E+02	  0.063687377	1.920100E+01	  0.063687377	-1.675600E+01
220	  0.063887775	-6.154000E+00	  0.063887775	-1.389800E+02	  0.063887775	1.907900E+01	  0.063887775	-1.627600E+01
221	  0.064088173	-6.153000E+00	  0.064088173	-1.401290E+02	  0.064088173	1.895300E+01	  0.064088173	-1.579600E+01
222	  0.064288579	-6.156000E+00	  0.064288579	-1.413060E+02	  0.064288579	1.884100E+01	  0.064288579	-1.530400E+01
223	  0.064488977	-6.157000E+00	  0.064488977	-1.424320E+02	  0.064488977	1.873200E+01	  0.064488977	-1.483700E+01
224	  0.064689375	-6.161000E+00	  0.064689375	-1.435640E+02	  0.064689375	1.863700E+01	  0.064689375	-1.436700E+01
225	  0.064889781	-6.162000E+00	  0.064889781	-1.447030E+02	  0.064889781	1.853500E+01	  0.064889781	-1.389800E+01
226	  0.065090179	-6.167000E+00	  0.065090179	-1.457960E+02	  0.065090179	1.845100E+01	  0.065090179	-1.344800E+01
227	  0.065290578	-6.168000E+00	  0.065290578	-1.469010E+02	  0.065290578	1.836100E+01	  0.065290578	-1.299700E+01
228	  0.065490983	-6.171000E+00	  0.065490983	-1.479780E+02	  0.065490983	1.828000E+01	  0.065490983	-1.255800E+01
229	  0.065691382	-6.174000E+00	  0.065691382	-1.490850E+02	  0.065691382	1.820100E+01	  0.065691382	-1.210900E+01
230	  0.065891780	-6.178000E+00	  0.065891780	-1.501750E+02	  0.065891780	1.813000E+01	  0.065891780	-1.166700E+01
231	  0.066092186	-6.186000E+00	  0.066092186	-1.512550E+02	  0.066092186	1.807400E+01	  0.066092186	-1.122900E+01
232	  0.066292584	-6.188000E+00	  0.066292584	-1.523220E+02	  0.066292584	1.800300E+01	  0.066292584	-1.080000E+01
233	  0.066492982	-6.191000E+00	  0.066492982	-1.533780E+02	  0.066492982	1.794300E+01	  0.066492982	-1.037700E+01
234	  0.066693388	-6.196000E+00	  0.066693388	-1.544430E+02	  0.066693388	1.788800E+01	  0.066693388	-9.951000E+00
235	  0.066893786	-6.199000E+00	  0.066893786	-1.555010E+02	  0.066893786	1.783100E+01	  0.066893786	-9.529000E+00
236	  0.067094192	-6.203000E+00	  0.067094192	-1.565230E+02	  0.067094192	1.778200E+01	  0.067094192	-9.123000E+00
237	  0.067294590	-6.215000E+00	  0.067294590	-1.575760E+02	  0.067294590	1.775500E+01	  0.067294590	-8.702000E+00
238	  0.067494988	-6.217000E+00	  0.067494988	-1.586020E+02	  0.067494988	1.770600E+01	  0.067494988	-8.297000E+00
239	  0.067695394	-6.223000E+00	  0.067695394	-1.596780E+02	  0.067695394	1.766900E+01	  0.067695394	-7.872000E+00
240	  0.067895792	-6.226000E+00	  0.067895792	-1.606650E+02	  0.067895792	1.763000E+01	  0.067895792	-7.484000E+00
241	  0.068096191	-6.235000E+00	  0.068096191	-1.617180E+02	  0.068096191	1.760600E+01	  0.068096191	-7.069000E+00
242	  0.068296596	-6.244000E+00	  0.068296596	-1.627330E+02	  0.068296596	1.758600E+01	  0.068296596	-6.671000E+00
243	  0.068496995	-6.252000E+00	  0.068496995	-1.637410E+02	  0.068496995	1.756700E+01	  0.068496995	-6.275000E+00
244	  0.068697393	-6.256000E+00	  0.068697393	-1.647520E+02	  0.068697393	1.753900E+01	  0.068697393	-5.881000E+00
245	  0.068897791	-6.262000E+00	  0.068897791	-1.657250E+02	  0.068897791	1.752100E+01	  0.068897791	-5.502000E+00
246	  0.069098189	-6.262000E+00	  0.069098189	-1.667290E+02	  0.069098189	1.748800E+01	  0.069098189	-5.113000E+00
247	  0.069298595	-6.267000E+00	  0.069298595	-1.677180E+02	  0.069298595	1.747200E+01	  0.069298595	-4.729000E+00
248	  0.069498993	-6.277000E+00	  0.069498993	-1.687030E+02	  0.069498993	1.746800E+01	  0.069498993	-4.346000E+00
249	  0.069699399	-6.280000E+00	  0.069699399	-1.697050E+02	  0.069699399	1.745100E+01	  0.069699399	-3.959000E+00
250	  0.069899797	-6.289000E+00	  0.069899797	-1.706940E+02	  0.069899797	1.745300E+01	  0.069899797	-3.576000E+00
251	  0.070100196	-6.296000E+00	  0.070100196	-1.716760E+02	  0.070100196	1.744800E+01	  0.070100196	-3.197000E+00
252	  0.070300601	-6.302000E+00	  0.070300601	-1.726400E+02	  0.070300601	1.744700E+01	  0.070300601	-2.825000E+00
253	  0.070501000	-6.306000E+00	  0.070501000	-1.736310E+02	  0.070501000	1.744100E+01	  0.070501000	-2.444000E+00
254	  0.070701398	-6.311000E+00	  0.070701398	-1.746010E+02	  0.070701398	1.744000E+01	  0.070701398	-2.071000E+00
255	  0.070901804	-6.312000E+00	  0.070901804	-1.755450E+02	  0.070901804	1.743100E+01	  0.070901804	-1.708000E+00
256	  0.071102202	-6.317000E+00	  0.071102202	-1.765370E+02	  0.071102202	1.743500E+01	  0.071102202	-1.327000E+00
257	  0.071302600	-6.321000E+00	  0.071302600	-1.774780E+02	  0.071302600	1.743900E+01	  0.071302600	-9.660000E-01
258	  0.071503006	-6.323000E+00	  0.071503006	-1.784590E+02	  0.071503006	1.743900E+01	  0.071503006	-5.900000E-01
259	  0.071703404	-6.331000E+00	  0.071703404	-1.793870E+02	  0.071703404	1.745800E+01	  0.071703404	-2.340000E-01
260	  0.071903802	-6.332000E+00	  0.071903802	1.796680E+02	  0.071903802	1.746000E+01	  0.071903802	1.270000E-01
261	  0.072104208	-6.339000E+00	  0.072104208	1.787130E+02	  0.072104208	1.747800E+01	  0.072104208	4.920000E-01
262	  0.072304606	-6.340000E+00	  0.072304606	1.777600E+02	  0.072304606	1.748600E+01	  0.072304606	8.570000E-01
263	  0.072505005	-6.343000E+00	  0.072505005	1.768430E+02	  0.072505005	1.749900E+01	  0.072505005	1.208000E+00
264	  0.072705410	-6.347000E+00	  0.072705410	1.759390E+02	  0.072705410	1.751800E+01	  0.072705410	1.554000E+00
265	  0.072905809	-6.357000E+00	  0.072905809	1.749950E+02	  0.072905809	1.755200E+01	  0.072905809	1.916000E+00
266	  0.073106214	-6.359000E+00	  0.073106214	1.740730E+02	  0.073106214	1.757000E+01	  0.073106214	2.269000E+00
267	  0.073306613	-6.363000E+00	  0.073306613	1.731540E+02	  0.073306613	1.759300E+01	  0.073306613	2.621000E+00
268	  0.073507011	-6.374000E+00	  0.073507011	1.722530E+02	  0.073507011	1.763500E+01	  0.073507011	2.965000E+00
269	  0.073707417	-6.379000E+00	  0.073707417	1.713400E+02	  0.073707417	1.766600E+01	  0.073707417	3.315000E+00
270	  0.073907815	-6.382000E+00	  0.073907815	1.704390E+02	  0.073907815	1.769300E+01	  0.073907815	3.661000E+00
271	  0.074108213	-6.385000E+00	  0.074108213	1.695330E+02	  0.074108213	1.772200E+01	  0.074108213	4.008000E+00
272	  0.074308619	-6.389000E+00	  0.074308619	1.686510E+02	  0.074308619	1.775500E+01	  0.074308619	4.346000E+00
273	  0.074509017	-6.402000E+00	  0.074509017	1.677430E+02	  0.074509017	1.781400E+01	  0.074509017	4.693000E+00
274	  0.074709415	-6.407000E+00	  0.074709415	1.668310E+02	  0.074709415	1.785300E+01	  0.074709415	5.044000E+00
275	  0.074909821	-6.418000E+00	  0.074909821	1.659390E+02	  0.074909821	1.791100E+01	  0.074909821	5.385000E+00
276	  0.075110219	-6.428000E+00	  0.075110219	1.650280E+02	  0.075110219	1.796700E+01	  0.075110219	5.734000E+00
277	  0.075310618	-6.436000E+00	  0.075310618	1.641680E+02	  0.075310618	1.802100E+01	  0.075310618	6.063000E+00
278	  0.075511023	-6.449000E+00	  0.075511023	1.632970E+02	  0.075511023	1.808700E+01	  0.075511023	6.397000E+00
279	  0.075711422	-6.458000E+00	  0.075711422	1.624170E+02	  0.075711422	1.814600E+01	  0.075711422	6.734000E+00
280	  0.075911827	-6.465000E+00	  0.075911827	1.615640E+02	  0.075911827	1.820400E+01	  0.075911827	7.062000E+00
281	  0.076112226	-6.474000E+00	  0.076112226	1.606590E+02	  0.076112226	1.826700E+01	  0.076112226	7.410000E+00
282	  0.076312624	-6.485000E+00	  0.076312624	1.597840E+02	  0.076312624	1.833700E+01	  0.076312624	7.746000E+00
283	  0.076513030	-6.499000E+00	  0.076513030	1.589120E+02	  0.076513030	1.841700E+01	  0.076513030	8.080000E+00
284	  0.076713428	-6.514000E+00	  0.076713428	1.579940E+02	  0.076713428	1.850600E+01	  0.076713428	8.432000E+00
285	  0.076913826	-6.525000E+00	  0.076913826	1.571160E+02	  0.076913826	1.858100E+01	  0.076913826	8.770000E+00
286	  0.077114232	-6.538000E+00	  0.077114232	1.562420E+02	  0.077114232	1.866600E+01	  0.077114232	9.105000E+00
287	  0.077314630	-6.541000E+00	  0.077314630	1.553940E+02	  0.077314630	1.872400E+01	  0.077314630	9.435000E+00
288	  0.077515028	-6.555000E+00	  0.077515028	1.545240E+02	  0.077515028	1.881700E+01	  0.077515028	9.769000E+00
289	  0.077715434	-6.565000E+00	  0.077715434	1.536330E+02	  0.077715434	1.890100E+01	  0.077715434	1.011400E+01
290	  0.077915832	-6.579000E+00	  0.077915832	1.528140E+02	  0.077915832	1.899300E+01	  0.077915832	1.042800E+01
291	  0.078116231	-6.590000E+00	  0.078116231	1.519370E+02	  0.078116231	1.908200E+01	  0.078116231	1.076800E+01
292	  0.078316636	-6.601000E+00	  0.078316636	1.510720E+02	  0.078316636	1.917600E+01	  0.078316636	1.110200E+01
293	  0.078517035	-6.620000E+00	  0.078517035	1.502140E+02	  0.078517035	1.928800E+01	  0.078517035	1.143100E+01
294	  0.078717433	-6.631000E+00	  0.078717433	1.493660E+02	  0.078717433	1.938400E+01	  0.078717433	1.176000E+01
295	  0.078917839	-6.643000E+00	  0.078917839	1.485340E+02	  0.078917839	1.948300E+01	  0.078917839	1.208200E+01
296	  0.079118237	-6.656000E+00	  0.079118237	1.477020E+02	  0.079118237	1.958500E+01	  0.079118237	1.240500E+01
297	  0.079318643	-6.673000E+00	  0.079318643	1.468780E+02	  0.079318643	1.970000E+01	  0.079318643	1.272200E+01
298	  0.079519041	-6.686000E+00	  0.079519041	1.460370E+02	  0.079519041	1.980900E+01	  0.079519041	1.304800E+01
299	  0.079719439	-6.699000E+00	  0.079719439	1.452250E+02	  0.079719439	1.991800E+01	  0.079719439	1.336400E+01
300	  0.079919845	-6.717000E+00	  0.079919845	1.443750E+02	  0.079919845	2.004500E+01	  0.079919845	1.369100E+01
301	  0.080120243	-6.730000E+00	  0.080120243	1.435740E+02	  0.080120243	2.015800E+01	  0.080120243	1.400300E+01
302	  0.080320641	-6.745000E+00	  0.080320641	1.427750E+02	  0.080320641	2.027600E+01	  0.080320641	1.431300E+01
303	  0.080521047	-6.764000E+00	  0.080521047	1.419260E+02	  0.080521047	2.041600E+01	  0.080521047	1.463900E+01
304	  0.080721445	-6.776000E+00	  0.080721445	1.411500E+02	  0.080721445	2.052800E+01	  0.080721445	1.494300E+01
305	  0.080921844	-6.789000E+00	  0.080921844	1.403430E+02	  0.080921844	2.065200E+01	  0.080921844	1.525800E+01
306	  0.081122249	-6.812000E+00	  0.081122249	1.395630E+02	  0.081122249	2.079700E+01	  0.081122249	1.555600E+01
307	  0.081322648	-6.824000E+00	  0.081322648	1.387530E+02	  0.081322648	2.092400E+01	  0.081322648	1.587300E+01
308	  0.081523046	-6.837000E+00	  0.081523046	1.379610E+02	  0.081523046	2.105100E+01	  0.081523046	1.618300E+01
309	  0.081723452	-6.857000E+00	  0.081723452	1.372190E+02	  0.081723452	2.119400E+01	  0.081723452	1.646700E+01
310	  0.081923850	-6.880000E+00	  0.081923850	1.364330E+02	  0.081923850	2.135100E+01	  0.081923850	1.676800E+01
311	  0.082124248	-6.894000E+00	  0.082124248	1.356550E+02	  0.082124248	2.148900E+01	  0.082124248	1.707200E+01
312	  0.082324654	-6.915000E+00	  0.082324654	1.349020E+02	  0.082324654	2.164200E+01	  0.082324654	1.736100E+01
313	  0.082525052	-6.937000E+00	  0.082525052	1.341500E+02	  0.082525052	2.180000E+01	  0.082525052	1.764800E+01
314	  0.082725458	-6.957000E+00	  0.082725458	1.333910E+02	  0.082725458	2.195700E+01	  0.082725458	1.794000E+01
315	  0.082925856	-6.980000E+00	  0.082925856	1.326570E+02	  0.082925856	2.212200E+01	  0.082925856	1.821800E+01
316	  0.083126254	-6.998000E+00	  0.083126254	1.318970E+02	  0.083126254	2.228000E+01	  0.083126254	1.851200E+01
317	  0.083326660	-7.026000E+00	  0.083326660	1.311130E+02	  0.083326660	2.246800E+01	  0.083326660	1.880700E+01
318	  0.083527058	-7.049000E+00	  0.083527058	1.303200E+02	  0.083527058	2.264900E+01	  0.083527058	1.910900E+01
319	  0.083727457	-7.072000E+00	  0.083727457	1.295500E+02	  0.083727457	2.282800E+01	  0.083727457	1.940300E+01
320	  0.083927862	-7.087000E+00	  0.083927862	1.287910E+02	  0.083927862	2.298800E+01	  0.083927862	1.970000E+01
321	  0.084128261	-7.111000E+00	  0.084128261	1.280590E+02	  0.084128261	2.317000E+01	  0.084128261	1.997600E+01
322	  0.084328659	-7.132000E+00	  0.084328659	1.273200E+02	  0.084328659	2.334800E+01	  0.084328659	2.025800E+01
323	  0.084529065	-7.155000E+00	  0.084529065	1.265740E+02	  0.084529065	2.353700E+01	  0.084529065	2.054000E+01
324	  0.084729463	-7.178000E+00	  0.084729463	1.258300E+02	  0.084729463	2.372500E+01	  0.084729463	2.082200E+01
325	  0.084929861	-7.200000E+00	  0.084929861	1.251060E+02	  0.084929861	2.391200E+01	  0.084929861	2.109700E+01
326	  0.085130267	-7.224000E+00	  0.085130267	1.243830E+02	  0.085130267	2.410700E+01	  0.085130267	2.136800E+01
327	  0.085330658	-7.244000E+00	  0.085330658	1.236580E+02	  0.085330658	2.429400E+01	  0.085330658	2.164500E+01
328	  0.085531056	-7.269000E+00	  0.085531056	1.229110E+02	  0.085531056	2.449900E+01	  0.085531056	2.192500E+01
329	  0.085731462	-7.291000E+00	  0.085731462	1.222360E+02	  0.085731462	2.468700E+01	  0.085731462	2.217800E+01
330	  0.085931860	-7.317000E+00	  0.085931860	1.215280E+02	  0.085931860	2.489500E+01	  0.085931860	2.243900E+01
331	  0.086132258	-7.342000E+00	  0.086132258	1.208610E+02	  0.086132258	2.509600E+01	  0.086132258	2.268400E+01
332	  0.086332664	-7.371000E+00	  0.086332664	1.201660E+02	  0.086332664	2.531500E+01	  0.086332664	2.293500E+01
333	  0.086533062	-7.396000E+00	  0.086533062	1.194550E+02	  0.086533062	2.553000E+01	  0.086533062	2.319700E+01
334	  0.086733460	-7.423000E+00	  0.086733460	1.187680E+02	  0.086733460	2.574700E+01	  0.086733460	2.344600E+01
335	  0.086933866	-7.446000E+00	  0.086933866	1.180850E+02	  0.086933866	2.595700E+01	  0.086933866	2.369800E+01
336	  0.087134264	-7.469000E+00	  0.087134264	1.174000E+02	  0.087134264	2.616700E+01	  0.087134264	2.395100E+01
337	  0.087334670	-7.495000E+00	  0.087334670	1.167180E+02	  0.087334670	2.639000E+01	  0.087334670	2.419700E+01
338	  0.087535068	-7.522000E+00	  0.087535068	1.160350E+02	  0.087535068	2.661800E+01	  0.087535068	2.444200E+01
339	  0.087735467	-7.553000E+00	  0.087735467	1.153560E+02	  0.087735467	2.685700E+01	  0.087735467	2.467900E+01
340	  0.087935872	-7.581000E+00	  0.087935872	1.147320E+02	  0.087935872	2.707900E+01	  0.087935872	2.489600E+01
341	  0.088136271	-7.602000E+00	  0.088136271	1.141080E+02	  0.088136271	2.728700E+01	  0.088136271	2.512200E+01
342	  0.088336669	-7.628000E+00	  0.088336669	1.134500E+02	  0.088336669	2.751700E+01	  0.088336669	2.535500E+01
343	  0.088537075	-7.654000E+00	  0.088537075	1.128110E+02	  0.088537075	2.774600E+01	  0.088537075	2.557900E+01
344	  0.088737473	-7.673000E+00	  0.088737473	1.121890E+02	  0.088737473	2.795400E+01	  0.088737473	2.580600E+01
345	  0.088937871	-7.700000E+00	  0.088937871	1.115610E+02	  0.088937871	2.818500E+01	  0.088937871	2.602300E+01
346	  0.089138277	-7.732000E+00	  0.089138277	1.109540E+02	  0.089138277	2.843000E+01	  0.089138277	2.622100E+01
347	  0.089338675	-7.757000E+00	  0.089338675	1.103370E+02	  0.089338675	2.866100E+01	  0.089338675	2.643300E+01
348	  0.089539073	-7.790000E+00	  0.089539073	1.097720E+02	  0.089539073	2.890100E+01	  0.089539073	2.661000E+01
349	  0.089739479	-7.818000E+00	  0.089739479	1.091720E+02	  0.089739479	2.914000E+01	  0.089739479	2.680900E+01
350	  0.089939877	-7.850000E+00	  0.089939877	1.085890E+02	  0.089939877	2.938800E+01	  0.089939877	2.699100E+01
351	  0.090140276	-7.875000E+00	  0.090140276	1.079690E+02	  0.090140276	2.962900E+01	  0.090140276	2.720000E+01
352	  0.090340681	-7.905000E+00	  0.090340681	1.073560E+02	  0.090340681	2.988600E+01	  0.090340681	2.739600E+01
353	  0.090541080	-7.935000E+00	  0.090541080	1.067760E+02	  0.090541080	3.013100E+01	  0.090541080	2.757900E+01
354	  0.090741485	-7.961000E+00	  0.090741485	1.061760E+02	  0.090741485	3.037800E+01	  0.090741485	2.777400E+01
355	  0.090941884	-7.988000E+00	  0.090941884	1.055770E+02	  0.090941884	3.063000E+01	  0.090941884	2.796600E+01
356	  0.091142282	-8.017000E+00	  0.091142282	1.049940E+02	  0.091142282	3.088300E+01	  0.091142282	2.814700E+01
357	  0.091342688	-8.048000E+00	  0.091342688	1.044400E+02	  0.091342688	3.113700E+01	  0.091342688	2.831000E+01
358	  0.091543086	-8.077000E+00	  0.091543086	1.038880E+02	  0.091543086	3.138500E+01	  0.091543086	2.847500E+01
359	  0.091743484	-8.099000E+00	  0.091743484	1.033320E+02	  0.091743484	3.161700E+01	  0.091743484	2.865700E+01
360	  0.091943890	-8.123000E+00	  0.091943890	1.027530E+02	  0.091943890	3.186600E+01	  0.091943890	2.883900E+01
361	  0.092144288	-8.149000E+00	  0.092144288	1.022300E+02	  0.092144288	3.210300E+01	  0.092144288	2.899600E+01
362	  0.092344686	-8.174000E+00	  0.092344686	1.016770E+02	  0.092344686	3.235100E+01	  0.092344686	2.916500E+01
363	  0.092545092	-8.198000E+00	  0.092545092	1.011490E+02	  0.092545092	3.258900E+01	  0.092545092	2.932400E+01
364	  0.092745490	-8.225000E+00	  0.092745490	1.006400E+02	  0.092745490	3.283100E+01	  0.092745490	2.946900E+01
365	  0.092945889	-8.249000E+00	  0.092945889	1.001510E+02	  0.092945889	3.306300E+01	  0.092945889	2.960800E+01
366	  0.093146294	-8.277000E+00	  0.093146294	9.962500E+01	  0.093146294	3.331600E+01	  0.093146294	2.975500E+01
367	  0.093346693	-8.302000E+00	  0.093346693	9.914700E+01	  0.093346693	3.354800E+01	  0.093346693	2.988600E+01
368	  0.093547091	-8.328000E+00	  0.093547091	9.864900E+01	  0.093547091	3.379100E+01	  0.093547091	3.002300E+01
369	  0.093747497	-8.350000E+00	  0.093747497	9.814600E+01	  0.093747497	3.402700E+01	  0.093747497	3.016900E+01
370	  0.093947895	-8.378000E+00	  0.093947895	9.763200E+01	  0.093947895	3.428400E+01	  0.093947895	3.030600E+01
371	  0.094148301	-8.400000E+00	  0.094148301	9.714200E+01	  0.094148301	3.451900E+01	  0.094148301	3.044400E+01
372	  0.094348699	-8.427000E+00	  0.094348699	9.667900E+01	  0.094348699	3.475900E+01	  0.094348699	3.055900E+01
373	  0.094549097	-8.448000E+00	  0.094549097	9.619200E+01	  0.094549097	3.499500E+01	  0.094549097	3.069600E+01
374	  0.094749503	-8.474000E+00	  0.094749503	9.573900E+01	  0.094749503	3.523200E+01	  0.094749503	3.080600E+01
375	  0.094949901	-8.495000E+00	  0.094949901	9.528800E+01	  0.094949901	3.545800E+01	  0.094949901	3.092600E+01
376	  0.095150299	-8.516000E+00	  0.095150299	9.482800E+01	  0.095150299	3.568800E+01	  0.095150299	3.104900E+01
377	  0.095350705	-8.534000E+00	  0.095350705	9.439300E+01	  0.095350705	3.590300E+01	  0.095350705	3.116800E+01
378	  0.095551103	-8.557000E+00	  0.095551103	9.394600E+01	  0.095551103	3.613600E+01	  0.095551103	3.127900E+01
379	  0.095751502	-8.577000E+00	  0.095751502	9.351200E+01	  0.095751502	3.635800E+01	  0.095751502	3.139000E+01
380	  0.095951907	-8.595000E+00	  0.095951907	9.307800E+01	  0.095951907	3.657500E+01	  0.095951907	3.150800E+01
381	  0.096152306	-8.616000E+00	  0.096152306	9.266300E+01	  0.096152306	3.679500E+01	  0.096152306	3.160700E+01
382	  0.096352704	-8.637000E+00	  0.096352704	9.225200E+01	  0.096352704	3.701500E+01	  0.096352704	3.170300E+01
383	  0.096553110	-8.651000E+00	  0.096553110	9.184900E+01	  0.096553110	3.721500E+01	  0.096553110	3.181500E+01
384	  0.096753508	-8.670000E+00	  0.096753508	9.143000E+01	  0.096753508	3.743400E+01	  0.096753508	3.192000E+01
385	  0.096953906	-8.684000E+00	  0.096953906	9.101900E+01	  0.096953906	3.764100E+01	  0.096953906	3.203300E+01
386	  0.097154312	-8.708000E+00	  0.097154312	9.060300E+01	  0.097154312	3.787600E+01	  0.097154312	3.211700E+01
387	  0.097354710	-8.722000E+00	  0.097354710	9.016700E+01	  0.097354710	3.809600E+01	  0.097354710	3.223600E+01
388	  0.097555116	-8.734000E+00	  0.097555116	8.975200E+01	  0.097555116	3.830400E+01	  0.097555116	3.235200E+01
389	  0.097755514	-8.749000E+00	  0.097755514	8.935400E+01	  0.097755514	3.851200E+01	  0.097755514	3.245600E+01
390	  0.097955912	-8.766000E+00	  0.097955912	8.892100E+01	  0.097955912	3.874200E+01	  0.097955912	3.256200E+01
391	  0.098156318	-8.775000E+00	  0.098156318	8.853700E+01	  0.098156318	3.893400E+01	  0.098156318	3.267300E+01
392	  0.098356716	-8.784000E+00	  0.098356716	8.812100E+01	  0.098356716	3.914100E+01	  0.098356716	3.279400E+01
393	  0.098557115	-8.791000E+00	  0.098557115	8.771800E+01	  0.098557115	3.933800E+01	  0.098557115	3.291700E+01
394	  0.098757520	-8.798000E+00	  0.098757520	8.731400E+01	  0.098757520	3.953700E+01	  0.098757520	3.304200E+01
395	  0.098957919	-8.804000E+00	  0.098957919	8.692200E+01	  0.098957919	3.973100E+01	  0.098957919	3.316100E+01
396	  0.099158317	-8.806000E+00	  0.099158317	8.648400E+01	  0.099158317	3.993800E+01	  0.099158317	3.331000E+01
397	  0.099358723	-8.808000E+00	  0.099358723	8.605600E+01	  0.099358723	4.014400E+01	  0.099358723	3.345200E+01
398	  0.099559121	-8.808000E+00	  0.099559121	8.568000E+01	  0.099559121	4.031900E+01	  0.099559121	3.358600E+01
399	  0.099759519	-8.814000E+00	  0.099759519	8.532400E+01	  0.099759519	4.050300E+01	  0.099759519	3.369000E+01
400	  0.099959925	-8.809000E+00	  0.099959925	8.495300E+01	  0.099959925	4.066900E+01	  0.099959925	3.383500E+01
401	  0.100160323	-8.808000E+00	  0.100160323	8.453300E+01	  0.100160323	4.086800E+01	  0.100160323	3.398400E+01
402	  0.100360721	-8.815000E+00	  0.100360721	8.414000E+01	  0.100360721	4.107400E+01	  0.100360721	3.409900E+01
403	  0.100561127	-8.813000E+00	  0.100561127	8.380100E+01	  0.100561127	4.123800E+01	  0.100561127	3.421900E+01
404	  0.100761525	-8.805000E+00	  0.100761525	8.338000E+01	  0.100761525	4.142900E+01	  0.100761525	3.439000E+01
405	  0.100961931	-8.805000E+00	  0.100961931	8.294700E+01	  0.100961931	4.164500E+01	  0.100961931	3.453800E+01
406	  0.101162329	-8.796000E+00	  0.101162329	8.250300E+01	  0.101162329	4.184800E+01	  0.101162329	3.472200E+01
407	  0.101362728	-8.802000E+00	  0.101362728	8.213300E+01	  0.101362728	4.205100E+01	  0.101362728	3.482600E+01
408	  0.101563133	-8.787000E+00	  0.101563133	8.169600E+01	  0.101563133	4.224000E+01	  0.101563133	3.502700E+01
409	  0.101763532	-8.780000E+00	  0.101763532	8.133700E+01	  0.101763532	4.241200E+01	  0.101763532	3.517200E+01
410	  0.101963930	-8.783000E+00	  0.101963930	8.089100E+01	  0.101963930	4.265100E+01	  0.101963930	3.531300E+01
411	  0.102164336	-8.777000E+00	  0.102164336	8.050700E+01	  0.102164336	4.284200E+01	  0.102164336	3.546000E+01
412	  0.102364734	-8.766000E+00	  0.102364734	8.001800E+01	  0.102364734	4.307700E+01	  0.102364734	3.566400E+01
413	  0.102565132	-8.749000E+00	  0.102565132	7.959400E+01	  0.102565132	4.326800E+01	  0.102565132	3.586600E+01
414	  0.102765530	-8.740000E+00	  0.102765530	7.914300E+01	  0.102765530	4.349500E+01	  0.102765530	3.604800E+01
415	  0.102965929	-8.736000E+00	  0.102965929	7.871300E+01	  0.102965929	4.372200E+01	  0.102965929	3.620600E+01
416	  0.103166327	-8.724000E+00	  0.103166327	7.831500E+01	  0.103166327	4.391700E+01	  0.103166327	3.638200E+01
417	  0.103366733	-8.715000E+00	  0.103366733	7.784800E+01	  0.103366733	4.416000E+01	  0.103366733	3.656800E+01
418	  0.103567131	-8.700000E+00	  0.103567131	7.742500E+01	  0.103567131	4.436600E+01	  0.103567131	3.676400E+01
419	  0.103767529	-8.692000E+00	  0.103767529	7.697300E+01	  0.103767529	4.460700E+01	  0.103767529	3.694400E+01
420	  0.103967935	-8.683000E+00	  0.103967935	7.648000E+01	  0.103967935	4.487400E+01	  0.103967935	3.713700E+01
421	  0.104168333	-8.669000E+00	  0.104168333	7.596900E+01	  0.104168333	4.514200E+01	  0.104168333	3.736000E+01
422	  0.104368731	-8.651000E+00	  0.104368731	7.550400E+01	  0.104368731	4.537900E+01	  0.104368731	3.758000E+01
423	  0.104569137	-8.643000E+00	  0.104569137	7.501800E+01	  0.104569137	4.565200E+01	  0.104569137	3.777000E+01
424	  0.104769535	-8.628000E+00	  0.104769535	7.451800E+01	  0.104769535	4.592500E+01	  0.104769535	3.798700E+01
425	  0.104969934	-8.606000E+00	  0.104969934	7.403400E+01	  0.104969934	4.617400E+01	  0.104969934	3.823200E+01
426	  0.105170339	-8.603000E+00	  0.105170339	7.349600E+01	  0.105170339	4.650000E+01	  0.105170339	3.841700E+01
427	  0.105370738	-8.580000E+00	  0.105370738	7.301300E+01	  0.105370738	4.675600E+01	  0.105370738	3.866500E+01
428	  0.105571143	-8.555000E+00	  0.105571143	7.247500E+01	  0.105571143	4.704600E+01	  0.105571143	3.893600E+01
429	  0.105771542	-8.545000E+00	  0.105771542	7.193700E+01	  0.105771542	4.737100E+01	  0.105771542	3.915000E+01
430	  0.105971940	-8.524000E+00	  0.105971940	7.137900E+01	  0.105971940	4.769300E+01	  0.105971940	3.941100E+01
431	  0.106172346	-8.506000E+00	  0.106172346	7.080400E+01	  0.106172346	4.803500E+01	  0.106172346	3.967100E+01
432	  0.106372744	-8.481000E+00	  0.106372744	7.020600E+01	  0.106372744	4.838500E+01	  0.106372744	3.996400E+01
433	  0.106573142	-8.458000E+00	  0.106573142	6.972000E+01	  0.106573142	4.867000E+01	  0.106573142	4.021300E+01
434	  0.106773548	-8.445000E+00	  0.106773548	6.914800E+01	  0.106773548	4.903600E+01	  0.106773548	4.044800E+01
435	  0.106973946	-8.433000E+00	  0.106973946	6.861800E+01	  0.106973946	4.938200E+01	  0.106973946	4.066200E+01
436	  0.107174344	-8.413000E+00	  0.107174344	6.800800E+01	  0.107174344	4.977300E+01	  0.107174344	4.093700E+01
437	  0.107374750	-8.391000E+00	  0.107374750	6.742300E+01	  0.107374750	5.014900E+01	  0.107374750	4.121500E+01
438	  0.107575148	-8.369000E+00	  0.107575148	6.685100E+01	  0.107575148	5.052200E+01	  0.107575148	4.148800E+01
439	  0.107775547	-8.356000E+00	  0.107775547	6.624700E+01	  0.107775547	5.094200E+01	  0.107775547	4.172600E+01
440	  0.107975952	-8.340000E+00	  0.107975952	6.565100E+01	  0.107975952	5.135800E+01	  0.107975952	4.197200E+01
441	  0.108176351	-8.326000E+00	  0.108176351	6.504700E+01	  0.108176351	5.178900E+01	  0.108176351	4.221400E+01
442	  0.108376749	-8.300000E+00	  0.108376749	6.441300E+01	  0.108376749	5.222900E+01	  0.108376749	4.252200E+01
443	  0.108577155	-8.292000E+00	  0.108577155	6.384800E+01	  0.108577155	5.265600E+01	  0.108577155	4.271600E+01
444	  0.108777553	-8.273000E+00	  0.108777553	6.315500E+01	  0.108777553	5.317000E+01	  0.108777553	4.300200E+01
445	  0.108977959	-8.266000E+00	  0.108977959	6.251300E+01	  0.108977959	5.367500E+01	  0.108977959	4.320700E+01
446	  0.109178357	-8.251000E+00	  0.109178357	6.185100E+01	  0.109178357	5.419100E+01	  0.109178357	4.345600E+01
447	  0.109378755	-8.242000E+00	  0.109378755	6.116900E+01	  0.109378755	5.473900E+01	  0.109378755	4.368000E+01
448	  0.109579161	-8.228000E+00	  0.109579161	6.048600E+01	  0.109579161	5.529100E+01	  0.109579161	4.392300E+01
449	  0.109779559	-8.216000E+00	  0.109779559	5.981600E+01	  0.109779559	5.584500E+01	  0.109779559	4.414900E+01
450	  0.109979957	-8.205000E+00	  0.109979957	5.911600E+01	  0.109979957	5.643700E+01	  0.109979957	4.436600E+01
451	  0.110180363	-8.196000E+00	  0.110180363	5.842300E+01	  0.110180363	5.703300E+01	  0.110180363	4.457400E+01
452	  0.110380761	-8.193000E+00	  0.110380761	5.775700E+01	  0.110380761	5.762400E+01	  0.110380761	4.473100E+01
453	  0.110581160	-8.180000E+00	  0.110581160	5.702700E+01	  0.110581160	5.826900E+01	  0.110581160	4.495500E+01
454	  0.110781565	-8.169000E+00	  0.110781565	5.632000E+01	  0.110781565	5.890700E+01	  0.110781565	4.515700E+01
455	  0.110981964	-8.164000E+00	  0.110981964	5.552300E+01	  0.110981964	5.964700E+01	  0.110981964	4.533300E+01
456	  0.111182362	-8.156000E+00	  0.111182362	5.478200E+01	  0.111182362	6.034200E+01	  0.111182362	4.551000E+01
457	  0.111382768	-8.146000E+00	  0.111382768	5.402600E+01	  0.111382768	6.106300E+01	  0.111382768	4.569000E+01
458	  0.111583166	-8.151000E+00	  0.111583166	5.326700E+01	  0.111583166	6.181300E+01	  0.111583166	4.576300E+01
459	  0.111783572	-8.141000E+00	  0.111783572	5.249100E+01	  0.111783572	6.257600E+01	  0.111783572	4.593200E+01
460	  0.111983970	-8.135000E+00	  0.111983970	5.166800E+01	  0.111983970	6.340400E+01	  0.111983970	4.606500E+01
461	  0.112184368	-8.135000E+00	  0.112184368	5.091100E+01	  0.112184368	6.418100E+01	  0.112184368	4.614100E+01
462	  0.112384774	-8.137000E+00	  0.112384774	5.004100E+01	  0.112384774	6.508800E+01	  0.112384774	4.619400E+01
463	  0.112585172	-8.131000E+00	  0.112585172	4.926600E+01	  0.112585172	6.590500E+01	  0.112585172	4.628200E+01
464	  0.112785570	-8.120000E+00	  0.112785570	4.843600E+01	  0.112785570	6.679300E+01	  0.112785570	4.639700E+01
465	  0.112985976	-8.125000E+00	  0.112985976	4.759900E+01	  0.112985976	6.770500E+01	  0.112985976	4.638100E+01
466	  0.113186374	-8.125000E+00	  0.113186374	4.678600E+01	  0.113186374	6.860200E+01	  0.113186374	4.638100E+01
467	  0.113386773	-8.128000E+00	  0.113386773	4.596100E+01	  0.113386773	6.952300E+01	  0.113386773	4.633900E+01
468	  0.113587178	-8.125000E+00	  0.113587178	4.512400E+01	  0.113587178	7.047200E+01	  0.113587178	4.632400E+01
469	  0.113787577	-8.126000E+00	  0.113787577	4.429000E+01	  0.113787577	7.142800E+01	  0.113787577	4.625700E+01
470	  0.113987975	-8.133000E+00	  0.113987975	4.339300E+01	  0.113987975	7.246400E+01	  0.113987975	4.612100E+01
471	  0.114188381	-8.138000E+00	  0.114188381	4.252200E+01	  0.114188381	7.348100E+01	  0.114188381	4.597300E+01
472	  0.114388779	-8.143000E+00	  0.114388779	4.168200E+01	  0.114388779	7.447200E+01	  0.114388779	4.581200E+01
473	  0.114589177	-8.157000E+00	  0.114589177	4.075400E+01	  0.114589177	7.556500E+01	  0.114589177	4.552700E+01
474	  0.114789583	-8.161000E+00	  0.114789583	3.988100E+01	  0.114789583	7.661300E+01	  0.114789583	4.531300E+01
475	  0.114989981	-8.175000E+00	  0.114989981	3.900700E+01	  0.114989981	7.765400E+01	  0.114989981	4.498600E+01
476	  0.115190387	-8.185000E+00	  0.115190387	3.811100E+01	  0.115190387	7.873100E+01	  0.115190387	4.465300E+01
477	  0.115390785	-8.203000E+00	  0.115390785	3.718700E+01	  0.115390785	7.982800E+01	  0.115390785	4.421200E+01
478	  0.115591183	-8.223000E+00	  0.115591183	3.620400E+01	  0.115591183	8.099700E+01	  0.115591183	4.370600E+01
479	  0.115791589	-8.242000E+00	  0.115791589	3.529800E+01	  0.115791589	8.206600E+01	  0.115791589	4.318900E+01
480	  0.115991987	-8.265000E+00	  0.115991987	3.431600E+01	  0.115991987	8.321400E+01	  0.115991987	4.257300E+01
481	  0.116192386	-8.287000E+00	  0.116192386	3.333300E+01	  0.116192386	8.436200E+01	  0.116192386	4.192900E+01
482	  0.116392791	-8.316000E+00	  0.116392791	3.237900E+01	  0.116392791	8.543700E+01	  0.116392791	4.119800E+01
483	  0.116593190	-8.339000E+00	  0.116593190	3.137100E+01	  0.116593190	8.658600E+01	  0.116593190	4.044100E+01
484	  0.116793588	-8.372000E+00	  0.116793588	3.036100E+01	  0.116793588	8.768200E+01	  0.116793588	3.956000E+01
485	  0.116993994	-8.401000E+00	  0.116993994	2.930500E+01	  0.116993994	8.883000E+01	  0.116993994	3.863700E+01
486	  0.117194392	-8.435000E+00	  0.117194392	2.827100E+01	  0.117194392	8.990100E+01	  0.117194392	3.764200E+01
487	  0.117394790	-8.469000E+00	  0.117394790	2.718300E+01	  0.117394790	9.101100E+01	  0.117394790	3.656600E+01
488	  0.117595196	-8.507000E+00	  0.117595196	2.614000E+01	  0.117595196	9.200700E+01	  0.117595196	3.544100E+01
489	  0.117795594	-8.551000E+00	  0.117795594	2.506200E+01	  0.117795594	9.297300E+01	  0.117795594	3.420200E+01
490	  0.117995992	-8.598000E+00	  0.117995992	2.395800E+01	  0.117995992	9.390800E+01	  0.117995992	3.288300E+01
491	  0.118196398	-8.642000E+00	  0.118196398	2.285400E+01	  0.118196398	9.480600E+01	  0.118196398	3.153800E+01
492	  0.118396796	-8.694000E+00	  0.118396796	2.166100E+01	  0.118396796	9.568700E+01	  0.118396796	3.001300E+01
493	  0.118597202	-8.746000E+00	  0.118597202	2.051900E+01	  0.118597202	9.646200E+01	  0.118597202	2.851100E+01
494	  0.118797600	-8.802000E+00	  0.118797600	1.929300E+01	  0.118797600	9.721300E+01	  0.118797600	2.685600E+01
495	  0.118997999	-8.863000E+00	  0.118997999	1.810200E+01	  0.118997999	9.782500E+01	  0.118997999	2.518500E+01
496	  0.119198404	-8.915000E+00	  0.119198404	1.694300E+01	  0.119198404	9.840000E+01	  0.119198404	2.357400E+01
497	  0.119398803	-8.988000E+00	  0.119398803	1.569700E+01	  0.119398803	9.880700E+01	  0.119398803	2.174000E+01
498	  0.119599201	-9.050000E+00	  0.119599201	1.444200E+01	  0.119599201	9.921800E+01	  0.119599201	1.993800E+01
499	  0.119799607	-9.123000E+00	  0.119799607	1.314000E+01	  0.119799607	9.948600E+01	  0.119799607	1.802800E+01
500	  0.120000005	-9.198000E+00	  0.120000005	1.192700E+01	  0.120000005	9.959400E+01	  0.120000005	1.622800E+01
