! Anritsu VNA Master:             	Model: MS2036C/10/77
! SN:             	1601066
! /card0/usr/18may27.balun/5b.47.3.txt
! Existing Calibration Information:
! TYPE:             	Current Settings	Active Cal Settings
! TIME:             	05/27/2018 03:59:22 PM	05/27/2018 03:52:12 PM
! INTERNAL TEMP:    	52.0 C	52.5 C
! # POINTS:         	500	500
! START FREQ:       	20.000 MHz	20.000 MHz
! STOP FREQ:        	120.000 MHz	120.000 MHz
! SOURCE POWER:     	High	High
! IFBW:             	50 Hz	50 Hz
! AVG FACTOR:       	  1 	  1 
! REF PLANE 1:      	0 mm	0 mm
! REF PLANE 2:      	0 mm	0 mm
! CAL TYPE:         	Full S11	Full S11
! CAL METHOD:       	SOLT	SOLT
! CAL LINE TYPE:    	Coax	Coax
! DUT PORT 1:       	K-Conn(M)	K-Conn(M)
! DUT PORT 2:       	K-Conn(M)	K-Conn(M)
! CAL STATUS:       	OK: Accuracy High	--
! PROP-V:       	0.700
! CABLE LOSS:       	0.000 dB/m
! REF IMPEDANCE:       	50.0
! Trace Specific Parameters:	TR1	TR2	TR3	TR4
! TRACE.#.Y (GRAPH TYPE)	LOG MAG	PHASE	REAL IMPEDANCE	IMAGINARY IMPEDANCE
! TRACE.#.X 	FREQ.GHZ	FREQ.GHZ	FREQ.GHZ	FREQ.GHZ
! S-PARAMETER	S11	S11	S11	S11
! SMOOTH/APERTURE %	0	0	0	0
! WINDOW	NSL	NSL	NSL	NSL
! GATING	OFF	OFF	OFF	OFF
! FGTD	OFF	OFF	OFF	OFF
Marker Information per Trace:	TR1	TR2	TR3	TR4
!MK1	--	--	--	"MK1 TR4:  70.100 200 MHz,Z:(0.720 ohm, -1.171 ohm)"
!MK2	--	--	--	--
!MK3	--	--	--	--
!MK4	--	--	--	--
!MK5	--	--	--	--
!MK6	--	--	--	--
!MK7	--	--	--	--
!MK8	--	--	--	--
PNT	TR1.FREQ.GHZ	TR1.LOG MAG.dB	TR2.FREQ.GHZ	TR2.PHASE.deg	TR3.FREQ.GHZ	TR3.REAL IMPEDANCE.ohm	TR4.FREQ.GHZ	TR4.IMAGINARY IMPEDANCE.ohm
1	  0.020000000	-2.600000E-02	  0.020000000	-5.612500E+01	  0.020000000	3.460000E-01	  0.020000000	-9.378600E+01
2	  0.020200402	-2.500000E-02	  0.020200402	-5.668500E+01	  0.020200402	3.260000E-01	  0.020200402	-9.269300E+01
3	  0.020400802	-2.300000E-02	  0.020400802	-5.722500E+01	  0.020400802	2.980000E-01	  0.020400802	-9.165700E+01
4	  0.020601204	-2.300000E-02	  0.020601204	-5.778600E+01	  0.020601204	2.920000E-01	  0.020601204	-9.059800E+01
5	  0.020801604	-2.500000E-02	  0.020801604	-5.833300E+01	  0.020801604	3.040000E-01	  0.020801604	-8.958600E+01
6	  0.021002004	-2.400000E-02	  0.021002004	-5.889500E+01	  0.021002004	2.920000E-01	  0.021002004	-8.856100E+01
7	  0.021202406	-2.700000E-02	  0.021202406	-5.944900E+01	  0.021202406	3.170000E-01	  0.021202406	-8.757000E+01
8	  0.021402806	-2.900000E-02	  0.021402806	-5.998200E+01	  0.021402806	3.360000E-01	  0.021402806	-8.663200E+01
9	  0.021603208	-3.100000E-02	  0.021603208	-6.051600E+01	  0.021603208	3.580000E-01	  0.021603208	-8.570600E+01
10	  0.021803608	-3.500000E-02	  0.021803608	-6.103900E+01	  0.021803608	3.940000E-01	  0.021803608	-8.481500E+01
11	  0.022004008	-3.600000E-02	  0.022004008	-6.156000E+01	  0.022004008	3.990000E-01	  0.022004008	-8.393900E+01
12	  0.022204408	-4.000000E-02	  0.022204408	-6.209900E+01	  0.022204408	4.320000E-01	  0.022204408	-8.304900E+01
13	  0.022404809	-4.300000E-02	  0.022404809	-6.267100E+01	  0.022404809	4.670000E-01	  0.022404809	-8.211800E+01
14	  0.022605211	-4.600000E-02	  0.022605211	-6.320600E+01	  0.022605211	4.840000E-01	  0.022605211	-8.126100E+01
15	  0.022805611	-4.200000E-02	  0.022805611	-6.376600E+01	  0.022805611	4.400000E-01	  0.022805611	-8.037800E+01
16	  0.023006011	-3.300000E-02	  0.023006011	-6.432500E+01	  0.023006011	3.400000E-01	  0.023006011	-7.951100E+01
17	  0.023206413	-2.400000E-02	  0.023206413	-6.488000E+01	  0.023206413	2.420000E-01	  0.023206413	-7.866400E+01
18	  0.023406813	-2.000000E-02	  0.023406813	-6.543300E+01	  0.023406813	2.040000E-01	  0.023406813	-7.783100E+01
19	  0.023607215	-1.900000E-02	  0.023607215	-6.598500E+01	  0.023607215	1.850000E-01	  0.023607215	-7.701300E+01
20	  0.023807615	-2.000000E-02	  0.023807615	-6.648200E+01	  0.023807615	2.000000E-01	  0.023807615	-7.628700E+01
21	  0.024008015	-2.200000E-02	  0.024008015	-6.698000E+01	  0.024008015	2.130000E-01	  0.024008015	-7.556900E+01
22	  0.024208417	-2.600000E-02	  0.024208417	-6.747700E+01	  0.024208417	2.510000E-01	  0.024208417	-7.486100E+01
23	  0.024408817	-3.400000E-02	  0.024408817	-6.795700E+01	  0.024408817	3.140000E-01	  0.024408817	-7.418600E+01
24	  0.024609219	-3.800000E-02	  0.024609219	-6.846600E+01	  0.024609219	3.490000E-01	  0.024609219	-7.348000E+01
25	  0.024809619	-4.300000E-02	  0.024809619	-6.901000E+01	  0.024809619	3.900000E-01	  0.024809619	-7.273500E+01
26	  0.025010020	-4.600000E-02	  0.025010020	-6.956700E+01	  0.025010020	4.090000E-01	  0.025010020	-7.198200E+01
27	  0.025210422	-4.600000E-02	  0.025210422	-7.013500E+01	  0.025210422	4.080000E-01	  0.025210422	-7.122600E+01
28	  0.025410822	-4.900000E-02	  0.025410822	-7.070900E+01	  0.025410822	4.210000E-01	  0.025410822	-7.047200E+01
29	  0.025611224	-5.100000E-02	  0.025611224	-7.128800E+01	  0.025611224	4.320000E-01	  0.025611224	-6.972300E+01
30	  0.025811624	-4.900000E-02	  0.025811624	-7.186100E+01	  0.025811624	4.170000E-01	  0.025811624	-6.899200E+01
31	  0.026012026	-4.700000E-02	  0.026012026	-7.242500E+01	  0.026012026	3.940000E-01	  0.026012026	-6.828300E+01
32	  0.026212426	-4.500000E-02	  0.026212426	-7.296900E+01	  0.026212426	3.680000E-01	  0.026212426	-6.760700E+01
33	  0.026412826	-4.200000E-02	  0.026412826	-7.350400E+01	  0.026412826	3.390000E-01	  0.026412826	-6.695100E+01
34	  0.026613226	-4.500000E-02	  0.026613226	-7.403600E+01	  0.026613226	3.640000E-01	  0.026613226	-6.630700E+01
35	  0.026813626	-4.900000E-02	  0.026813626	-7.452900E+01	  0.026813626	3.890000E-01	  0.026813626	-6.571700E+01
36	  0.027014028	-5.500000E-02	  0.027014028	-7.499600E+01	  0.027014028	4.320000E-01	  0.027014028	-6.516300E+01
37	  0.027214428	-6.500000E-02	  0.027214428	-7.550100E+01	  0.027214428	4.990000E-01	  0.027214428	-6.457200E+01
38	  0.027414829	-7.300000E-02	  0.027414829	-7.605500E+01	  0.027414829	5.600000E-01	  0.027414829	-6.393000E+01
39	  0.027615231	-8.200000E-02	  0.027615231	-7.664300E+01	  0.027615231	6.160000E-01	  0.027615231	-6.325800E+01
40	  0.027815631	-8.300000E-02	  0.027815631	-7.724100E+01	  0.027815631	6.200000E-01	  0.027815631	-6.258300E+01
41	  0.028016033	-8.100000E-02	  0.028016033	-7.784700E+01	  0.028016033	5.970000E-01	  0.028016033	-6.190900E+01
42	  0.028216433	-7.700000E-02	  0.028216433	-7.845500E+01	  0.028216433	5.560000E-01	  0.028216433	-6.124200E+01
43	  0.028416833	-6.700000E-02	  0.028416833	-7.907400E+01	  0.028416833	4.750000E-01	  0.028416833	-6.057200E+01
44	  0.028617235	-5.700000E-02	  0.028617235	-7.966400E+01	  0.028617235	4.040000E-01	  0.028617235	-5.994100E+01
45	  0.028817635	-4.700000E-02	  0.028817635	-8.018400E+01	  0.028817635	3.310000E-01	  0.028817635	-5.939100E+01
46	  0.029018037	-3.900000E-02	  0.029018037	-8.066800E+01	  0.029018037	2.700000E-01	  0.029018037	-5.888500E+01
47	  0.029218437	-3.100000E-02	  0.029218437	-8.112300E+01	  0.029218437	2.150000E-01	  0.029218437	-5.841400E+01
48	  0.029418837	-2.400000E-02	  0.029418837	-8.154700E+01	  0.029418837	1.650000E-01	  0.029418837	-5.797800E+01
49	  0.029619239	-2.400000E-02	  0.029619239	-8.195200E+01	  0.029619239	1.640000E-01	  0.029619239	-5.756600E+01
50	  0.029819639	-2.400000E-02	  0.029819639	-8.240000E+01	  0.029819639	1.630000E-01	  0.029819639	-5.711300E+01
51	  0.030020041	-2.900000E-02	  0.030020041	-8.288600E+01	  0.030020041	1.920000E-01	  0.030020041	-5.662700E+01
52	  0.030220442	-3.800000E-02	  0.030220442	-8.338100E+01	  0.030220442	2.470000E-01	  0.030220442	-5.613600E+01
53	  0.030420844	-5.000000E-02	  0.030420844	-8.391500E+01	  0.030420844	3.250000E-01	  0.030420844	-5.561100E+01
54	  0.030621244	-5.900000E-02	  0.030621244	-8.447800E+01	  0.030621244	3.760000E-01	  0.030621244	-5.506500E+01
55	  0.030821644	-6.100000E-02	  0.030821644	-8.503400E+01	  0.030821644	3.870000E-01	  0.030821644	-5.453000E+01
56	  0.031022044	-6.500000E-02	  0.031022044	-8.558400E+01	  0.031022044	4.060000E-01	  0.031022044	-5.400700E+01
57	  0.031222444	-6.100000E-02	  0.031222444	-8.613500E+01	  0.031222444	3.780000E-01	  0.031222444	-5.349000E+01
58	  0.031422846	-6.200000E-02	  0.031422846	-8.668200E+01	  0.031422846	3.810000E-01	  0.031422846	-5.298000E+01
59	  0.031623244	-6.500000E-02	  0.031623244	-8.721200E+01	  0.031623244	3.950000E-01	  0.031623244	-5.249200E+01
60	  0.031823646	-6.000000E-02	  0.031823646	-8.771900E+01	  0.031823646	3.640000E-01	  0.031823646	-5.202900E+01
61	  0.032024048	-5.900000E-02	  0.032024048	-8.821100E+01	  0.032024048	3.500000E-01	  0.032024048	-5.158400E+01
62	  0.032224450	-6.300000E-02	  0.032224450	-8.866400E+01	  0.032224450	3.710000E-01	  0.032224450	-5.117700E+01
63	  0.032424849	-7.200000E-02	  0.032424849	-8.913600E+01	  0.032424849	4.220000E-01	  0.032424849	-5.075700E+01
64	  0.032625251	-8.200000E-02	  0.032625251	-8.963400E+01	  0.032625251	4.790000E-01	  0.032625251	-5.031700E+01
65	  0.032825653	-9.300000E-02	  0.032825653	-9.016300E+01	  0.032825653	5.370000E-01	  0.032825653	-4.985400E+01
66	  0.033026051	-1.030000E-01	  0.033026051	-9.071100E+01	  0.033026051	5.850000E-01	  0.033026051	-4.937900E+01
67	  0.033226453	-1.090000E-01	  0.033226453	-9.129600E+01	  0.033226453	6.130000E-01	  0.033226453	-4.887700E+01
68	  0.033426855	-1.140000E-01	  0.033426855	-9.188200E+01	  0.033426855	6.400000E-01	  0.033426855	-4.837900E+01
69	  0.033627257	-1.160000E-01	  0.033627257	-9.250300E+01	  0.033627257	6.440000E-01	  0.033627257	-4.785700E+01
70	  0.033827655	-1.170000E-01	  0.033827655	-9.311800E+01	  0.033827655	6.430000E-01	  0.033827655	-4.734500E+01
71	  0.034028057	-1.140000E-01	  0.034028057	-9.370400E+01	  0.034028057	6.190000E-01	  0.034028057	-4.686300E+01
72	  0.034228459	-1.070000E-01	  0.034228459	-9.426600E+01	  0.034228459	5.740000E-01	  0.034228459	-4.640500E+01
73	  0.034428857	-9.600000E-02	  0.034428857	-9.480000E+01	  0.034428857	5.140000E-01	  0.034428857	-4.597300E+01
74	  0.034629259	-8.300000E-02	  0.034629259	-9.528400E+01	  0.034629259	4.370000E-01	  0.034629259	-4.558600E+01
75	  0.034829661	-7.600000E-02	  0.034829661	-9.577000E+01	  0.034829661	3.980000E-01	  0.034829661	-4.520000E+01
76	  0.035030060	-6.900000E-02	  0.035030060	-9.622700E+01	  0.035030060	3.600000E-01	  0.035030060	-4.483900E+01
77	  0.035230462	-6.500000E-02	  0.035230462	-9.666800E+01	  0.035230462	3.360000E-01	  0.035230462	-4.449300E+01
78	  0.035430863	-6.300000E-02	  0.035430863	-9.711000E+01	  0.035430863	3.270000E-01	  0.035430863	-4.414800E+01
79	  0.035631265	-7.200000E-02	  0.035631265	-9.754400E+01	  0.035631265	3.690000E-01	  0.035631265	-4.381200E+01
80	  0.035831664	-8.000000E-02	  0.035831664	-9.804000E+01	  0.035831664	4.040000E-01	  0.035831664	-4.343100E+01
81	  0.036032066	-8.600000E-02	  0.036032066	-9.856000E+01	  0.036032066	4.310000E-01	  0.036032066	-4.303400E+01
82	  0.036232468	-9.200000E-02	  0.036232468	-9.909800E+01	  0.036232468	4.610000E-01	  0.036232468	-4.262700E+01
83	  0.036432866	-9.600000E-02	  0.036432866	-9.967700E+01	  0.036432866	4.760000E-01	  0.036432866	-4.219200E+01
84	  0.036633268	-9.900000E-02	  0.036633268	-1.002100E+02	  0.036633268	4.850000E-01	  0.036633268	-4.179600E+01
85	  0.036833670	-9.900000E-02	  0.036833670	-1.007660E+02	  0.036833670	4.840000E-01	  0.036833670	-4.138600E+01
86	  0.037034072	-9.300000E-02	  0.037034072	-1.012940E+02	  0.037034072	4.490000E-01	  0.037034072	-4.099900E+01
87	  0.037234470	-7.900000E-02	  0.037234470	-1.017830E+02	  0.037234470	3.790000E-01	  0.037234470	-4.064400E+01
88	  0.037434869	-7.200000E-02	  0.037434869	-1.022410E+02	  0.037434869	3.420000E-01	  0.037434869	-4.031400E+01
89	  0.037635271	-6.800000E-02	  0.037635271	-1.026780E+02	  0.037635271	3.220000E-01	  0.037635271	-3.999900E+01
90	  0.037835669	-7.000000E-02	  0.037835669	-1.031150E+02	  0.037835669	3.280000E-01	  0.037835669	-3.968800E+01
91	  0.038036071	-7.800000E-02	  0.038036071	-1.035720E+02	  0.038036071	3.650000E-01	  0.038036071	-3.936400E+01
92	  0.038236473	-8.700000E-02	  0.038236473	-1.040710E+02	  0.038236473	4.040000E-01	  0.038236473	-3.901200E+01
93	  0.038436871	-9.300000E-02	  0.038436871	-1.045850E+02	  0.038436871	4.300000E-01	  0.038436871	-3.865200E+01
94	  0.038637273	-1.020000E-01	  0.038637273	-1.051130E+02	  0.038637273	4.680000E-01	  0.038637273	-3.828500E+01
95	  0.038837675	-1.110000E-01	  0.038837675	-1.056260E+02	  0.038837675	5.060000E-01	  0.038837675	-3.793100E+01
96	  0.039038073	-1.220000E-01	  0.039038073	-1.061960E+02	  0.039038073	5.530000E-01	  0.039038073	-3.754000E+01
97	  0.039238475	-1.290000E-01	  0.039238475	-1.067680E+02	  0.039238475	5.760000E-01	  0.039238475	-3.715100E+01
98	  0.039438877	-1.300000E-01	  0.039438877	-1.073280E+02	  0.039438877	5.790000E-01	  0.039438877	-3.677300E+01
99	  0.039639279	-1.250000E-01	  0.039639279	-1.078700E+02	  0.039639279	5.540000E-01	  0.039639279	-3.641000E+01
100	  0.039839678	-1.190000E-01	  0.039839678	-1.083930E+02	  0.039839678	5.210000E-01	  0.039839678	-3.606200E+01
101	  0.040040080	-1.120000E-01	  0.040040080	-1.089010E+02	  0.040040080	4.880000E-01	  0.040040080	-3.572700E+01
102	  0.040240481	-1.090000E-01	  0.040240481	-1.093770E+02	  0.040240481	4.710000E-01	  0.040240481	-3.541400E+01
103	  0.040440880	-1.000000E-01	  0.040440880	-1.098530E+02	  0.040440880	4.320000E-01	  0.040440880	-3.510400E+01
104	  0.040641282	-1.010000E-01	  0.040641282	-1.103240E+02	  0.040641282	4.320000E-01	  0.040641282	-3.479700E+01
105	  0.040841684	-1.020000E-01	  0.040841684	-1.107870E+02	  0.040841684	4.350000E-01	  0.040841684	-3.449800E+01
106	  0.041042086	-1.060000E-01	  0.041042086	-1.112510E+02	  0.041042086	4.500000E-01	  0.041042086	-3.420100E+01
107	  0.041242484	-1.140000E-01	  0.041242484	-1.117150E+02	  0.041242484	4.830000E-01	  0.041242484	-3.390400E+01
108	  0.041442886	-1.290000E-01	  0.041442886	-1.122030E+02	  0.041442886	5.400000E-01	  0.041442886	-3.359300E+01
109	  0.041643288	-1.370000E-01	  0.041643288	-1.127070E+02	  0.041643288	5.690000E-01	  0.041643288	-3.327400E+01
110	  0.041843686	-1.430000E-01	  0.041843686	-1.132660E+02	  0.041843686	5.910000E-01	  0.041843686	-3.292400E+01
111	  0.042044088	-1.440000E-01	  0.042044088	-1.138060E+02	  0.042044088	5.910000E-01	  0.042044088	-3.258700E+01
112	  0.042244490	-1.380000E-01	  0.042244490	-1.143320E+02	  0.042244490	5.660000E-01	  0.042244490	-3.226100E+01
113	  0.042444889	-1.260000E-01	  0.042444889	-1.148370E+02	  0.042444889	5.130000E-01	  0.042444889	-3.195000E+01
114	  0.042645290	-1.170000E-01	  0.042645290	-1.152970E+02	  0.042645290	4.730000E-01	  0.042645290	-3.166900E+01
115	  0.042845692	-1.100000E-01	  0.042845692	-1.157530E+02	  0.042845692	4.420000E-01	  0.042845692	-3.139100E+01
116	  0.043046094	-1.090000E-01	  0.043046094	-1.161840E+02	  0.043046094	4.360000E-01	  0.043046094	-3.113000E+01
117	  0.043246493	-1.120000E-01	  0.043246493	-1.166350E+02	  0.043246493	4.460000E-01	  0.043246493	-3.085700E+01
118	  0.043446895	-1.140000E-01	  0.043446895	-1.170990E+02	  0.043446895	4.540000E-01	  0.043446895	-3.057800E+01
119	  0.043647297	-1.200000E-01	  0.043647297	-1.175520E+02	  0.043647297	4.750000E-01	  0.043647297	-3.030700E+01
120	  0.043847695	-1.240000E-01	  0.043847695	-1.180100E+02	  0.043847695	4.880000E-01	  0.043847695	-3.003400E+01
121	  0.044048097	-1.310000E-01	  0.044048097	-1.184900E+02	  0.044048097	5.130000E-01	  0.044048097	-2.974900E+01
122	  0.044248499	-1.380000E-01	  0.044248499	-1.190050E+02	  0.044248499	5.350000E-01	  0.044248499	-2.944600E+01
123	  0.044448901	-1.420000E-01	  0.044448901	-1.195100E+02	  0.044448901	5.480000E-01	  0.044448901	-2.915000E+01
124	  0.044649299	-1.440000E-01	  0.044649299	-1.200400E+02	  0.044649299	5.540000E-01	  0.044649299	-2.884100E+01
125	  0.044849701	-1.430000E-01	  0.044849701	-1.205600E+02	  0.044849701	5.470000E-01	  0.044849701	-2.853900E+01
126	  0.045050103	-1.390000E-01	  0.045050103	-1.210490E+02	  0.045050103	5.290000E-01	  0.045050103	-2.825800E+01
127	  0.045250501	-1.380000E-01	  0.045250501	-1.215530E+02	  0.045250501	5.230000E-01	  0.045250501	-2.796800E+01
128	  0.045450903	-1.340000E-01	  0.045450903	-1.220340E+02	  0.045450903	5.050000E-01	  0.045450903	-2.769300E+01
129	  0.045651305	-1.310000E-01	  0.045651305	-1.225290E+02	  0.045651305	4.930000E-01	  0.045651305	-2.741200E+01
130	  0.045851704	-1.270000E-01	  0.045851704	-1.230190E+02	  0.045851704	4.750000E-01	  0.045851704	-2.713400E+01
131	  0.046052106	-1.260000E-01	  0.046052106	-1.235060E+02	  0.046052106	4.700000E-01	  0.046052106	-2.686000E+01
132	  0.046252504	-1.260000E-01	  0.046252504	-1.239710E+02	  0.046252504	4.680000E-01	  0.046252504	-2.659900E+01
133	  0.046452906	-1.310000E-01	  0.046452906	-1.243950E+02	  0.046452906	4.850000E-01	  0.046452906	-2.636200E+01
134	  0.046653304	-1.400000E-01	  0.046653304	-1.248490E+02	  0.046653304	5.160000E-01	  0.046653304	-2.610900E+01
135	  0.046853706	-1.530000E-01	  0.046853706	-1.253250E+02	  0.046853706	5.610000E-01	  0.046853706	-2.584500E+01
136	  0.047054108	-1.620000E-01	  0.047054108	-1.258570E+02	  0.047054108	5.910000E-01	  0.047054108	-2.555200E+01
137	  0.047254506	-1.640000E-01	  0.047254506	-1.263850E+02	  0.047254506	5.920000E-01	  0.047254506	-2.526100E+01
138	  0.047454908	-1.590000E-01	  0.047454908	-1.269360E+02	  0.047454908	5.720000E-01	  0.047454908	-2.496000E+01
139	  0.047655310	-1.520000E-01	  0.047655310	-1.274170E+02	  0.047655310	5.470000E-01	  0.047655310	-2.469900E+01
140	  0.047855709	-1.440000E-01	  0.047855709	-1.279100E+02	  0.047855709	5.160000E-01	  0.047855709	-2.443300E+01
141	  0.048056111	-1.400000E-01	  0.048056111	-1.283630E+02	  0.048056111	4.970000E-01	  0.048056111	-2.418800E+01
142	  0.048256513	-1.420000E-01	  0.048256513	-1.288130E+02	  0.048256513	5.020000E-01	  0.048256513	-2.394600E+01
143	  0.048456915	-1.450000E-01	  0.048456915	-1.292760E+02	  0.048456915	5.120000E-01	  0.048456915	-2.369800E+01
144	  0.048657313	-1.450000E-01	  0.048657313	-1.297010E+02	  0.048657313	5.110000E-01	  0.048657313	-2.347200E+01
145	  0.048857715	-1.500000E-01	  0.048857715	-1.301750E+02	  0.048857715	5.270000E-01	  0.048857715	-2.322000E+01
146	  0.049058117	-1.530000E-01	  0.049058117	-1.306060E+02	  0.049058117	5.360000E-01	  0.049058117	-2.299100E+01
147	  0.049258515	-1.610000E-01	  0.049258515	-1.310880E+02	  0.049258515	5.620000E-01	  0.049258515	-2.273700E+01
148	  0.049458917	-1.670000E-01	  0.049458917	-1.315700E+02	  0.049458917	5.780000E-01	  0.049458917	-2.248300E+01
149	  0.049659319	-1.680000E-01	  0.049659319	-1.320690E+02	  0.049659319	5.800000E-01	  0.049659319	-2.222200E+01
150	  0.049859721	-1.690000E-01	  0.049859721	-1.325700E+02	  0.049859721	5.810000E-01	  0.049859721	-2.196100E+01
151	  0.050060119	-1.680000E-01	  0.050060119	-1.330560E+02	  0.050060119	5.740000E-01	  0.050060119	-2.170800E+01
152	  0.050260521	-1.680000E-01	  0.050260521	-1.335150E+02	  0.050260521	5.760000E-01	  0.050260521	-2.147100E+01
153	  0.050460923	-1.680000E-01	  0.050460923	-1.339880E+02	  0.050460923	5.730000E-01	  0.050460923	-2.122700E+01
154	  0.050661322	-1.670000E-01	  0.050661322	-1.344840E+02	  0.050661322	5.650000E-01	  0.050661322	-2.097200E+01
155	  0.050861724	-1.650000E-01	  0.050861724	-1.349780E+02	  0.050861724	5.570000E-01	  0.050861724	-2.071900E+01
156	  0.051062126	-1.580000E-01	  0.051062126	-1.354670E+02	  0.051062126	5.330000E-01	  0.051062126	-2.047000E+01
157	  0.051262524	-1.570000E-01	  0.051262524	-1.359550E+02	  0.051262524	5.280000E-01	  0.051262524	-2.022200E+01
158	  0.051462926	-1.540000E-01	  0.051462926	-1.363890E+02	  0.051462926	5.150000E-01	  0.051462926	-2.000200E+01
159	  0.051663328	-1.540000E-01	  0.051663328	-1.368310E+02	  0.051663328	5.150000E-01	  0.051663328	-1.977800E+01
160	  0.051863730	-1.600000E-01	  0.051863730	-1.372620E+02	  0.051863730	5.340000E-01	  0.051863730	-1.956100E+01
161	  0.052064128	-1.680000E-01	  0.052064128	-1.377300E+02	  0.052064128	5.560000E-01	  0.052064128	-1.932600E+01
162	  0.052264530	-1.780000E-01	  0.052264530	-1.382130E+02	  0.052264530	5.870000E-01	  0.052264530	-1.908400E+01
163	  0.052464932	-1.780000E-01	  0.052464932	-1.387060E+02	  0.052464932	5.870000E-01	  0.052464932	-1.883800E+01
164	  0.052665330	-1.750000E-01	  0.052665330	-1.391880E+02	  0.052665330	5.760000E-01	  0.052665330	-1.859800E+01
165	  0.052865732	-1.730000E-01	  0.052865732	-1.396710E+02	  0.052865732	5.650000E-01	  0.052865732	-1.835800E+01
166	  0.053066134	-1.670000E-01	  0.053066134	-1.401540E+02	  0.053066134	5.470000E-01	  0.053066134	-1.812000E+01
167	  0.053266536	-1.650000E-01	  0.053266536	-1.405890E+02	  0.053266536	5.370000E-01	  0.053266536	-1.790500E+01
168	  0.053466935	-1.660000E-01	  0.053466935	-1.410460E+02	  0.053466935	5.380000E-01	  0.053466935	-1.768100E+01
169	  0.053667337	-1.650000E-01	  0.053667337	-1.414830E+02	  0.053667337	5.350000E-01	  0.053667337	-1.746600E+01
170	  0.053867739	-1.670000E-01	  0.053867739	-1.419230E+02	  0.053867739	5.380000E-01	  0.053867739	-1.725100E+01
171	  0.054068137	-1.700000E-01	  0.054068137	-1.423480E+02	  0.054068137	5.470000E-01	  0.054068137	-1.704400E+01
172	  0.054268539	-1.750000E-01	  0.054268539	-1.427650E+02	  0.054268539	5.620000E-01	  0.054268539	-1.684100E+01
173	  0.054468941	-1.820000E-01	  0.054468941	-1.432290E+02	  0.054468941	5.840000E-01	  0.054468941	-1.661600E+01
174	  0.054669339	-1.870000E-01	  0.054669339	-1.436780E+02	  0.054669339	5.980000E-01	  0.054669339	-1.639800E+01
175	  0.054869737	-1.910000E-01	  0.054869737	-1.441500E+02	  0.054869737	6.080000E-01	  0.054869737	-1.617100E+01
176	  0.055070139	-1.910000E-01	  0.055070139	-1.446120E+02	  0.055070139	6.080000E-01	  0.055070139	-1.594900E+01
177	  0.055270538	-1.920000E-01	  0.055270538	-1.450550E+02	  0.055270538	6.090000E-01	  0.055270538	-1.573600E+01
178	  0.055470940	-1.950000E-01	  0.055470940	-1.455000E+02	  0.055470940	6.150000E-01	  0.055470940	-1.552200E+01
179	  0.055671342	-1.960000E-01	  0.055671342	-1.459760E+02	  0.055671342	6.180000E-01	  0.055671342	-1.529500E+01
180	  0.055871744	-1.970000E-01	  0.055871744	-1.464380E+02	  0.055871744	6.210000E-01	  0.055871744	-1.507500E+01
181	  0.056072142	-2.000000E-01	  0.056072142	-1.469100E+02	  0.056072142	6.270000E-01	  0.056072142	-1.485100E+01
182	  0.056272544	-1.980000E-01	  0.056272544	-1.474030E+02	  0.056272544	6.180000E-01	  0.056272544	-1.461700E+01
183	  0.056472946	-1.950000E-01	  0.056472946	-1.478600E+02	  0.056472946	6.090000E-01	  0.056472946	-1.440100E+01
184	  0.056673344	-1.930000E-01	  0.056673344	-1.483130E+02	  0.056673344	6.020000E-01	  0.056673344	-1.418700E+01
185	  0.056873746	-1.920000E-01	  0.056873746	-1.487510E+02	  0.056873746	5.970000E-01	  0.056873746	-1.398100E+01
186	  0.057074148	-1.960000E-01	  0.057074148	-1.491880E+02	  0.057074148	6.070000E-01	  0.057074148	-1.377500E+01
187	  0.057274550	-1.980000E-01	  0.057274550	-1.496210E+02	  0.057274550	6.140000E-01	  0.057274550	-1.357200E+01
188	  0.057474948	-1.990000E-01	  0.057474948	-1.500800E+02	  0.057474948	6.150000E-01	  0.057474948	-1.335800E+01
189	  0.057675350	-2.040000E-01	  0.057675350	-1.505350E+02	  0.057675350	6.280000E-01	  0.057675350	-1.314500E+01
190	  0.057875752	-2.040000E-01	  0.057875752	-1.510120E+02	  0.057875752	6.270000E-01	  0.057875752	-1.292300E+01
191	  0.058076151	-2.030000E-01	  0.058076151	-1.514870E+02	  0.058076151	6.220000E-01	  0.058076151	-1.270200E+01
192	  0.058276553	-1.960000E-01	  0.058276553	-1.519520E+02	  0.058276553	6.010000E-01	  0.058276553	-1.248600E+01
193	  0.058476955	-1.940000E-01	  0.058476955	-1.524060E+02	  0.058476955	5.940000E-01	  0.058476955	-1.227600E+01
194	  0.058677353	-1.930000E-01	  0.058677353	-1.528450E+02	  0.058677353	5.900000E-01	  0.058677353	-1.207300E+01
195	  0.058877755	-1.900000E-01	  0.058877755	-1.532960E+02	  0.058877755	5.800000E-01	  0.058877755	-1.186500E+01
196	  0.059078157	-1.900000E-01	  0.059078157	-1.537090E+02	  0.059078157	5.790000E-01	  0.059078157	-1.167500E+01
197	  0.059278559	-1.920000E-01	  0.059278559	-1.541320E+02	  0.059278559	5.840000E-01	  0.059278559	-1.148000E+01
198	  0.059478957	-1.950000E-01	  0.059478957	-1.545470E+02	  0.059478957	5.920000E-01	  0.059478957	-1.129000E+01
199	  0.059679359	-1.990000E-01	  0.059679359	-1.549680E+02	  0.059679359	6.010000E-01	  0.059679359	-1.109700E+01
200	  0.059879761	-2.020000E-01	  0.059879761	-1.554170E+02	  0.059879761	6.090000E-01	  0.059879761	-1.089200E+01
201	  0.060080159	-2.020000E-01	  0.060080159	-1.558510E+02	  0.060080159	6.100000E-01	  0.060080159	-1.069400E+01
202	  0.060280561	-2.010000E-01	  0.060280561	-1.562680E+02	  0.060280561	6.060000E-01	  0.060280561	-1.050400E+01
203	  0.060480963	-2.030000E-01	  0.060480963	-1.566910E+02	  0.060480963	6.110000E-01	  0.060480963	-1.031100E+01
204	  0.060681365	-2.060000E-01	  0.060681365	-1.571160E+02	  0.060681365	6.180000E-01	  0.060681365	-1.011800E+01
205	  0.060881764	-2.090000E-01	  0.060881764	-1.575560E+02	  0.060881764	6.270000E-01	  0.060881764	-9.918000E+00
206	  0.061082166	-2.120000E-01	  0.061082166	-1.579950E+02	  0.061082166	6.350000E-01	  0.061082166	-9.719000E+00
207	  0.061282568	-2.160000E-01	  0.061282568	-1.584320E+02	  0.061282568	6.440000E-01	  0.061282568	-9.521000E+00
208	  0.061482966	-2.140000E-01	  0.061482966	-1.588870E+02	  0.061482966	6.390000E-01	  0.061482966	-9.316000E+00
209	  0.061683368	-2.160000E-01	  0.061683368	-1.593300E+02	  0.061683368	6.440000E-01	  0.061683368	-9.116000E+00
210	  0.061883770	-2.180000E-01	  0.061883770	-1.597620E+02	  0.061883770	6.470000E-01	  0.061883770	-8.921000E+00
211	  0.062084168	-2.200000E-01	  0.062084168	-1.601980E+02	  0.062084168	6.530000E-01	  0.062084168	-8.725000E+00
212	  0.062284570	-2.220000E-01	  0.062284570	-1.606270E+02	  0.062284570	6.580000E-01	  0.062284570	-8.533000E+00
213	  0.062484972	-2.230000E-01	  0.062484972	-1.610270E+02	  0.062484972	6.600000E-01	  0.062484972	-8.353000E+00
214	  0.062685370	-2.240000E-01	  0.062685370	-1.614560E+02	  0.062685370	6.630000E-01	  0.062685370	-8.161000E+00
215	  0.062885776	-2.280000E-01	  0.062885776	-1.618940E+02	  0.062885776	6.750000E-01	  0.062885776	-7.964000E+00
216	  0.063086174	-2.320000E-01	  0.063086174	-1.623450E+02	  0.063086174	6.860000E-01	  0.063086174	-7.763000E+00
217	  0.063286573	-2.310000E-01	  0.063286573	-1.628120E+02	  0.063286573	6.800000E-01	  0.063286573	-7.554000E+00
218	  0.063486971	-2.290000E-01	  0.063486971	-1.632620E+02	  0.063486971	6.750000E-01	  0.063486971	-7.354000E+00
219	  0.063687377	-2.290000E-01	  0.063687377	-1.637110E+02	  0.063687377	6.720000E-01	  0.063687377	-7.154000E+00
220	  0.063887775	-2.250000E-01	  0.063887775	-1.641500E+02	  0.063887775	6.620000E-01	  0.063887775	-6.958000E+00
221	  0.064088173	-2.220000E-01	  0.064088173	-1.645730E+02	  0.064088173	6.520000E-01	  0.064088173	-6.771000E+00
222	  0.064288579	-2.250000E-01	  0.064288579	-1.650070E+02	  0.064288579	6.600000E-01	  0.064288579	-6.578000E+00
223	  0.064488977	-2.240000E-01	  0.064488977	-1.654630E+02	  0.064488977	6.570000E-01	  0.064488977	-6.375000E+00
224	  0.064689375	-2.240000E-01	  0.064689375	-1.658810E+02	  0.064689375	6.560000E-01	  0.064689375	-6.190000E+00
225	  0.064889781	-2.250000E-01	  0.064889781	-1.663050E+02	  0.064889781	6.590000E-01	  0.064889781	-6.002000E+00
226	  0.065090179	-2.250000E-01	  0.065090179	-1.667420E+02	  0.065090179	6.580000E-01	  0.065090179	-5.809000E+00
227	  0.065290578	-2.220000E-01	  0.065290578	-1.671550E+02	  0.065290578	6.470000E-01	  0.065290578	-5.627000E+00
228	  0.065490983	-2.210000E-01	  0.065490983	-1.675870E+02	  0.065490983	6.460000E-01	  0.065490983	-5.436000E+00
229	  0.065691382	-2.240000E-01	  0.065691382	-1.680130E+02	  0.065691382	6.510000E-01	  0.065691382	-5.248000E+00
230	  0.065891780	-2.250000E-01	  0.065891780	-1.684320E+02	  0.065891780	6.540000E-01	  0.065891780	-5.063000E+00
231	  0.066092186	-2.250000E-01	  0.066092186	-1.688550E+02	  0.066092186	6.560000E-01	  0.066092186	-4.877000E+00
232	  0.066292584	-2.250000E-01	  0.066292584	-1.692700E+02	  0.066292584	6.550000E-01	  0.066292584	-4.694000E+00
233	  0.066492982	-2.240000E-01	  0.066492982	-1.697210E+02	  0.066492982	6.510000E-01	  0.066492982	-4.496000E+00
234	  0.066693388	-2.280000E-01	  0.066693388	-1.701480E+02	  0.066693388	6.610000E-01	  0.066693388	-4.308000E+00
235	  0.066893786	-2.280000E-01	  0.066893786	-1.705880E+02	  0.066893786	6.610000E-01	  0.066893786	-4.115000E+00
236	  0.067094192	-2.290000E-01	  0.067094192	-1.710110E+02	  0.067094192	6.650000E-01	  0.067094192	-3.929000E+00
237	  0.067294590	-2.310000E-01	  0.067294590	-1.714440E+02	  0.067294590	6.690000E-01	  0.067294590	-3.739000E+00
238	  0.067494988	-2.280000E-01	  0.067494988	-1.718700E+02	  0.067494988	6.620000E-01	  0.067494988	-3.552000E+00
239	  0.067695394	-2.300000E-01	  0.067695394	-1.722790E+02	  0.067695394	6.670000E-01	  0.067695394	-3.373000E+00
240	  0.067895792	-2.330000E-01	  0.067895792	-1.726740E+02	  0.067895792	6.750000E-01	  0.067895792	-3.200000E+00
241	  0.068096191	-2.350000E-01	  0.068096191	-1.731060E+02	  0.068096191	6.810000E-01	  0.068096191	-3.010000E+00
242	  0.068296596	-2.390000E-01	  0.068296596	-1.735200E+02	  0.068296596	6.900000E-01	  0.068296596	-2.829000E+00
243	  0.068496995	-2.430000E-01	  0.068496995	-1.739480E+02	  0.068496995	7.020000E-01	  0.068496995	-2.642000E+00
244	  0.068697393	-2.430000E-01	  0.068697393	-1.743840E+02	  0.068697393	7.030000E-01	  0.068697393	-2.451000E+00
245	  0.068897791	-2.410000E-01	  0.068897791	-1.748030E+02	  0.068897791	6.950000E-01	  0.068897791	-2.268000E+00
246	  0.069098189	-2.400000E-01	  0.069098189	-1.752240E+02	  0.069098189	6.930000E-01	  0.069098189	-2.084000E+00
247	  0.069298595	-2.420000E-01	  0.069298595	-1.756390E+02	  0.069298595	6.990000E-01	  0.069298595	-1.903000E+00
248	  0.069498993	-2.450000E-01	  0.069498993	-1.760520E+02	  0.069498993	7.050000E-01	  0.069498993	-1.722000E+00
249	  0.069699399	-2.490000E-01	  0.069699399	-1.764770E+02	  0.069699399	7.170000E-01	  0.069699399	-1.537000E+00
250	  0.069899797	-2.490000E-01	  0.069899797	-1.768950E+02	  0.069899797	7.190000E-01	  0.069899797	-1.354000E+00
251	  0.070100196	-2.490000E-01	  0.070100196	-1.773170E+02	  0.070100196	7.190000E-01	  0.070100196	-1.170000E+00
252	  0.070300601	-2.540000E-01	  0.070300601	-1.777220E+02	  0.070300601	7.320000E-01	  0.070300601	-9.930000E-01
253	  0.070501000	-2.490000E-01	  0.070501000	-1.781440E+02	  0.070501000	7.190000E-01	  0.070501000	-8.090000E-01
254	  0.070701398	-2.510000E-01	  0.070701398	-1.785480E+02	  0.070701398	7.250000E-01	  0.070701398	-6.330000E-01
255	  0.070901804	-2.530000E-01	  0.070901804	-1.789630E+02	  0.070901804	7.300000E-01	  0.070901804	-4.520000E-01
256	  0.071102202	-2.510000E-01	  0.071102202	-1.793700E+02	  0.071102202	7.240000E-01	  0.071102202	-2.740000E-01
257	  0.071302600	-2.510000E-01	  0.071302600	-1.797990E+02	  0.071302600	7.240000E-01	  0.071302600	-8.700000E-02
258	  0.071503006	-2.520000E-01	  0.071503006	1.797770E+02	  0.071503006	7.280000E-01	  0.071503006	9.700000E-02
259	  0.071703404	-2.510000E-01	  0.071703404	1.793660E+02	  0.071703404	7.240000E-01	  0.071703404	2.760000E-01
260	  0.071903802	-2.510000E-01	  0.071903802	1.789430E+02	  0.071903802	7.230000E-01	  0.071903802	4.600000E-01
261	  0.072104208	-2.530000E-01	  0.072104208	1.785170E+02	  0.072104208	7.280000E-01	  0.072104208	6.460000E-01
262	  0.072304606	-2.520000E-01	  0.072304606	1.780960E+02	  0.072304606	7.250000E-01	  0.072304606	8.300000E-01
263	  0.072505005	-2.540000E-01	  0.072505005	1.776870E+02	  0.072505005	7.330000E-01	  0.072505005	1.009000E+00
264	  0.072705410	-2.490000E-01	  0.072705410	1.772800E+02	  0.072705410	7.170000E-01	  0.072705410	1.186000E+00
265	  0.072905809	-2.520000E-01	  0.072905809	1.768700E+02	  0.072905809	7.260000E-01	  0.072905809	1.365000E+00
266	  0.073106214	-2.490000E-01	  0.073106214	1.764680E+02	  0.073106214	7.190000E-01	  0.073106214	1.541000E+00
267	  0.073306613	-2.520000E-01	  0.073306613	1.760680E+02	  0.073306613	7.280000E-01	  0.073306613	1.715000E+00
268	  0.073507011	-2.530000E-01	  0.073507011	1.756440E+02	  0.073507011	7.300000E-01	  0.073507011	1.900000E+00
269	  0.073707417	-2.520000E-01	  0.073707417	1.752310E+02	  0.073707417	7.280000E-01	  0.073707417	2.081000E+00
270	  0.073907815	-2.520000E-01	  0.073907815	1.748450E+02	  0.073907815	7.260000E-01	  0.073907815	2.250000E+00
271	  0.074108213	-2.490000E-01	  0.074108213	1.744590E+02	  0.074108213	7.190000E-01	  0.074108213	2.418000E+00
272	  0.074308619	-2.500000E-01	  0.074308619	1.740610E+02	  0.074308619	7.240000E-01	  0.074308619	2.592000E+00
273	  0.074509017	-2.510000E-01	  0.074509017	1.736850E+02	  0.074509017	7.250000E-01	  0.074509017	2.757000E+00
274	  0.074709415	-2.540000E-01	  0.074709415	1.732890E+02	  0.074709415	7.340000E-01	  0.074709415	2.930000E+00
275	  0.074909821	-2.550000E-01	  0.074909821	1.728770E+02	  0.074909821	7.370000E-01	  0.074909821	3.110000E+00
276	  0.075110219	-2.580000E-01	  0.075110219	1.724900E+02	  0.075110219	7.470000E-01	  0.075110219	3.280000E+00
277	  0.075310618	-2.620000E-01	  0.075310618	1.721010E+02	  0.075310618	7.590000E-01	  0.075310618	3.451000E+00
278	  0.075511023	-2.620000E-01	  0.075511023	1.717230E+02	  0.075511023	7.570000E-01	  0.075511023	3.616000E+00
279	  0.075711422	-2.640000E-01	  0.075711422	1.713510E+02	  0.075711422	7.660000E-01	  0.075711422	3.779000E+00
280	  0.075911827	-2.660000E-01	  0.075911827	1.709660E+02	  0.075911827	7.710000E-01	  0.075911827	3.948000E+00
281	  0.076112226	-2.650000E-01	  0.076112226	1.705630E+02	  0.076112226	7.690000E-01	  0.076112226	4.125000E+00
282	  0.076312624	-2.680000E-01	  0.076312624	1.701620E+02	  0.076312624	7.780000E-01	  0.076312624	4.302000E+00
283	  0.076513030	-2.690000E-01	  0.076513030	1.697630E+02	  0.076513030	7.820000E-01	  0.076513030	4.477000E+00
284	  0.076713428	-2.700000E-01	  0.076713428	1.693800E+02	  0.076713428	7.840000E-01	  0.076713428	4.645000E+00
285	  0.076913826	-2.710000E-01	  0.076913826	1.689550E+02	  0.076913826	7.880000E-01	  0.076913826	4.832000E+00
286	  0.077114232	-2.710000E-01	  0.077114232	1.685580E+02	  0.077114232	7.890000E-01	  0.077114232	5.007000E+00
287	  0.077314630	-2.720000E-01	  0.077314630	1.681580E+02	  0.077314630	7.920000E-01	  0.077314630	5.183000E+00
288	  0.077515028	-2.730000E-01	  0.077515028	1.677450E+02	  0.077515028	7.960000E-01	  0.077515028	5.366000E+00
289	  0.077715434	-2.770000E-01	  0.077715434	1.673480E+02	  0.077715434	8.070000E-01	  0.077715434	5.541000E+00
290	  0.077915832	-2.770000E-01	  0.077915832	1.669590E+02	  0.077915832	8.100000E-01	  0.077915832	5.713000E+00
291	  0.078116231	-2.780000E-01	  0.078116231	1.665490E+02	  0.078116231	8.130000E-01	  0.078116231	5.894000E+00
292	  0.078316636	-2.790000E-01	  0.078316636	1.661520E+02	  0.078316636	8.160000E-01	  0.078316636	6.070000E+00
293	  0.078517035	-2.810000E-01	  0.078517035	1.657280E+02	  0.078517035	8.230000E-01	  0.078517035	6.257000E+00
294	  0.078717433	-2.810000E-01	  0.078717433	1.652910E+02	  0.078717433	8.230000E-01	  0.078717433	6.451000E+00
295	  0.078917839	-2.810000E-01	  0.078917839	1.648740E+02	  0.078917839	8.240000E-01	  0.078917839	6.636000E+00
296	  0.079118237	-2.790000E-01	  0.079118237	1.644760E+02	  0.079118237	8.200000E-01	  0.079118237	6.813000E+00
297	  0.079318643	-2.760000E-01	  0.079318643	1.640880E+02	  0.079318643	8.110000E-01	  0.079318643	6.985000E+00
298	  0.079519041	-2.750000E-01	  0.079519041	1.636850E+02	  0.079519041	8.080000E-01	  0.079519041	7.165000E+00
299	  0.079719439	-2.780000E-01	  0.079719439	1.633030E+02	  0.079719439	8.180000E-01	  0.079719439	7.335000E+00
300	  0.079919845	-2.800000E-01	  0.079919845	1.628940E+02	  0.079919845	8.240000E-01	  0.079919845	7.517000E+00
301	  0.080120243	-2.820000E-01	  0.080120243	1.624810E+02	  0.080120243	8.310000E-01	  0.080120243	7.701000E+00
302	  0.080320641	-2.810000E-01	  0.080320641	1.620830E+02	  0.080320641	8.300000E-01	  0.080320641	7.879000E+00
303	  0.080521047	-2.820000E-01	  0.080521047	1.617060E+02	  0.080521047	8.340000E-01	  0.080521047	8.048000E+00
304	  0.080721445	-2.850000E-01	  0.080721445	1.613210E+02	  0.080721445	8.420000E-01	  0.080721445	8.220000E+00
305	  0.080921844	-2.840000E-01	  0.080921844	1.609500E+02	  0.080921844	8.430000E-01	  0.080921844	8.386000E+00
306	  0.081122249	-2.820000E-01	  0.081122249	1.605730E+02	  0.081122249	8.370000E-01	  0.081122249	8.556000E+00
307	  0.081322648	-2.820000E-01	  0.081322648	1.601820E+02	  0.081322648	8.380000E-01	  0.081322648	8.731000E+00
308	  0.081523046	-2.790000E-01	  0.081523046	1.598070E+02	  0.081523046	8.310000E-01	  0.081523046	8.900000E+00
309	  0.081723452	-2.780000E-01	  0.081723452	1.594120E+02	  0.081723452	8.270000E-01	  0.081723452	9.078000E+00
310	  0.081923850	-2.810000E-01	  0.081923850	1.590400E+02	  0.081923850	8.360000E-01	  0.081923850	9.246000E+00
311	  0.082124248	-2.790000E-01	  0.082124248	1.586740E+02	  0.082124248	8.340000E-01	  0.082124248	9.411000E+00
312	  0.082324654	-2.800000E-01	  0.082324654	1.583020E+02	  0.082324654	8.350000E-01	  0.082324654	9.579000E+00
313	  0.082525052	-2.790000E-01	  0.082525052	1.579220E+02	  0.082525052	8.340000E-01	  0.082525052	9.751000E+00
314	  0.082725458	-2.770000E-01	  0.082725458	1.575650E+02	  0.082725458	8.290000E-01	  0.082725458	9.913000E+00
315	  0.082925856	-2.790000E-01	  0.082925856	1.571940E+02	  0.082925856	8.370000E-01	  0.082925856	1.008100E+01
316	  0.083126254	-2.810000E-01	  0.083126254	1.568560E+02	  0.083126254	8.440000E-01	  0.083126254	1.023500E+01
317	  0.083326660	-2.840000E-01	  0.083326660	1.564960E+02	  0.083326660	8.550000E-01	  0.083326660	1.039800E+01
318	  0.083527058	-2.890000E-01	  0.083527058	1.561090E+02	  0.083527058	8.690000E-01	  0.083527058	1.057400E+01
319	  0.083727457	-2.910000E-01	  0.083727457	1.557050E+02	  0.083727457	8.770000E-01	  0.083727457	1.075800E+01
320	  0.083927862	-2.920000E-01	  0.083927862	1.553060E+02	  0.083927862	8.810000E-01	  0.083927862	1.094100E+01
321	  0.084128261	-2.930000E-01	  0.084128261	1.549140E+02	  0.084128261	8.860000E-01	  0.084128261	1.112000E+01
322	  0.084328659	-2.920000E-01	  0.084328659	1.545290E+02	  0.084328659	8.840000E-01	  0.084328659	1.129700E+01
323	  0.084529065	-2.940000E-01	  0.084529065	1.541620E+02	  0.084529065	8.900000E-01	  0.084529065	1.146500E+01
324	  0.084729463	-2.920000E-01	  0.084729463	1.537780E+02	  0.084729463	8.870000E-01	  0.084729463	1.164100E+01
325	  0.084929861	-2.940000E-01	  0.084929861	1.533860E+02	  0.084929861	8.930000E-01	  0.084929861	1.182200E+01
326	  0.085130267	-2.950000E-01	  0.085130267	1.529790E+02	  0.085130267	9.000000E-01	  0.085130267	1.200900E+01
327	  0.085330658	-2.990000E-01	  0.085330658	1.525770E+02	  0.085330658	9.120000E-01	  0.085330658	1.219500E+01
328	  0.085531056	-3.010000E-01	  0.085531056	1.521710E+02	  0.085531056	9.210000E-01	  0.085531056	1.238300E+01
329	  0.085731462	-3.040000E-01	  0.085731462	1.517730E+02	  0.085731462	9.310000E-01	  0.085731462	1.256700E+01
330	  0.085931860	-3.060000E-01	  0.085931860	1.514020E+02	  0.085931860	9.400000E-01	  0.085931860	1.273900E+01
331	  0.086132258	-3.050000E-01	  0.086132258	1.510170E+02	  0.086132258	9.380000E-01	  0.086132258	1.291800E+01
332	  0.086332664	-3.050000E-01	  0.086332664	1.506030E+02	  0.086332664	9.390000E-01	  0.086332664	1.311100E+01
333	  0.086533062	-3.050000E-01	  0.086533062	1.501950E+02	  0.086533062	9.410000E-01	  0.086533062	1.330100E+01
334	  0.086733460	-3.030000E-01	  0.086733460	1.498000E+02	  0.086733460	9.380000E-01	  0.086733460	1.348600E+01
335	  0.086933866	-3.060000E-01	  0.086933866	1.494090E+02	  0.086933866	9.470000E-01	  0.086933866	1.366900E+01
336	  0.087134264	-3.040000E-01	  0.087134264	1.489900E+02	  0.087134264	9.440000E-01	  0.087134264	1.386600E+01
337	  0.087334670	-3.030000E-01	  0.087334670	1.486080E+02	  0.087334670	9.420000E-01	  0.087334670	1.404500E+01
338	  0.087535068	-3.000000E-01	  0.087535068	1.482440E+02	  0.087535068	9.350000E-01	  0.087535068	1.421700E+01
339	  0.087735467	-2.990000E-01	  0.087735467	1.478560E+02	  0.087735467	9.320000E-01	  0.087735467	1.440000E+01
340	  0.087935872	-2.950000E-01	  0.087935872	1.474860E+02	  0.087935872	9.220000E-01	  0.087935872	1.457500E+01
341	  0.088136271	-2.940000E-01	  0.088136271	1.471320E+02	  0.088136271	9.210000E-01	  0.088136271	1.474200E+01
342	  0.088336669	-2.950000E-01	  0.088336669	1.468020E+02	  0.088336669	9.240000E-01	  0.088336669	1.489900E+01
343	  0.088537075	-2.940000E-01	  0.088537075	1.464480E+02	  0.088537075	9.230000E-01	  0.088537075	1.506800E+01
344	  0.088737473	-2.950000E-01	  0.088737473	1.461070E+02	  0.088737473	9.300000E-01	  0.088737473	1.523000E+01
345	  0.088937871	-2.990000E-01	  0.088937871	1.457300E+02	  0.088937871	9.440000E-01	  0.088937871	1.541000E+01
346	  0.089138277	-3.000000E-01	  0.089138277	1.453610E+02	  0.089138277	9.480000E-01	  0.089138277	1.558600E+01
347	  0.089338675	-2.990000E-01	  0.089338675	1.450030E+02	  0.089338675	9.470000E-01	  0.089338675	1.575800E+01
348	  0.089539073	-2.990000E-01	  0.089539073	1.446540E+02	  0.089539073	9.490000E-01	  0.089539073	1.592500E+01
349	  0.089739479	-2.960000E-01	  0.089739479	1.443030E+02	  0.089739479	9.430000E-01	  0.089739479	1.609400E+01
350	  0.089939877	-3.030000E-01	  0.089939877	1.439540E+02	  0.089939877	9.650000E-01	  0.089939877	1.626200E+01
351	  0.090140276	-3.000000E-01	  0.090140276	1.436040E+02	  0.090140276	9.570000E-01	  0.090140276	1.643100E+01
352	  0.090340681	-3.000000E-01	  0.090340681	1.432390E+02	  0.090340681	9.600000E-01	  0.090340681	1.660800E+01
353	  0.090541080	-3.010000E-01	  0.090541080	1.428750E+02	  0.090541080	9.660000E-01	  0.090541080	1.678400E+01
354	  0.090741485	-3.020000E-01	  0.090741485	1.425450E+02	  0.090741485	9.710000E-01	  0.090741485	1.694500E+01
355	  0.090941884	-3.060000E-01	  0.090941884	1.421890E+02	  0.090941884	9.850000E-01	  0.090941884	1.711800E+01
356	  0.091142282	-3.060000E-01	  0.091142282	1.418480E+02	  0.091142282	9.880000E-01	  0.091142282	1.728400E+01
357	  0.091342688	-3.120000E-01	  0.091342688	1.414760E+02	  0.091342688	1.007000E+00	  0.091342688	1.746500E+01
358	  0.091543086	-3.100000E-01	  0.091543086	1.410930E+02	  0.091543086	1.004000E+00	  0.091543086	1.765300E+01
359	  0.091743484	-3.110000E-01	  0.091743484	1.407150E+02	  0.091743484	1.011000E+00	  0.091743484	1.783900E+01
360	  0.091943890	-3.100000E-01	  0.091943890	1.403600E+02	  0.091943890	1.008000E+00	  0.091943890	1.801300E+01
361	  0.092144288	-3.150000E-01	  0.092144288	1.399710E+02	  0.092144288	1.029000E+00	  0.092144288	1.820500E+01
362	  0.092344686	-3.130000E-01	  0.092344686	1.395900E+02	  0.092344686	1.023000E+00	  0.092344686	1.839400E+01
363	  0.092545092	-3.160000E-01	  0.092545092	1.392330E+02	  0.092545092	1.035000E+00	  0.092545092	1.857100E+01
364	  0.092745490	-3.110000E-01	  0.092745490	1.388360E+02	  0.092745490	1.022000E+00	  0.092745490	1.876800E+01
365	  0.092945889	-3.100000E-01	  0.092945889	1.384720E+02	  0.092945889	1.020000E+00	  0.092945889	1.894900E+01
366	  0.093146294	-3.070000E-01	  0.093146294	1.381000E+02	  0.093146294	1.015000E+00	  0.093146294	1.913500E+01
367	  0.093346693	-3.040000E-01	  0.093346693	1.377410E+02	  0.093346693	1.007000E+00	  0.093346693	1.931500E+01
368	  0.093547091	-3.070000E-01	  0.093547091	1.373790E+02	  0.093547091	1.021000E+00	  0.093547091	1.949700E+01
369	  0.093747497	-3.080000E-01	  0.093747497	1.370330E+02	  0.093747497	1.025000E+00	  0.093747497	1.967100E+01
370	  0.093947895	-3.090000E-01	  0.093947895	1.366690E+02	  0.093947895	1.032000E+00	  0.093947895	1.985500E+01
371	  0.094148301	-3.080000E-01	  0.094148301	1.362960E+02	  0.094148301	1.029000E+00	  0.094148301	2.004300E+01
372	  0.094348699	-3.110000E-01	  0.094348699	1.359390E+02	  0.094348699	1.042000E+00	  0.094348699	2.022400E+01
373	  0.094549097	-3.080000E-01	  0.094549097	1.355770E+02	  0.094549097	1.036000E+00	  0.094549097	2.040800E+01
374	  0.094749503	-3.130000E-01	  0.094749503	1.352140E+02	  0.094749503	1.054000E+00	  0.094749503	2.059300E+01
375	  0.094949901	-3.090000E-01	  0.094949901	1.348590E+02	  0.094949901	1.043000E+00	  0.094949901	2.077400E+01
376	  0.095150299	-3.130000E-01	  0.095150299	1.344850E+02	  0.095150299	1.060000E+00	  0.095150299	2.096600E+01
377	  0.095350705	-3.110000E-01	  0.095350705	1.341390E+02	  0.095350705	1.055000E+00	  0.095350705	2.114300E+01
378	  0.095551103	-3.100000E-01	  0.095551103	1.337720E+02	  0.095551103	1.055000E+00	  0.095551103	2.133200E+01
379	  0.095751502	-3.050000E-01	  0.095751502	1.334310E+02	  0.095751502	1.042000E+00	  0.095751502	2.150800E+01
380	  0.095951907	-3.060000E-01	  0.095951907	1.330930E+02	  0.095951907	1.049000E+00	  0.095951907	2.168300E+01
381	  0.096152306	-3.090000E-01	  0.096152306	1.327520E+02	  0.096152306	1.062000E+00	  0.096152306	2.186000E+01
382	  0.096352704	-3.100000E-01	  0.096352704	1.324230E+02	  0.096352704	1.066000E+00	  0.096352704	2.203200E+01
383	  0.096553110	-3.160000E-01	  0.096553110	1.320590E+02	  0.096553110	1.090000E+00	  0.096553110	2.222100E+01
384	  0.096753508	-3.120000E-01	  0.096753508	1.317060E+02	  0.096753508	1.081000E+00	  0.096753508	2.240600E+01
385	  0.096953906	-3.140000E-01	  0.096953906	1.313450E+02	  0.096953906	1.091000E+00	  0.096953906	2.259500E+01
386	  0.097154312	-3.140000E-01	  0.097154312	1.309920E+02	  0.097154312	1.092000E+00	  0.097154312	2.278100E+01
387	  0.097354710	-3.190000E-01	  0.097354710	1.306260E+02	  0.097354710	1.111000E+00	  0.097354710	2.297300E+01
388	  0.097555116	-3.180000E-01	  0.097555116	1.302790E+02	  0.097555116	1.114000E+00	  0.097555116	2.315700E+01
389	  0.097755514	-3.160000E-01	  0.097755514	1.299050E+02	  0.097755514	1.110000E+00	  0.097755514	2.335600E+01
390	  0.097955912	-3.160000E-01	  0.097955912	1.295580E+02	  0.097955912	1.113000E+00	  0.097955912	2.354000E+01
391	  0.098156318	-3.150000E-01	  0.098156318	1.291780E+02	  0.098156318	1.114000E+00	  0.098156318	2.374300E+01
392	  0.098356716	-3.180000E-01	  0.098356716	1.288280E+02	  0.098356716	1.125000E+00	  0.098356716	2.393000E+01
393	  0.098557115	-3.180000E-01	  0.098557115	1.284610E+02	  0.098557115	1.130000E+00	  0.098557115	2.412700E+01
394	  0.098757520	-3.180000E-01	  0.098757520	1.281140E+02	  0.098757520	1.132000E+00	  0.098757520	2.431400E+01
395	  0.098957919	-3.230000E-01	  0.098957919	1.277310E+02	  0.098957919	1.156000E+00	  0.098957919	2.452100E+01
396	  0.099158317	-3.250000E-01	  0.099158317	1.273840E+02	  0.099158317	1.164000E+00	  0.099158317	2.470900E+01
397	  0.099358723	-3.250000E-01	  0.099358723	1.270110E+02	  0.099358723	1.169000E+00	  0.099358723	2.491200E+01
398	  0.099559121	-3.270000E-01	  0.099559121	1.266410E+02	  0.099559121	1.179000E+00	  0.099559121	2.511300E+01
399	  0.099759519	-3.310000E-01	  0.099759519	1.262730E+02	  0.099759519	1.199000E+00	  0.099759519	2.531400E+01
400	  0.099959925	-3.330000E-01	  0.099959925	1.258970E+02	  0.099959925	1.208000E+00	  0.099959925	2.552000E+01
401	  0.100160323	-3.330000E-01	  0.100160323	1.255500E+02	  0.100160323	1.211000E+00	  0.100160323	2.571100E+01
402	  0.100360721	-3.360000E-01	  0.100360721	1.251590E+02	  0.100360721	1.229000E+00	  0.100360721	2.592700E+01
403	  0.100561127	-3.340000E-01	  0.100561127	1.247860E+02	  0.100561127	1.226000E+00	  0.100561127	2.613400E+01
404	  0.100761525	-3.340000E-01	  0.100761525	1.244430E+02	  0.100761525	1.229000E+00	  0.100761525	2.632500E+01
405	  0.100961931	-3.340000E-01	  0.100961931	1.240910E+02	  0.100961931	1.232000E+00	  0.100961931	2.652100E+01
406	  0.101162329	-3.320000E-01	  0.101162329	1.237360E+02	  0.101162329	1.230000E+00	  0.101162329	2.672000E+01
407	  0.101362728	-3.330000E-01	  0.101362728	1.233980E+02	  0.101362728	1.238000E+00	  0.101362728	2.691000E+01
408	  0.101563133	-3.370000E-01	  0.101563133	1.230760E+02	  0.101563133	1.257000E+00	  0.101563133	2.709100E+01
409	  0.101763532	-3.340000E-01	  0.101763532	1.226990E+02	  0.101763532	1.251000E+00	  0.101763532	2.730400E+01
410	  0.101963930	-3.350000E-01	  0.101963930	1.223820E+02	  0.101963930	1.257000E+00	  0.101963930	2.748400E+01
411	  0.102164336	-3.250000E-01	  0.102164336	1.220910E+02	  0.102164336	1.222000E+00	  0.102164336	2.765000E+01
412	  0.102364734	-3.320000E-01	  0.102364734	1.217350E+02	  0.102364734	1.254000E+00	  0.102364734	2.785300E+01
413	  0.102565132	-3.230000E-01	  0.102565132	1.214110E+02	  0.102565132	1.223000E+00	  0.102565132	2.803900E+01
414	  0.102765530	-3.280000E-01	  0.102765530	1.210840E+02	  0.102765530	1.248000E+00	  0.102765530	2.822600E+01
415	  0.102965929	-3.260000E-01	  0.102965929	1.207220E+02	  0.102965929	1.241000E+00	  0.102965929	2.843500E+01
416	  0.103166327	-3.230000E-01	  0.103166327	1.204540E+02	  0.103166327	1.234000E+00	  0.103166327	2.859000E+01
417	  0.103366733	-3.150000E-01	  0.103366733	1.201260E+02	  0.103366733	1.210000E+00	  0.103366733	2.878100E+01
418	  0.103567131	-3.180000E-01	  0.103567131	1.197930E+02	  0.103567131	1.223000E+00	  0.103567131	2.897400E+01
419	  0.103767529	-3.170000E-01	  0.103767529	1.194790E+02	  0.103767529	1.224000E+00	  0.103767529	2.915800E+01
420	  0.103967935	-3.150000E-01	  0.103967935	1.191160E+02	  0.103967935	1.220000E+00	  0.103967935	2.937000E+01
421	  0.104168333	-3.180000E-01	  0.104168333	1.187890E+02	  0.104168333	1.238000E+00	  0.104168333	2.956200E+01
422	  0.104368731	-3.130000E-01	  0.104368731	1.184490E+02	  0.104368731	1.223000E+00	  0.104368731	2.976300E+01
423	  0.104569137	-3.170000E-01	  0.104569137	1.181380E+02	  0.104569137	1.242000E+00	  0.104569137	2.994700E+01
424	  0.104769535	-3.170000E-01	  0.104769535	1.178080E+02	  0.104769535	1.247000E+00	  0.104769535	3.014200E+01
425	  0.104969934	-3.180000E-01	  0.104969934	1.174470E+02	  0.104969934	1.252000E+00	  0.104969934	3.035700E+01
426	  0.105170339	-3.220000E-01	  0.105170339	1.171250E+02	  0.105170339	1.275000E+00	  0.105170339	3.055000E+01
427	  0.105370738	-3.230000E-01	  0.105370738	1.167970E+02	  0.105370738	1.281000E+00	  0.105370738	3.074700E+01
428	  0.105571143	-3.280000E-01	  0.105571143	1.163930E+02	  0.105571143	1.307000E+00	  0.105571143	3.099000E+01
429	  0.105771542	-3.250000E-01	  0.105771542	1.160160E+02	  0.105771542	1.303000E+00	  0.105771542	3.121800E+01
430	  0.105971940	-3.350000E-01	  0.105971940	1.156800E+02	  0.105971940	1.347000E+00	  0.105971940	3.142100E+01
431	  0.106172346	-3.250000E-01	  0.106172346	1.152980E+02	  0.106172346	1.312000E+00	  0.106172346	3.165400E+01
432	  0.106372744	-3.340000E-01	  0.106372744	1.149280E+02	  0.106372744	1.352000E+00	  0.106372744	3.188000E+01
433	  0.106573142	-3.340000E-01	  0.106573142	1.146000E+02	  0.106573142	1.360000E+00	  0.106573142	3.208200E+01
434	  0.106773548	-3.410000E-01	  0.106773548	1.142380E+02	  0.106773548	1.392000E+00	  0.106773548	3.230400E+01
435	  0.106973946	-3.400000E-01	  0.106973946	1.139300E+02	  0.106973946	1.392000E+00	  0.106973946	3.249500E+01
436	  0.107174344	-3.460000E-01	  0.107174344	1.135510E+02	  0.107174344	1.425000E+00	  0.107174344	3.273000E+01
437	  0.107374750	-3.460000E-01	  0.107374750	1.132160E+02	  0.107374750	1.429000E+00	  0.107374750	3.293900E+01
438	  0.107575148	-3.420000E-01	  0.107575148	1.128440E+02	  0.107575148	1.418000E+00	  0.107575148	3.317300E+01
439	  0.107775547	-3.440000E-01	  0.107775547	1.125000E+02	  0.107775547	1.432000E+00	  0.107775547	3.338900E+01
440	  0.107975952	-3.470000E-01	  0.107975952	1.121610E+02	  0.107975952	1.453000E+00	  0.107975952	3.360300E+01
441	  0.108176351	-3.440000E-01	  0.108176351	1.118550E+02	  0.108176351	1.446000E+00	  0.108176351	3.379700E+01
442	  0.108376749	-3.500000E-01	  0.108376749	1.114820E+02	  0.108376749	1.476000E+00	  0.108376749	3.403400E+01
443	  0.108577155	-3.470000E-01	  0.108577155	1.111920E+02	  0.108577155	1.470000E+00	  0.108577155	3.422000E+01
444	  0.108777553	-3.430000E-01	  0.108777553	1.108190E+02	  0.108777553	1.460000E+00	  0.108777553	3.446000E+01
445	  0.108977959	-3.450000E-01	  0.108977959	1.105160E+02	  0.108977959	1.473000E+00	  0.108977959	3.465500E+01
446	  0.109178357	-3.420000E-01	  0.109178357	1.101760E+02	  0.109178357	1.465000E+00	  0.109178357	3.487500E+01
447	  0.109378755	-3.390000E-01	  0.109378755	1.098470E+02	  0.109378755	1.459000E+00	  0.109378755	3.508900E+01
448	  0.109579161	-3.360000E-01	  0.109579161	1.095110E+02	  0.109579161	1.452000E+00	  0.109579161	3.530800E+01
449	  0.109779559	-3.390000E-01	  0.109779559	1.092270E+02	  0.109779559	1.469000E+00	  0.109779559	3.549400E+01
450	  0.109979957	-3.360000E-01	  0.109979957	1.088950E+02	  0.109979957	1.464000E+00	  0.109979957	3.571300E+01
451	  0.110180363	-3.290000E-01	  0.110180363	1.086050E+02	  0.110180363	1.438000E+00	  0.110180363	3.590500E+01
452	  0.110380761	-3.320000E-01	  0.110380761	1.082720E+02	  0.110380761	1.458000E+00	  0.110380761	3.612500E+01
453	  0.110581160	-3.360000E-01	  0.110581160	1.079620E+02	  0.110581160	1.477000E+00	  0.110581160	3.633100E+01
454	  0.110781565	-3.280000E-01	  0.110781565	1.076040E+02	  0.110781565	1.451000E+00	  0.110781565	3.657100E+01
455	  0.110981964	-3.280000E-01	  0.110981964	1.072910E+02	  0.110981964	1.458000E+00	  0.110981964	3.678100E+01
456	  0.111182362	-3.270000E-01	  0.111182362	1.069660E+02	  0.111182362	1.458000E+00	  0.111182362	3.700000E+01
457	  0.111382768	-3.250000E-01	  0.111382768	1.066480E+02	  0.111382768	1.454000E+00	  0.111382768	3.721500E+01
458	  0.111583166	-3.230000E-01	  0.111583166	1.063170E+02	  0.111583166	1.455000E+00	  0.111583166	3.744000E+01
459	  0.111783572	-3.280000E-01	  0.111783572	1.059930E+02	  0.111783572	1.483000E+00	  0.111783572	3.766000E+01
460	  0.111983970	-3.250000E-01	  0.111983970	1.056840E+02	  0.111983970	1.474000E+00	  0.111983970	3.787300E+01
461	  0.112184368	-3.280000E-01	  0.112184368	1.053540E+02	  0.112184368	1.494000E+00	  0.112184368	3.809900E+01
462	  0.112384774	-3.290000E-01	  0.112384774	1.050910E+02	  0.112384774	1.504000E+00	  0.112384774	3.828100E+01
463	  0.112585172	-3.170000E-01	  0.112585172	1.047220E+02	  0.112585172	1.458000E+00	  0.112585172	3.853800E+01
464	  0.112785570	-3.230000E-01	  0.112785570	1.044250E+02	  0.112785570	1.490000E+00	  0.112785570	3.874400E+01
465	  0.112985976	-3.270000E-01	  0.112985976	1.041230E+02	  0.112985976	1.513000E+00	  0.112985976	3.895500E+01
466	  0.113186374	-3.270000E-01	  0.113186374	1.037740E+02	  0.113186374	1.521000E+00	  0.113186374	3.920000E+01
467	  0.113386773	-3.280000E-01	  0.113386773	1.034510E+02	  0.113386773	1.534000E+00	  0.113386773	3.942800E+01
468	  0.113587178	-3.290000E-01	  0.113587178	1.031070E+02	  0.113587178	1.547000E+00	  0.113587178	3.967200E+01
469	  0.113787577	-3.350000E-01	  0.113787577	1.027670E+02	  0.113787577	1.583000E+00	  0.113787577	3.991300E+01
470	  0.113987975	-3.350000E-01	  0.113987975	1.024590E+02	  0.113987975	1.589000E+00	  0.113987975	4.013300E+01
471	  0.114188381	-3.390000E-01	  0.114188381	1.021380E+02	  0.114188381	1.613000E+00	  0.114188381	4.036300E+01
472	  0.114388779	-3.460000E-01	  0.114388779	1.018000E+02	  0.114388779	1.654000E+00	  0.114388779	4.060600E+01
473	  0.114589177	-3.450000E-01	  0.114589177	1.014700E+02	  0.114589177	1.659000E+00	  0.114589177	4.084600E+01
474	  0.114789583	-3.440000E-01	  0.114789583	1.010900E+02	  0.114789583	1.661000E+00	  0.114789583	4.112300E+01
475	  0.114989981	-3.510000E-01	  0.114989981	1.007360E+02	  0.114989981	1.704000E+00	  0.114989981	4.138100E+01
476	  0.115190387	-3.460000E-01	  0.115190387	1.004360E+02	  0.115190387	1.687000E+00	  0.115190387	4.160300E+01
477	  0.115390785	-3.490000E-01	  0.115390785	1.000830E+02	  0.115390785	1.710000E+00	  0.115390785	4.186400E+01
478	  0.115591183	-3.500000E-01	  0.115591183	9.976200E+01	  0.115591183	1.726000E+00	  0.115591183	4.210200E+01
479	  0.115791589	-3.550000E-01	  0.115791589	9.943600E+01	  0.115791589	1.755000E+00	  0.115791589	4.234500E+01
480	  0.115991987	-3.470000E-01	  0.115991987	9.906700E+01	  0.115991987	1.725000E+00	  0.115991987	4.262300E+01
481	  0.116192386	-3.520000E-01	  0.116192386	9.872700E+01	  0.116192386	1.761000E+00	  0.116192386	4.287900E+01
482	  0.116392791	-3.430000E-01	  0.116392791	9.836600E+01	  0.116392791	1.727000E+00	  0.116392791	4.315400E+01
483	  0.116593190	-3.440000E-01	  0.116593190	9.803600E+01	  0.116593190	1.738000E+00	  0.116593190	4.340600E+01
484	  0.116793588	-3.420000E-01	  0.116793588	9.772800E+01	  0.116793588	1.739000E+00	  0.116793588	4.364300E+01
485	  0.116993994	-3.400000E-01	  0.116993994	9.739300E+01	  0.116993994	1.734000E+00	  0.116993994	4.390100E+01
486	  0.117194392	-3.420000E-01	  0.117194392	9.705700E+01	  0.117194392	1.756000E+00	  0.117194392	4.416000E+01
487	  0.117394790	-3.370000E-01	  0.117394790	9.674600E+01	  0.117394790	1.736000E+00	  0.117394790	4.440400E+01
488	  0.117595196	-3.320000E-01	  0.117595196	9.642100E+01	  0.117595196	1.722000E+00	  0.117595196	4.465800E+01
489	  0.117795594	-3.240000E-01	  0.117795594	9.611200E+01	  0.117795594	1.685000E+00	  0.117795594	4.490300E+01
490	  0.117995992	-3.200000E-01	  0.117995992	9.579400E+01	  0.117995992	1.676000E+00	  0.117995992	4.515500E+01
491	  0.118196398	-3.230000E-01	  0.118196398	9.549100E+01	  0.118196398	1.698000E+00	  0.118196398	4.539400E+01
492	  0.118396796	-3.220000E-01	  0.118396796	9.523500E+01	  0.118396796	1.700000E+00	  0.118396796	4.559800E+01
493	  0.118597202	-3.190000E-01	  0.118597202	9.490300E+01	  0.118597202	1.691000E+00	  0.118597202	4.586500E+01
494	  0.118797600	-3.170000E-01	  0.118797600	9.462500E+01	  0.118797600	1.688000E+00	  0.118797600	4.608900E+01
495	  0.118997999	-3.150000E-01	  0.118997999	9.432400E+01	  0.118997999	1.689000E+00	  0.118997999	4.633300E+01
496	  0.119198404	-3.170000E-01	  0.119198404	9.400600E+01	  0.119198404	1.705000E+00	  0.119198404	4.659100E+01
497	  0.119398803	-3.180000E-01	  0.119398803	9.370900E+01	  0.119398803	1.719000E+00	  0.119398803	4.683300E+01
498	  0.119599201	-3.220000E-01	  0.119599201	9.339300E+01	  0.119599201	1.751000E+00	  0.119599201	4.709200E+01
499	  0.119799607	-3.230000E-01	  0.119799607	9.309600E+01	  0.119799607	1.765000E+00	  0.119799607	4.733600E+01
500	  0.120000005	-3.270000E-01	  0.120000005	9.278100E+01	  0.120000005	1.795000E+00	  0.120000005	4.759700E+01
