! Anritsu VNA Master:             	Model: MS2036C/10/77
! SN:             	1601066
! /card0/usr/18may27.balun/5b.66.3.txt
! Existing Calibration Information:
! TYPE:             	Current Settings	Active Cal Settings
! TIME:             	05/27/2018 04:01:01 PM	05/27/2018 03:52:12 PM
! INTERNAL TEMP:    	51.8 C	52.5 C
! # POINTS:         	500	500
! START FREQ:       	20.000 MHz	20.000 MHz
! STOP FREQ:        	120.000 MHz	120.000 MHz
! SOURCE POWER:     	High	High
! IFBW:             	50 Hz	50 Hz
! AVG FACTOR:       	  1 	  1 
! REF PLANE 1:      	0 mm	0 mm
! REF PLANE 2:      	0 mm	0 mm
! CAL TYPE:         	Full S11	Full S11
! CAL METHOD:       	SOLT	SOLT
! CAL LINE TYPE:    	Coax	Coax
! DUT PORT 1:       	K-Conn(M)	K-Conn(M)
! DUT PORT 2:       	K-Conn(M)	K-Conn(M)
! CAL STATUS:       	OK: Accuracy High	--
! PROP-V:       	0.700
! CABLE LOSS:       	0.000 dB/m
! REF IMPEDANCE:       	50.0
! Trace Specific Parameters:	TR1	TR2	TR3	TR4
! TRACE.#.Y (GRAPH TYPE)	LOG MAG	PHASE	REAL IMPEDANCE	IMAGINARY IMPEDANCE
! TRACE.#.X 	FREQ.GHZ	FREQ.GHZ	FREQ.GHZ	FREQ.GHZ
! S-PARAMETER	S11	S11	S11	S11
! SMOOTH/APERTURE %	0	0	0	0
! WINDOW	NSL	NSL	NSL	NSL
! GATING	OFF	OFF	OFF	OFF
! FGTD	OFF	OFF	OFF	OFF
Marker Information per Trace:	TR1	TR2	TR3	TR4
!MK1	--	--	--	"MK1 TR4:  70.100 200 MHz,Z:(0.781 ohm, 7.212 ohm)"
!MK2	--	--	--	--
!MK3	--	--	--	--
!MK4	--	--	--	--
!MK5	--	--	--	--
!MK6	--	--	--	--
!MK7	--	--	--	--
!MK8	--	--	--	--
PNT	TR1.FREQ.GHZ	TR1.LOG MAG.dB	TR2.FREQ.GHZ	TR2.PHASE.deg	TR3.FREQ.GHZ	TR3.REAL IMPEDANCE.ohm	TR4.FREQ.GHZ	TR4.IMAGINARY IMPEDANCE.ohm
1	  0.020000000	-3.600000E-02	  0.020000000	-6.818000E+01	  0.020000000	3.310000E-01	  0.020000000	-7.387500E+01
2	  0.020200402	-3.400000E-02	  0.020200402	-6.882700E+01	  0.020200402	3.150000E-01	  0.020200402	-7.298400E+01
3	  0.020400802	-3.400000E-02	  0.020400802	-6.947000E+01	  0.020400802	3.040000E-01	  0.020400802	-7.211400E+01
4	  0.020601204	-3.300000E-02	  0.020601204	-7.011500E+01	  0.020601204	2.910000E-01	  0.020601204	-7.125300E+01
5	  0.020801604	-3.400000E-02	  0.020801604	-7.074800E+01	  0.020801604	2.980000E-01	  0.020801604	-7.042300E+01
6	  0.021002004	-3.400000E-02	  0.021002004	-7.139700E+01	  0.021002004	2.930000E-01	  0.021002004	-6.958400E+01
7	  0.021202406	-3.600000E-02	  0.021202406	-7.204000E+01	  0.021202406	3.070000E-01	  0.021202406	-6.876700E+01
8	  0.021402806	-4.100000E-02	  0.021402806	-7.267100E+01	  0.021402806	3.390000E-01	  0.021402806	-6.797700E+01
9	  0.021603208	-4.400000E-02	  0.021603208	-7.329700E+01	  0.021603208	3.580000E-01	  0.021603208	-6.720400E+01
10	  0.021803608	-4.800000E-02	  0.021803608	-7.390900E+01	  0.021803608	3.880000E-01	  0.021803608	-6.645900E+01
11	  0.022004008	-5.100000E-02	  0.022004008	-7.453300E+01	  0.022004008	4.020000E-01	  0.022004008	-6.571200E+01
12	  0.022204408	-5.500000E-02	  0.022204408	-7.516800E+01	  0.022204408	4.270000E-01	  0.022204408	-6.496100E+01
13	  0.022404809	-5.700000E-02	  0.022404809	-7.582700E+01	  0.022404809	4.340000E-01	  0.022404809	-6.419400E+01
14	  0.022605211	-5.900000E-02	  0.022605211	-7.644800E+01	  0.022605211	4.500000E-01	  0.022605211	-6.348000E+01
15	  0.022805611	-5.600000E-02	  0.022805611	-7.710500E+01	  0.022805611	4.150000E-01	  0.022805611	-6.273800E+01
16	  0.023006011	-4.500000E-02	  0.023006011	-7.775000E+01	  0.023006011	3.340000E-01	  0.023006011	-6.201900E+01
17	  0.023206413	-3.600000E-02	  0.023206413	-7.839400E+01	  0.023206413	2.640000E-01	  0.023206413	-6.131100E+01
18	  0.023406813	-3.200000E-02	  0.023406813	-7.903500E+01	  0.023406813	2.300000E-01	  0.023406813	-6.061600E+01
19	  0.023607215	-3.100000E-02	  0.023607215	-7.964900E+01	  0.023607215	2.190000E-01	  0.023607215	-5.995800E+01
20	  0.023807615	-3.400000E-02	  0.023807615	-8.023000E+01	  0.023807615	2.380000E-01	  0.023807615	-5.934400E+01
21	  0.024008015	-3.700000E-02	  0.024008015	-8.081400E+01	  0.024008015	2.580000E-01	  0.024008015	-5.873400E+01
22	  0.024208417	-4.400000E-02	  0.024208417	-8.140000E+01	  0.024208417	2.980000E-01	  0.024208417	-5.812900E+01
23	  0.024408817	-5.000000E-02	  0.024408817	-8.196500E+01	  0.024408817	3.400000E-01	  0.024408817	-5.755200E+01
24	  0.024609219	-5.400000E-02	  0.024609219	-8.255900E+01	  0.024609219	3.600000E-01	  0.024609219	-5.695300E+01
25	  0.024809619	-5.800000E-02	  0.024809619	-8.318100E+01	  0.024809619	3.840000E-01	  0.024809619	-5.633200E+01
26	  0.025010020	-6.300000E-02	  0.025010020	-8.382700E+01	  0.025010020	4.070000E-01	  0.025010020	-5.569700E+01
27	  0.025210422	-6.400000E-02	  0.025210422	-8.447000E+01	  0.025210422	4.120000E-01	  0.025210422	-5.507200E+01
28	  0.025410822	-6.600000E-02	  0.025410822	-8.515100E+01	  0.025410822	4.200000E-01	  0.025410822	-5.441800E+01
29	  0.025611224	-6.800000E-02	  0.025611224	-8.581000E+01	  0.025611224	4.220000E-01	  0.025611224	-5.379400E+01
30	  0.025811624	-6.200000E-02	  0.025811624	-8.645500E+01	  0.025811624	3.830000E-01	  0.025811624	-5.319100E+01
31	  0.026012026	-5.800000E-02	  0.026012026	-8.706800E+01	  0.026012026	3.560000E-01	  0.026012026	-5.262400E+01
32	  0.026212426	-5.600000E-02	  0.026212426	-8.766900E+01	  0.026212426	3.370000E-01	  0.026212426	-5.207400E+01
33	  0.026412826	-5.800000E-02	  0.026412826	-8.827500E+01	  0.026412826	3.470000E-01	  0.026412826	-5.152600E+01
34	  0.026613226	-6.500000E-02	  0.026613226	-8.886800E+01	  0.026613226	3.850000E-01	  0.026613226	-5.099500E+01
35	  0.026813626	-7.200000E-02	  0.026813626	-8.945100E+01	  0.026813626	4.180000E-01	  0.026813626	-5.047900E+01
36	  0.027014028	-7.800000E-02	  0.027014028	-9.000000E+01	  0.027014028	4.540000E-01	  0.027014028	-4.999700E+01
37	  0.027214428	-9.000000E-02	  0.027214428	-9.060000E+01	  0.027214428	5.160000E-01	  0.027214428	-4.947600E+01
38	  0.027414829	-9.900000E-02	  0.027414829	-9.124800E+01	  0.027414829	5.600000E-01	  0.027414829	-4.891800E+01
39	  0.027615231	-1.050000E-01	  0.027615231	-9.190700E+01	  0.027615231	5.860000E-01	  0.027615231	-4.835900E+01
40	  0.027815631	-1.060000E-01	  0.027815631	-9.259000E+01	  0.027815631	5.850000E-01	  0.027815631	-4.778500E+01
41	  0.028016033	-1.000000E-01	  0.028016033	-9.326500E+01	  0.028016033	5.470000E-01	  0.028016033	-4.722500E+01
42	  0.028216433	-9.300000E-02	  0.028216433	-9.393800E+01	  0.028216433	5.060000E-01	  0.028216433	-4.667300E+01
43	  0.028416833	-8.300000E-02	  0.028416833	-9.461900E+01	  0.028416833	4.430000E-01	  0.028416833	-4.612100E+01
44	  0.028617235	-7.300000E-02	  0.028617235	-9.525200E+01	  0.028617235	3.900000E-01	  0.028617235	-4.561200E+01
45	  0.028817635	-6.600000E-02	  0.028817635	-9.582100E+01	  0.028817635	3.460000E-01	  0.028817635	-4.516000E+01
46	  0.029018037	-5.800000E-02	  0.029018037	-9.635600E+01	  0.029018037	3.000000E-01	  0.029018037	-4.473800E+01
47	  0.029218437	-5.200000E-02	  0.029218437	-9.687700E+01	  0.029218437	2.710000E-01	  0.029218437	-4.433000E+01
48	  0.029418837	-4.700000E-02	  0.029418837	-9.737700E+01	  0.029418837	2.430000E-01	  0.029418837	-4.394200E+01
49	  0.029619239	-4.800000E-02	  0.029619239	-9.785800E+01	  0.029619239	2.430000E-01	  0.029619239	-4.357200E+01
50	  0.029819639	-5.000000E-02	  0.029819639	-9.837700E+01	  0.029819639	2.510000E-01	  0.029819639	-4.317500E+01
51	  0.030020041	-5.400000E-02	  0.030020041	-9.892800E+01	  0.030020041	2.700000E-01	  0.030020041	-4.275700E+01
52	  0.030220442	-6.500000E-02	  0.030220442	-9.948200E+01	  0.030220442	3.240000E-01	  0.030220442	-4.234000E+01
53	  0.030420844	-7.800000E-02	  0.030420844	-1.001030E+02	  0.030420844	3.820000E-01	  0.030420844	-4.187600E+01
54	  0.030621244	-8.500000E-02	  0.030621244	-1.007380E+02	  0.030621244	4.140000E-01	  0.030621244	-4.140600E+01
55	  0.030821644	-8.400000E-02	  0.030821644	-1.013770E+02	  0.030821644	4.040000E-01	  0.030821644	-4.093900E+01
56	  0.031022044	-8.400000E-02	  0.031022044	-1.019870E+02	  0.031022044	4.040000E-01	  0.031022044	-4.049600E+01
57	  0.031222444	-7.600000E-02	  0.031222444	-1.025940E+02	  0.031222444	3.630000E-01	  0.031222444	-4.006000E+01
58	  0.031422846	-7.500000E-02	  0.031422846	-1.031830E+02	  0.031422846	3.530000E-01	  0.031422846	-3.964000E+01
59	  0.031623244	-7.900000E-02	  0.031623244	-1.037360E+02	  0.031623244	3.690000E-01	  0.031623244	-3.924800E+01
60	  0.031823646	-7.500000E-02	  0.031823646	-1.042740E+02	  0.031823646	3.470000E-01	  0.031823646	-3.887000E+01
61	  0.032024048	-8.000000E-02	  0.032024048	-1.048040E+02	  0.032024048	3.670000E-01	  0.032024048	-3.850000E+01
62	  0.032224450	-8.900000E-02	  0.032224450	-1.053170E+02	  0.032224450	4.070000E-01	  0.032224450	-3.814500E+01
63	  0.032424849	-1.020000E-01	  0.032424849	-1.058600E+02	  0.032424849	4.620000E-01	  0.032424849	-3.777000E+01
64	  0.032625251	-1.140000E-01	  0.032625251	-1.064380E+02	  0.032625251	5.150000E-01	  0.032625251	-3.737600E+01
65	  0.032825653	-1.240000E-01	  0.032825653	-1.070590E+02	  0.032825653	5.520000E-01	  0.032825653	-3.695500E+01
66	  0.033026051	-1.290000E-01	  0.033026051	-1.076760E+02	  0.033026051	5.720000E-01	  0.033026051	-3.653900E+01
67	  0.033226453	-1.330000E-01	  0.033226453	-1.083130E+02	  0.033226453	5.830000E-01	  0.033226453	-3.611500E+01
68	  0.033426855	-1.350000E-01	  0.033426855	-1.089560E+02	  0.033426855	5.900000E-01	  0.033426855	-3.569000E+01
69	  0.033627257	-1.370000E-01	  0.033627257	-1.096090E+02	  0.033627257	5.910000E-01	  0.033627257	-3.526100E+01
70	  0.033827655	-1.360000E-01	  0.033827655	-1.102590E+02	  0.033827655	5.830000E-01	  0.033827655	-3.483800E+01
71	  0.034028057	-1.330000E-01	  0.034028057	-1.108730E+02	  0.034028057	5.650000E-01	  0.034028057	-3.444200E+01
72	  0.034228459	-1.270000E-01	  0.034228459	-1.114900E+02	  0.034228459	5.360000E-01	  0.034228459	-3.404700E+01
73	  0.034428857	-1.180000E-01	  0.034428857	-1.120580E+02	  0.034428857	4.940000E-01	  0.034428857	-3.368500E+01
74	  0.034629259	-1.050000E-01	  0.034629259	-1.125810E+02	  0.034629259	4.390000E-01	  0.034629259	-3.335500E+01
75	  0.034829661	-1.000000E-01	  0.034829661	-1.130970E+02	  0.034829661	4.160000E-01	  0.034829661	-3.303100E+01
76	  0.035030060	-9.600000E-02	  0.035030060	-1.135950E+02	  0.035030060	3.980000E-01	  0.035030060	-3.272000E+01
77	  0.035230462	-9.300000E-02	  0.035230462	-1.140820E+02	  0.035230462	3.830000E-01	  0.035230462	-3.241700E+01
78	  0.035430863	-9.400000E-02	  0.035430863	-1.145940E+02	  0.035430863	3.820000E-01	  0.035430863	-3.210100E+01
79	  0.035631265	-1.020000E-01	  0.035631265	-1.150920E+02	  0.035631265	4.140000E-01	  0.035631265	-3.179500E+01
80	  0.035831664	-1.090000E-01	  0.035831664	-1.156370E+02	  0.035831664	4.390000E-01	  0.035831664	-3.146200E+01
81	  0.036032066	-1.160000E-01	  0.036032066	-1.162120E+02	  0.036032066	4.630000E-01	  0.036032066	-3.111200E+01
82	  0.036232468	-1.230000E-01	  0.036232468	-1.168000E+02	  0.036232468	4.910000E-01	  0.036232468	-3.075700E+01
83	  0.036432866	-1.270000E-01	  0.036432866	-1.174370E+02	  0.036432866	5.020000E-01	  0.036432866	-3.037500E+01
84	  0.036633268	-1.270000E-01	  0.036633268	-1.180350E+02	  0.036633268	4.970000E-01	  0.036633268	-3.001900E+01
85	  0.036833670	-1.210000E-01	  0.036833670	-1.186240E+02	  0.036833670	4.740000E-01	  0.036833670	-2.967100E+01
86	  0.037034072	-1.090000E-01	  0.037034072	-1.191620E+02	  0.037034072	4.250000E-01	  0.037034072	-2.935500E+01
87	  0.037234470	-9.800000E-02	  0.037234470	-1.196510E+02	  0.037234470	3.790000E-01	  0.037234470	-2.906900E+01
88	  0.037434869	-9.600000E-02	  0.037434869	-1.201360E+02	  0.037434869	3.680000E-01	  0.037434869	-2.878700E+01
89	  0.037635271	-9.800000E-02	  0.037635271	-1.206170E+02	  0.037635271	3.750000E-01	  0.037635271	-2.850800E+01
90	  0.037835669	-1.040000E-01	  0.037835669	-1.211220E+02	  0.037835669	3.970000E-01	  0.037835669	-2.821600E+01
91	  0.038036071	-1.140000E-01	  0.038036071	-1.216570E+02	  0.038036071	4.310000E-01	  0.038036071	-2.790900E+01
92	  0.038236473	-1.220000E-01	  0.038236473	-1.222180E+02	  0.038236473	4.600000E-01	  0.038236473	-2.758900E+01
93	  0.038436871	-1.260000E-01	  0.038436871	-1.227920E+02	  0.038436871	4.710000E-01	  0.038436871	-2.726300E+01
94	  0.038637273	-1.340000E-01	  0.038637273	-1.233550E+02	  0.038637273	4.970000E-01	  0.038637273	-2.694500E+01
95	  0.038837675	-1.380000E-01	  0.038837675	-1.239140E+02	  0.038837675	5.130000E-01	  0.038837675	-2.663100E+01
96	  0.039038073	-1.470000E-01	  0.039038073	-1.245090E+02	  0.039038073	5.430000E-01	  0.039038073	-2.629800E+01
97	  0.039238475	-1.500000E-01	  0.039238475	-1.251060E+02	  0.039238475	5.510000E-01	  0.039238475	-2.596600E+01
98	  0.039438877	-1.500000E-01	  0.039438877	-1.256840E+02	  0.039438877	5.470000E-01	  0.039438877	-2.564700E+01
99	  0.039639279	-1.460000E-01	  0.039639279	-1.262490E+02	  0.039639279	5.310000E-01	  0.039639279	-2.533700E+01
100	  0.039839678	-1.400000E-01	  0.039839678	-1.267740E+02	  0.039839678	5.070000E-01	  0.039839678	-2.505000E+01
101	  0.040040080	-1.350000E-01	  0.040040080	-1.272880E+02	  0.040040080	4.850000E-01	  0.040040080	-2.477000E+01
102	  0.040240481	-1.340000E-01	  0.040240481	-1.277840E+02	  0.040240481	4.800000E-01	  0.040240481	-2.450100E+01
103	  0.040440880	-1.300000E-01	  0.040440880	-1.283050E+02	  0.040440880	4.630000E-01	  0.040440880	-2.422000E+01
104	  0.040641282	-1.310000E-01	  0.040641282	-1.288160E+02	  0.040641282	4.630000E-01	  0.040641282	-2.394500E+01
105	  0.040841684	-1.310000E-01	  0.040841684	-1.293200E+02	  0.040841684	4.640000E-01	  0.040841684	-2.367500E+01
106	  0.041042086	-1.350000E-01	  0.041042086	-1.297920E+02	  0.041042086	4.770000E-01	  0.041042086	-2.342400E+01
107	  0.041242484	-1.450000E-01	  0.041242484	-1.302810E+02	  0.041242484	5.090000E-01	  0.041242484	-2.316300E+01
108	  0.041442886	-1.610000E-01	  0.041442886	-1.307990E+02	  0.041442886	5.610000E-01	  0.041442886	-2.288900E+01
109	  0.041643288	-1.680000E-01	  0.041643288	-1.313570E+02	  0.041643288	5.840000E-01	  0.041643288	-2.259500E+01
110	  0.041843686	-1.700000E-01	  0.041843686	-1.319520E+02	  0.041843686	5.890000E-01	  0.041843686	-2.228300E+01
111	  0.042044088	-1.660000E-01	  0.042044088	-1.325200E+02	  0.042044088	5.720000E-01	  0.042044088	-2.198700E+01
112	  0.042244490	-1.570000E-01	  0.042244490	-1.330510E+02	  0.042244490	5.370000E-01	  0.042244490	-2.171100E+01
113	  0.042444889	-1.450000E-01	  0.042444889	-1.335330E+02	  0.042444889	4.950000E-01	  0.042444889	-2.146200E+01
114	  0.042645290	-1.420000E-01	  0.042645290	-1.339940E+02	  0.042645290	4.830000E-01	  0.042645290	-2.122400E+01
115	  0.042845692	-1.410000E-01	  0.042845692	-1.344820E+02	  0.042845692	4.770000E-01	  0.042845692	-2.097400E+01
116	  0.043046094	-1.430000E-01	  0.043046094	-1.349620E+02	  0.043046094	4.840000E-01	  0.043046094	-2.072800E+01
117	  0.043246493	-1.480000E-01	  0.043246493	-1.354730E+02	  0.043246493	4.970000E-01	  0.043246493	-2.046700E+01
118	  0.043446895	-1.510000E-01	  0.043446895	-1.359750E+02	  0.043446895	5.060000E-01	  0.043446895	-2.021200E+01
119	  0.043647297	-1.560000E-01	  0.043647297	-1.364550E+02	  0.043647297	5.230000E-01	  0.043647297	-1.996800E+01
120	  0.043847695	-1.600000E-01	  0.043847695	-1.369660E+02	  0.043847695	5.340000E-01	  0.043847695	-1.971000E+01
121	  0.044048097	-1.650000E-01	  0.044048097	-1.374850E+02	  0.044048097	5.490000E-01	  0.044048097	-1.944900E+01
122	  0.044248499	-1.690000E-01	  0.044248499	-1.380420E+02	  0.044248499	5.590000E-01	  0.044248499	-1.916900E+01
123	  0.044448901	-1.710000E-01	  0.044448901	-1.385780E+02	  0.044448901	5.630000E-01	  0.044448901	-1.890200E+01
124	  0.044649299	-1.690000E-01	  0.044649299	-1.391140E+02	  0.044649299	5.560000E-01	  0.044649299	-1.863500E+01
125	  0.044849701	-1.680000E-01	  0.044849701	-1.396420E+02	  0.044849701	5.490000E-01	  0.044849701	-1.837300E+01
126	  0.045050103	-1.670000E-01	  0.045050103	-1.401350E+02	  0.045050103	5.460000E-01	  0.045050103	-1.812900E+01
127	  0.045250501	-1.670000E-01	  0.045250501	-1.406580E+02	  0.045250501	5.440000E-01	  0.045250501	-1.787100E+01
128	  0.045450903	-1.650000E-01	  0.045450903	-1.411670E+02	  0.045450903	5.360000E-01	  0.045450903	-1.762100E+01
129	  0.045651305	-1.640000E-01	  0.045651305	-1.416910E+02	  0.045651305	5.290000E-01	  0.045651305	-1.736500E+01
130	  0.045851704	-1.580000E-01	  0.045851704	-1.422040E+02	  0.045851704	5.090000E-01	  0.045851704	-1.711400E+01
131	  0.046052106	-1.570000E-01	  0.046052106	-1.427120E+02	  0.046052106	5.030000E-01	  0.046052106	-1.686700E+01
132	  0.046252504	-1.570000E-01	  0.046252504	-1.431880E+02	  0.046252504	5.040000E-01	  0.046252504	-1.663600E+01
133	  0.046452906	-1.640000E-01	  0.046452906	-1.436330E+02	  0.046452906	5.230000E-01	  0.046452906	-1.642100E+01
134	  0.046653304	-1.750000E-01	  0.046653304	-1.441200E+02	  0.046653304	5.580000E-01	  0.046653304	-1.618500E+01
135	  0.046853706	-1.840000E-01	  0.046853706	-1.446310E+02	  0.046853706	5.850000E-01	  0.046853706	-1.593900E+01
136	  0.047054108	-1.890000E-01	  0.047054108	-1.451730E+02	  0.047054108	5.990000E-01	  0.047054108	-1.567900E+01
137	  0.047254506	-1.860000E-01	  0.047254506	-1.457130E+02	  0.047254506	5.880000E-01	  0.047254506	-1.542100E+01
138	  0.047454908	-1.800000E-01	  0.047454908	-1.462530E+02	  0.047454908	5.680000E-01	  0.047454908	-1.516300E+01
139	  0.047655310	-1.760000E-01	  0.047655310	-1.467180E+02	  0.047655310	5.530000E-01	  0.047655310	-1.494200E+01
140	  0.047855709	-1.730000E-01	  0.047855709	-1.472100E+02	  0.047855709	5.410000E-01	  0.047855709	-1.470900E+01
141	  0.048056111	-1.720000E-01	  0.048056111	-1.476720E+02	  0.048056111	5.360000E-01	  0.048056111	-1.449000E+01
142	  0.048256513	-1.760000E-01	  0.048256513	-1.481540E+02	  0.048256513	5.490000E-01	  0.048256513	-1.426200E+01
143	  0.048456915	-1.760000E-01	  0.048456915	-1.486380E+02	  0.048456915	5.490000E-01	  0.048456915	-1.403400E+01
144	  0.048657313	-1.800000E-01	  0.048657313	-1.490800E+02	  0.048657313	5.590000E-01	  0.048657313	-1.382600E+01
145	  0.048857715	-1.850000E-01	  0.048857715	-1.495730E+02	  0.048857715	5.730000E-01	  0.048857715	-1.359500E+01
146	  0.049058117	-1.880000E-01	  0.049058117	-1.500370E+02	  0.049058117	5.810000E-01	  0.049058117	-1.337800E+01
147	  0.049258515	-1.960000E-01	  0.049258515	-1.505440E+02	  0.049258515	6.050000E-01	  0.049258515	-1.314100E+01
148	  0.049458917	-1.990000E-01	  0.049458917	-1.510520E+02	  0.049458917	6.110000E-01	  0.049458917	-1.290400E+01
149	  0.049659319	-1.980000E-01	  0.049659319	-1.515600E+02	  0.049659319	6.090000E-01	  0.049659319	-1.266800E+01
150	  0.049859721	-1.970000E-01	  0.049859721	-1.520560E+02	  0.049859721	6.030000E-01	  0.049859721	-1.243800E+01
151	  0.050060119	-1.960000E-01	  0.050060119	-1.525360E+02	  0.050060119	5.990000E-01	  0.050060119	-1.221600E+01
152	  0.050260521	-1.980000E-01	  0.050260521	-1.530070E+02	  0.050260521	6.020000E-01	  0.050260521	-1.199800E+01
153	  0.050460923	-1.990000E-01	  0.050460923	-1.535010E+02	  0.050460923	6.050000E-01	  0.050460923	-1.177100E+01
154	  0.050661322	-1.980000E-01	  0.050661322	-1.540060E+02	  0.050661322	6.000000E-01	  0.050661322	-1.153800E+01
155	  0.050861724	-1.950000E-01	  0.050861724	-1.545100E+02	  0.050861724	5.910000E-01	  0.050861724	-1.130700E+01
156	  0.051062126	-1.900000E-01	  0.051062126	-1.550110E+02	  0.051062126	5.730000E-01	  0.051062126	-1.107800E+01
157	  0.051262524	-1.880000E-01	  0.051262524	-1.554910E+02	  0.051262524	5.680000E-01	  0.051262524	-1.085800E+01
158	  0.051462926	-1.880000E-01	  0.051462926	-1.559500E+02	  0.051462926	5.670000E-01	  0.051462926	-1.064900E+01
159	  0.051663328	-1.890000E-01	  0.051663328	-1.564060E+02	  0.051663328	5.680000E-01	  0.051663328	-1.044100E+01
160	  0.051863730	-1.940000E-01	  0.051863730	-1.568620E+02	  0.051863730	5.820000E-01	  0.051863730	-1.023300E+01
161	  0.052064128	-1.990000E-01	  0.052064128	-1.573440E+02	  0.052064128	5.960000E-01	  0.052064128	-1.001400E+01
162	  0.052264530	-2.030000E-01	  0.052264530	-1.578330E+02	  0.052264530	6.080000E-01	  0.052264530	-9.792000E+00
163	  0.052464932	-2.020000E-01	  0.052464932	-1.583350E+02	  0.052464932	6.030000E-01	  0.052464932	-9.565000E+00
164	  0.052665330	-1.980000E-01	  0.052665330	-1.588040E+02	  0.052665330	5.920000E-01	  0.052665330	-9.353000E+00
165	  0.052865732	-1.970000E-01	  0.052865732	-1.592630E+02	  0.052865732	5.880000E-01	  0.052865732	-9.146000E+00
166	  0.053066134	-1.950000E-01	  0.053066134	-1.597280E+02	  0.053066134	5.790000E-01	  0.053066134	-8.937000E+00
167	  0.053266536	-1.950000E-01	  0.053266536	-1.601770E+02	  0.053266536	5.800000E-01	  0.053266536	-8.735000E+00
168	  0.053466935	-1.950000E-01	  0.053466935	-1.606330E+02	  0.053466935	5.800000E-01	  0.053466935	-8.530000E+00
169	  0.053667337	-1.950000E-01	  0.053667337	-1.610780E+02	  0.053667337	5.770000E-01	  0.053667337	-8.330000E+00
170	  0.053867739	-1.970000E-01	  0.053867739	-1.615170E+02	  0.053867739	5.840000E-01	  0.053867739	-8.134000E+00
171	  0.054068137	-2.020000E-01	  0.054068137	-1.619480E+02	  0.054068137	5.970000E-01	  0.054068137	-7.940000E+00
172	  0.054268539	-2.070000E-01	  0.054268539	-1.623860E+02	  0.054268539	6.110000E-01	  0.054268539	-7.745000E+00
173	  0.054468941	-2.110000E-01	  0.054468941	-1.628580E+02	  0.054468941	6.230000E-01	  0.054468941	-7.534000E+00
174	  0.054669339	-2.140000E-01	  0.054669339	-1.633160E+02	  0.054669339	6.300000E-01	  0.054669339	-7.330000E+00
175	  0.054869737	-2.150000E-01	  0.054869737	-1.637790E+02	  0.054869737	6.310000E-01	  0.054869737	-7.124000E+00
176	  0.055070139	-2.150000E-01	  0.055070139	-1.642290E+02	  0.055070139	6.310000E-01	  0.055070139	-6.924000E+00
177	  0.055270538	-2.180000E-01	  0.055270538	-1.646630E+02	  0.055270538	6.390000E-01	  0.055270538	-6.730000E+00
178	  0.055470940	-2.210000E-01	  0.055470940	-1.651060E+02	  0.055470940	6.480000E-01	  0.055470940	-6.534000E+00
179	  0.055671342	-2.220000E-01	  0.055671342	-1.655910E+02	  0.055671342	6.500000E-01	  0.055671342	-6.319000E+00
180	  0.055871744	-2.220000E-01	  0.055871744	-1.660450E+02	  0.055871744	6.490000E-01	  0.055871744	-6.117000E+00
181	  0.056072142	-2.240000E-01	  0.056072142	-1.665120E+02	  0.056072142	6.540000E-01	  0.056072142	-5.911000E+00
182	  0.056272544	-2.220000E-01	  0.056272544	-1.670030E+02	  0.056272544	6.490000E-01	  0.056272544	-5.694000E+00
183	  0.056472946	-2.220000E-01	  0.056472946	-1.674560E+02	  0.056472946	6.470000E-01	  0.056472946	-5.494000E+00
184	  0.056673344	-2.210000E-01	  0.056673344	-1.679130E+02	  0.056673344	6.450000E-01	  0.056673344	-5.292000E+00
185	  0.056873746	-2.220000E-01	  0.056873746	-1.683660E+02	  0.056873746	6.460000E-01	  0.056873746	-5.092000E+00
186	  0.057074148	-2.230000E-01	  0.057074148	-1.688090E+02	  0.057074148	6.490000E-01	  0.057074148	-4.897000E+00
187	  0.057274550	-2.240000E-01	  0.057274550	-1.692600E+02	  0.057274550	6.520000E-01	  0.057274550	-4.698000E+00
188	  0.057474948	-2.260000E-01	  0.057474948	-1.697230E+02	  0.057474948	6.560000E-01	  0.057474948	-4.495000E+00
189	  0.057675350	-2.260000E-01	  0.057675350	-1.701710E+02	  0.057675350	6.560000E-01	  0.057675350	-4.298000E+00
190	  0.057875752	-2.260000E-01	  0.057875752	-1.706440E+02	  0.057875752	6.570000E-01	  0.057875752	-4.090000E+00
191	  0.058076151	-2.250000E-01	  0.058076151	-1.710990E+02	  0.058076151	6.510000E-01	  0.058076151	-3.890000E+00
192	  0.058276553	-2.200000E-01	  0.058276553	-1.715480E+02	  0.058276553	6.390000E-01	  0.058276553	-3.693000E+00
193	  0.058476955	-2.190000E-01	  0.058476955	-1.719910E+02	  0.058476955	6.340000E-01	  0.058476955	-3.499000E+00
194	  0.058677353	-2.200000E-01	  0.058677353	-1.724220E+02	  0.058677353	6.360000E-01	  0.058677353	-3.310000E+00
195	  0.058877755	-2.190000E-01	  0.058877755	-1.728670E+02	  0.058877755	6.330000E-01	  0.058877755	-3.115000E+00
196	  0.059078157	-2.190000E-01	  0.059078157	-1.732920E+02	  0.059078157	6.350000E-01	  0.059078157	-2.929000E+00
197	  0.059278559	-2.220000E-01	  0.059278559	-1.737120E+02	  0.059278559	6.410000E-01	  0.059278559	-2.745000E+00
198	  0.059478957	-2.240000E-01	  0.059478957	-1.741520E+02	  0.059478957	6.460000E-01	  0.059478957	-2.553000E+00
199	  0.059679359	-2.260000E-01	  0.059679359	-1.745800E+02	  0.059679359	6.530000E-01	  0.059679359	-2.365000E+00
200	  0.059879761	-2.260000E-01	  0.059879761	-1.750080E+02	  0.059879761	6.520000E-01	  0.059879761	-2.178000E+00
201	  0.060080159	-2.270000E-01	  0.060080159	-1.754230E+02	  0.060080159	6.560000E-01	  0.060080159	-1.997000E+00
202	  0.060280561	-2.270000E-01	  0.060280561	-1.758430E+02	  0.060280561	6.540000E-01	  0.060280561	-1.814000E+00
203	  0.060480963	-2.290000E-01	  0.060480963	-1.762600E+02	  0.060480963	6.590000E-01	  0.060480963	-1.632000E+00
204	  0.060681365	-2.310000E-01	  0.060681365	-1.766850E+02	  0.060681365	6.660000E-01	  0.060681365	-1.446000E+00
205	  0.060881764	-2.320000E-01	  0.060881764	-1.771210E+02	  0.060881764	6.680000E-01	  0.060881764	-1.256000E+00
206	  0.061082166	-2.330000E-01	  0.061082166	-1.775470E+02	  0.061082166	6.720000E-01	  0.061082166	-1.069000E+00
207	  0.061282568	-2.350000E-01	  0.061282568	-1.779680E+02	  0.061282568	6.770000E-01	  0.061282568	-8.860000E-01
208	  0.061482966	-2.350000E-01	  0.061482966	-1.784160E+02	  0.061482966	6.760000E-01	  0.061482966	-6.910000E-01
209	  0.061683368	-2.370000E-01	  0.061683368	-1.788350E+02	  0.061683368	6.830000E-01	  0.061683368	-5.070000E-01
210	  0.061883770	-2.370000E-01	  0.061883770	-1.792740E+02	  0.061883770	6.840000E-01	  0.061883770	-3.160000E-01
211	  0.062084168	-2.410000E-01	  0.062084168	-1.797030E+02	  0.062084168	6.940000E-01	  0.062084168	-1.290000E-01
212	  0.062284570	-2.430000E-01	  0.062284570	1.798710E+02	  0.062284570	6.990000E-01	  0.062284570	5.600000E-02
213	  0.062484972	-2.420000E-01	  0.062484972	1.794720E+02	  0.062484972	6.970000E-01	  0.062484972	2.300000E-01
214	  0.062685370	-2.420000E-01	  0.062685370	1.790460E+02	  0.062685370	6.970000E-01	  0.062685370	4.160000E-01
215	  0.062885776	-2.460000E-01	  0.062885776	1.786060E+02	  0.062885776	7.090000E-01	  0.062885776	6.070000E-01
216	  0.063086174	-2.480000E-01	  0.063086174	1.781650E+02	  0.063086174	7.160000E-01	  0.063086174	8.000000E-01
217	  0.063286573	-2.450000E-01	  0.063286573	1.777400E+02	  0.063286573	7.060000E-01	  0.063286573	9.850000E-01
218	  0.063486971	-2.440000E-01	  0.063486971	1.773140E+02	  0.063486971	7.040000E-01	  0.063486971	1.171000E+00
219	  0.063687377	-2.450000E-01	  0.063687377	1.768900E+02	  0.063687377	7.060000E-01	  0.063687377	1.356000E+00
220	  0.063887775	-2.450000E-01	  0.063887775	1.764650E+02	  0.063887775	7.070000E-01	  0.063887775	1.542000E+00
221	  0.064088173	-2.460000E-01	  0.064088173	1.760490E+02	  0.064088173	7.090000E-01	  0.064088173	1.724000E+00
222	  0.064288579	-2.490000E-01	  0.064288579	1.756060E+02	  0.064288579	7.200000E-01	  0.064288579	1.917000E+00
223	  0.064488977	-2.490000E-01	  0.064488977	1.751540E+02	  0.064488977	7.200000E-01	  0.064488977	2.115000E+00
224	  0.064689375	-2.490000E-01	  0.064689375	1.747190E+02	  0.064689375	7.180000E-01	  0.064689375	2.305000E+00
225	  0.064889781	-2.470000E-01	  0.064889781	1.742990E+02	  0.064889781	7.150000E-01	  0.064889781	2.488000E+00
226	  0.065090179	-2.480000E-01	  0.065090179	1.738800E+02	  0.065090179	7.150000E-01	  0.065090179	2.672000E+00
227	  0.065290578	-2.480000E-01	  0.065290578	1.734770E+02	  0.065290578	7.180000E-01	  0.065290578	2.848000E+00
228	  0.065490983	-2.490000E-01	  0.065490983	1.730450E+02	  0.065490983	7.210000E-01	  0.065490983	3.037000E+00
229	  0.065691382	-2.480000E-01	  0.065691382	1.726100E+02	  0.065691382	7.170000E-01	  0.065691382	3.228000E+00
230	  0.065891780	-2.510000E-01	  0.065891780	1.722030E+02	  0.065891780	7.250000E-01	  0.065891780	3.406000E+00
231	  0.066092186	-2.490000E-01	  0.066092186	1.717820E+02	  0.066092186	7.210000E-01	  0.066092186	3.590000E+00
232	  0.066292584	-2.470000E-01	  0.066292584	1.713680E+02	  0.066292584	7.160000E-01	  0.066292584	3.772000E+00
233	  0.066492982	-2.440000E-01	  0.066492982	1.709260E+02	  0.066492982	7.080000E-01	  0.066492982	3.966000E+00
234	  0.066693388	-2.490000E-01	  0.066693388	1.705140E+02	  0.066693388	7.220000E-01	  0.066693388	4.147000E+00
235	  0.066893786	-2.490000E-01	  0.066893786	1.700840E+02	  0.066893786	7.220000E-01	  0.066893786	4.336000E+00
236	  0.067094192	-2.480000E-01	  0.067094192	1.696750E+02	  0.067094192	7.210000E-01	  0.067094192	4.516000E+00
237	  0.067294590	-2.500000E-01	  0.067294590	1.692470E+02	  0.067294590	7.270000E-01	  0.067294590	4.704000E+00
238	  0.067494988	-2.500000E-01	  0.067494988	1.688400E+02	  0.067494988	7.270000E-01	  0.067494988	4.883000E+00
239	  0.067695394	-2.520000E-01	  0.067695394	1.684310E+02	  0.067695394	7.340000E-01	  0.067695394	5.063000E+00
240	  0.067895792	-2.540000E-01	  0.067895792	1.680270E+02	  0.067895792	7.400000E-01	  0.067895792	5.241000E+00
241	  0.068096191	-2.520000E-01	  0.068096191	1.676010E+02	  0.068096191	7.360000E-01	  0.068096191	5.430000E+00
242	  0.068296596	-2.520000E-01	  0.068296596	1.672120E+02	  0.068296596	7.370000E-01	  0.068296596	5.601000E+00
243	  0.068496995	-2.540000E-01	  0.068496995	1.668110E+02	  0.068496995	7.430000E-01	  0.068496995	5.778000E+00
244	  0.068697393	-2.540000E-01	  0.068697393	1.663980E+02	  0.068697393	7.430000E-01	  0.068697393	5.961000E+00
245	  0.068897791	-2.540000E-01	  0.068897791	1.660170E+02	  0.068897791	7.430000E-01	  0.068897791	6.130000E+00
246	  0.069098189	-2.520000E-01	  0.069098189	1.656260E+02	  0.069098189	7.390000E-01	  0.069098189	6.303000E+00
247	  0.069298595	-2.580000E-01	  0.069298595	1.652320E+02	  0.069298595	7.550000E-01	  0.069298595	6.477000E+00
248	  0.069498993	-2.620000E-01	  0.069498993	1.648080E+02	  0.069498993	7.690000E-01	  0.069498993	6.666000E+00
249	  0.069699399	-2.650000E-01	  0.069699399	1.643970E+02	  0.069699399	7.790000E-01	  0.069699399	6.848000E+00
250	  0.069899797	-2.650000E-01	  0.069899797	1.639760E+02	  0.069899797	7.780000E-01	  0.069899797	7.035000E+00
251	  0.070100196	-2.650000E-01	  0.070100196	1.635800E+02	  0.070100196	7.800000E-01	  0.070100196	7.212000E+00
252	  0.070300601	-2.680000E-01	  0.070300601	1.631980E+02	  0.070300601	7.900000E-01	  0.070300601	7.382000E+00
253	  0.070501000	-2.690000E-01	  0.070501000	1.627850E+02	  0.070501000	7.920000E-01	  0.070501000	7.566000E+00
254	  0.070701398	-2.670000E-01	  0.070701398	1.623880E+02	  0.070701398	7.890000E-01	  0.070701398	7.743000E+00
255	  0.070901804	-2.720000E-01	  0.070901804	1.620050E+02	  0.070901804	8.040000E-01	  0.070901804	7.914000E+00
256	  0.071102202	-2.680000E-01	  0.071102202	1.615940E+02	  0.071102202	7.920000E-01	  0.071102202	8.098000E+00
257	  0.071302600	-2.670000E-01	  0.071302600	1.611840E+02	  0.071302600	7.920000E-01	  0.071302600	8.282000E+00
258	  0.071503006	-2.690000E-01	  0.071503006	1.607770E+02	  0.071503006	7.960000E-01	  0.071503006	8.464000E+00
259	  0.071703404	-2.660000E-01	  0.071703404	1.603700E+02	  0.071703404	7.900000E-01	  0.071703404	8.647000E+00
260	  0.071903802	-2.660000E-01	  0.071903802	1.599690E+02	  0.071903802	7.900000E-01	  0.071903802	8.827000E+00
261	  0.072104208	-2.670000E-01	  0.072104208	1.595580E+02	  0.072104208	7.950000E-01	  0.072104208	9.012000E+00
262	  0.072304606	-2.680000E-01	  0.072304606	1.591600E+02	  0.072304606	8.000000E-01	  0.072304606	9.192000E+00
263	  0.072505005	-2.700000E-01	  0.072505005	1.587830E+02	  0.072505005	8.050000E-01	  0.072505005	9.362000E+00
264	  0.072705410	-2.680000E-01	  0.072705410	1.583830E+02	  0.072705410	7.990000E-01	  0.072705410	9.542000E+00
265	  0.072905809	-2.710000E-01	  0.072905809	1.579760E+02	  0.072905809	8.100000E-01	  0.072905809	9.727000E+00
266	  0.073106214	-2.710000E-01	  0.073106214	1.575770E+02	  0.073106214	8.130000E-01	  0.073106214	9.908000E+00
267	  0.073306613	-2.710000E-01	  0.073306613	1.571910E+02	  0.073306613	8.130000E-01	  0.073306613	1.008200E+01
268	  0.073507011	-2.690000E-01	  0.073507011	1.567710E+02	  0.073507011	8.070000E-01	  0.073507011	1.027400E+01
269	  0.073707417	-2.670000E-01	  0.073707417	1.563930E+02	  0.073707417	8.030000E-01	  0.073707417	1.044500E+01
270	  0.073907815	-2.650000E-01	  0.073907815	1.560320E+02	  0.073907815	7.970000E-01	  0.073907815	1.061000E+01
271	  0.074108213	-2.620000E-01	  0.074108213	1.556900E+02	  0.074108213	7.900000E-01	  0.074108213	1.076600E+01
272	  0.074308619	-2.660000E-01	  0.074308619	1.553090E+02	  0.074308619	8.040000E-01	  0.074308619	1.094000E+01
273	  0.074509017	-2.680000E-01	  0.074509017	1.549450E+02	  0.074509017	8.110000E-01	  0.074509017	1.110600E+01
274	  0.074709415	-2.710000E-01	  0.074709415	1.545520E+02	  0.074709415	8.200000E-01	  0.074709415	1.128700E+01
275	  0.074909821	-2.710000E-01	  0.074909821	1.541470E+02	  0.074909821	8.230000E-01	  0.074909821	1.147200E+01
276	  0.075110219	-2.740000E-01	  0.075110219	1.537840E+02	  0.075110219	8.330000E-01	  0.075110219	1.163900E+01
277	  0.075310618	-2.770000E-01	  0.075310618	1.534070E+02	  0.075310618	8.420000E-01	  0.075310618	1.181200E+01
278	  0.075511023	-2.760000E-01	  0.075511023	1.530400E+02	  0.075511023	8.420000E-01	  0.075511023	1.198200E+01
279	  0.075711422	-2.770000E-01	  0.075711422	1.526800E+02	  0.075711422	8.440000E-01	  0.075711422	1.214800E+01
280	  0.075911827	-2.770000E-01	  0.075911827	1.523020E+02	  0.075911827	8.480000E-01	  0.075911827	1.232300E+01
281	  0.076112226	-2.780000E-01	  0.076112226	1.519070E+02	  0.076112226	8.510000E-01	  0.076112226	1.250600E+01
282	  0.076312624	-2.800000E-01	  0.076312624	1.515180E+02	  0.076312624	8.580000E-01	  0.076312624	1.268600E+01
283	  0.076513030	-2.780000E-01	  0.076513030	1.511540E+02	  0.076513030	8.550000E-01	  0.076513030	1.285500E+01
284	  0.076713428	-2.770000E-01	  0.076713428	1.507580E+02	  0.076713428	8.530000E-01	  0.076713428	1.303900E+01
285	  0.076913826	-2.780000E-01	  0.076913826	1.503560E+02	  0.076913826	8.580000E-01	  0.076913826	1.322700E+01
286	  0.077114232	-2.760000E-01	  0.077114232	1.499770E+02	  0.077114232	8.520000E-01	  0.077114232	1.340400E+01
287	  0.077314630	-2.770000E-01	  0.077314630	1.495910E+02	  0.077314630	8.570000E-01	  0.077314630	1.358400E+01
288	  0.077515028	-2.770000E-01	  0.077515028	1.492100E+02	  0.077515028	8.590000E-01	  0.077515028	1.376300E+01
289	  0.077715434	-2.810000E-01	  0.077715434	1.488470E+02	  0.077715434	8.710000E-01	  0.077715434	1.393400E+01
290	  0.077915832	-2.830000E-01	  0.077915832	1.484640E+02	  0.077915832	8.810000E-01	  0.077915832	1.411400E+01
291	  0.078116231	-2.880000E-01	  0.078116231	1.480780E+02	  0.078116231	8.970000E-01	  0.078116231	1.429500E+01
292	  0.078316636	-2.890000E-01	  0.078316636	1.476810E+02	  0.078316636	9.020000E-01	  0.078316636	1.448300E+01
293	  0.078517035	-2.900000E-01	  0.078517035	1.472590E+02	  0.078517035	9.080000E-01	  0.078517035	1.468300E+01
294	  0.078717433	-2.870000E-01	  0.078717433	1.468610E+02	  0.078717433	9.010000E-01	  0.078717433	1.487200E+01
295	  0.078917839	-2.860000E-01	  0.078917839	1.464700E+02	  0.078917839	8.980000E-01	  0.078917839	1.505700E+01
296	  0.079118237	-2.840000E-01	  0.079118237	1.460950E+02	  0.079118237	8.950000E-01	  0.079118237	1.523600E+01
297	  0.079318643	-2.840000E-01	  0.079318643	1.457410E+02	  0.079318643	8.950000E-01	  0.079318643	1.540500E+01
298	  0.079519041	-2.820000E-01	  0.079519041	1.453660E+02	  0.079519041	8.900000E-01	  0.079519041	1.558400E+01
299	  0.079719439	-2.870000E-01	  0.079719439	1.450040E+02	  0.079719439	9.100000E-01	  0.079719439	1.575700E+01
300	  0.079919845	-2.880000E-01	  0.079919845	1.446120E+02	  0.079919845	9.150000E-01	  0.079919845	1.594600E+01
301	  0.080120243	-2.930000E-01	  0.080120243	1.442210E+02	  0.080120243	9.320000E-01	  0.080120243	1.613400E+01
302	  0.080320641	-2.930000E-01	  0.080320641	1.438420E+02	  0.080320641	9.330000E-01	  0.080320641	1.631600E+01
303	  0.080521047	-2.960000E-01	  0.080521047	1.434780E+02	  0.080521047	9.450000E-01	  0.080521047	1.649200E+01
304	  0.080721445	-2.980000E-01	  0.080721445	1.431290E+02	  0.080721445	9.530000E-01	  0.080721445	1.666100E+01
305	  0.080921844	-2.980000E-01	  0.080921844	1.427550E+02	  0.080921844	9.550000E-01	  0.080921844	1.684300E+01
306	  0.081122249	-2.970000E-01	  0.081122249	1.423850E+02	  0.081122249	9.540000E-01	  0.081122249	1.702200E+01
307	  0.081322648	-2.950000E-01	  0.081322648	1.420050E+02	  0.081322648	9.490000E-01	  0.081322648	1.720800E+01
308	  0.081523046	-2.910000E-01	  0.081523046	1.416380E+02	  0.081523046	9.390000E-01	  0.081523046	1.738700E+01
309	  0.081723452	-2.900000E-01	  0.081723452	1.412670E+02	  0.081723452	9.370000E-01	  0.081723452	1.756800E+01
310	  0.081923850	-2.900000E-01	  0.081923850	1.409250E+02	  0.081923850	9.420000E-01	  0.081923850	1.773600E+01
311	  0.082124248	-2.870000E-01	  0.082124248	1.405460E+02	  0.082124248	9.340000E-01	  0.082124248	1.792300E+01
312	  0.082324654	-2.830000E-01	  0.082324654	1.402080E+02	  0.082324654	9.220000E-01	  0.082324654	1.809000E+01
313	  0.082525052	-2.820000E-01	  0.082525052	1.398330E+02	  0.082525052	9.210000E-01	  0.082525052	1.827500E+01
314	  0.082725458	-2.760000E-01	  0.082725458	1.395130E+02	  0.082725458	9.050000E-01	  0.082725458	1.843300E+01
315	  0.082925856	-2.800000E-01	  0.082925856	1.391770E+02	  0.082925856	9.190000E-01	  0.082925856	1.860000E+01
316	  0.083126254	-2.830000E-01	  0.083126254	1.388610E+02	  0.083126254	9.300000E-01	  0.083126254	1.875700E+01
317	  0.083326660	-2.880000E-01	  0.083326660	1.384950E+02	  0.083326660	9.480000E-01	  0.083326660	1.893900E+01
318	  0.083527058	-2.890000E-01	  0.083527058	1.381180E+02	  0.083527058	9.550000E-01	  0.083527058	1.912700E+01
319	  0.083727457	-2.900000E-01	  0.083727457	1.377420E+02	  0.083727457	9.610000E-01	  0.083727457	1.931500E+01
320	  0.083927862	-2.900000E-01	  0.083927862	1.373490E+02	  0.083927862	9.630000E-01	  0.083927862	1.951300E+01
321	  0.084128261	-2.890000E-01	  0.084128261	1.369950E+02	  0.084128261	9.610000E-01	  0.084128261	1.969100E+01
322	  0.084328659	-2.850000E-01	  0.084328659	1.366330E+02	  0.084328659	9.520000E-01	  0.084328659	1.987400E+01
323	  0.084529065	-2.900000E-01	  0.084529065	1.362950E+02	  0.084529065	9.700000E-01	  0.084529065	2.004500E+01
324	  0.084729463	-2.880000E-01	  0.084729463	1.359270E+02	  0.084729463	9.650000E-01	  0.084729463	2.023100E+01
325	  0.084929861	-2.920000E-01	  0.084929861	1.355570E+02	  0.084929861	9.800000E-01	  0.084929861	2.041900E+01
326	  0.085130267	-2.930000E-01	  0.085130267	1.351640E+02	  0.085130267	9.860000E-01	  0.085130267	2.061900E+01
327	  0.085330658	-2.950000E-01	  0.085330658	1.348210E+02	  0.085330658	9.980000E-01	  0.085330658	2.079400E+01
328	  0.085531056	-3.010000E-01	  0.085531056	1.344260E+02	  0.085531056	1.021000E+00	  0.085531056	2.099700E+01
329	  0.085731462	-3.070000E-01	  0.085731462	1.340550E+02	  0.085731462	1.044000E+00	  0.085731462	2.118700E+01
330	  0.085931860	-3.090000E-01	  0.085931860	1.336900E+02	  0.085931860	1.054000E+00	  0.085931860	2.137500E+01
331	  0.086132258	-3.110000E-01	  0.086132258	1.333170E+02	  0.086132258	1.062000E+00	  0.086132258	2.156700E+01
332	  0.086332664	-3.100000E-01	  0.086332664	1.329150E+02	  0.086332664	1.061000E+00	  0.086332664	2.177600E+01
333	  0.086533062	-3.100000E-01	  0.086533062	1.325340E+02	  0.086533062	1.066000E+00	  0.086533062	2.197400E+01
334	  0.086733460	-3.070000E-01	  0.086733460	1.321520E+02	  0.086733460	1.059000E+00	  0.086733460	2.217300E+01
335	  0.086933866	-3.110000E-01	  0.086933866	1.317760E+02	  0.086933866	1.075000E+00	  0.086933866	2.236900E+01
336	  0.087134264	-3.110000E-01	  0.087134264	1.313830E+02	  0.087134264	1.080000E+00	  0.087134264	2.257500E+01
337	  0.087334670	-3.060000E-01	  0.087334670	1.310060E+02	  0.087334670	1.064000E+00	  0.087334670	2.277400E+01
338	  0.087535068	-3.040000E-01	  0.087535068	1.306670E+02	  0.087535068	1.060000E+00	  0.087535068	2.295300E+01
339	  0.087735467	-2.990000E-01	  0.087735467	1.302930E+02	  0.087735467	1.048000E+00	  0.087735467	2.315100E+01
340	  0.087935872	-2.960000E-01	  0.087935872	1.299670E+02	  0.087935872	1.040000E+00	  0.087935872	2.332400E+01
341	  0.088136271	-2.970000E-01	  0.088136271	1.296340E+02	  0.088136271	1.045000E+00	  0.088136271	2.350100E+01
342	  0.088336669	-2.960000E-01	  0.088336669	1.293430E+02	  0.088336669	1.045000E+00	  0.088336669	2.365600E+01
343	  0.088537075	-2.970000E-01	  0.088537075	1.289800E+02	  0.088537075	1.052000E+00	  0.088537075	2.385000E+01
344	  0.088737473	-3.000000E-01	  0.088737473	1.286440E+02	  0.088737473	1.066000E+00	  0.088737473	2.403000E+01
345	  0.088937871	-2.990000E-01	  0.088937871	1.282930E+02	  0.088937871	1.064000E+00	  0.088937871	2.421900E+01
346	  0.089138277	-3.000000E-01	  0.089138277	1.279600E+02	  0.089138277	1.069000E+00	  0.089138277	2.439800E+01
347	  0.089338675	-2.960000E-01	  0.089338675	1.276350E+02	  0.089338675	1.060000E+00	  0.089338675	2.457400E+01
348	  0.089539073	-2.940000E-01	  0.089539073	1.273030E+02	  0.089539073	1.056000E+00	  0.089539073	2.475400E+01
349	  0.089739479	-2.930000E-01	  0.089739479	1.269680E+02	  0.089739479	1.055000E+00	  0.089739479	2.493700E+01
350	  0.089939877	-2.990000E-01	  0.089939877	1.266440E+02	  0.089939877	1.080000E+00	  0.089939877	2.511300E+01
351	  0.090140276	-2.940000E-01	  0.090140276	1.263170E+02	  0.090140276	1.062000E+00	  0.090140276	2.529300E+01
352	  0.090340681	-2.920000E-01	  0.090340681	1.259900E+02	  0.090340681	1.061000E+00	  0.090340681	2.547200E+01
353	  0.090541080	-2.920000E-01	  0.090541080	1.256600E+02	  0.090541080	1.064000E+00	  0.090541080	2.565300E+01
354	  0.090741485	-2.970000E-01	  0.090741485	1.253430E+02	  0.090741485	1.086000E+00	  0.090741485	2.582800E+01
355	  0.090941884	-2.990000E-01	  0.090941884	1.250060E+02	  0.090941884	1.093000E+00	  0.090941884	2.601400E+01
356	  0.091142282	-3.010000E-01	  0.091142282	1.246960E+02	  0.091142282	1.106000E+00	  0.091142282	2.618600E+01
357	  0.091342688	-3.060000E-01	  0.091342688	1.243350E+02	  0.091342688	1.128000E+00	  0.091342688	2.638700E+01
358	  0.091543086	-3.050000E-01	  0.091543086	1.239800E+02	  0.091543086	1.127000E+00	  0.091543086	2.658500E+01
359	  0.091743484	-3.070000E-01	  0.091743484	1.236200E+02	  0.091743484	1.139000E+00	  0.091743484	2.678700E+01
360	  0.091943890	-3.050000E-01	  0.091943890	1.232760E+02	  0.091943890	1.134000E+00	  0.091943890	2.698100E+01
361	  0.092144288	-3.120000E-01	  0.092144288	1.229040E+02	  0.092144288	1.164000E+00	  0.092144288	2.719000E+01
362	  0.092344686	-3.080000E-01	  0.092344686	1.225290E+02	  0.092344686	1.156000E+00	  0.092344686	2.740200E+01
363	  0.092545092	-3.120000E-01	  0.092545092	1.221940E+02	  0.092545092	1.173000E+00	  0.092545092	2.759200E+01
364	  0.092745490	-3.050000E-01	  0.092745490	1.218200E+02	  0.092745490	1.152000E+00	  0.092745490	2.780600E+01
365	  0.092945889	-3.040000E-01	  0.092945889	1.214870E+02	  0.092945889	1.152000E+00	  0.092945889	2.799700E+01
366	  0.093146294	-3.020000E-01	  0.093146294	1.211170E+02	  0.093146294	1.147000E+00	  0.093146294	2.820900E+01
367	  0.093346693	-3.010000E-01	  0.093346693	1.207900E+02	  0.093346693	1.147000E+00	  0.093346693	2.839700E+01
368	  0.093547091	-3.050000E-01	  0.093547091	1.204450E+02	  0.093547091	1.165000E+00	  0.093547091	2.859700E+01
369	  0.093747497	-3.040000E-01	  0.093747497	1.201140E+02	  0.093747497	1.168000E+00	  0.093747497	2.878900E+01
370	  0.093947895	-3.060000E-01	  0.093947895	1.197560E+02	  0.093947895	1.177000E+00	  0.093947895	2.899700E+01
371	  0.094148301	-3.030000E-01	  0.094148301	1.193980E+02	  0.094148301	1.172000E+00	  0.094148301	2.920600E+01
372	  0.094348699	-3.050000E-01	  0.094348699	1.190680E+02	  0.094348699	1.185000E+00	  0.094348699	2.939900E+01
373	  0.094549097	-3.050000E-01	  0.094549097	1.187170E+02	  0.094549097	1.188000E+00	  0.094549097	2.960600E+01
374	  0.094749503	-3.080000E-01	  0.094749503	1.183770E+02	  0.094749503	1.202000E+00	  0.094749503	2.980600E+01
375	  0.094949901	-3.040000E-01	  0.094949901	1.180400E+02	  0.094949901	1.191000E+00	  0.094949901	3.000600E+01
376	  0.095150299	-3.070000E-01	  0.095150299	1.176860E+02	  0.095150299	1.206000E+00	  0.095150299	3.021600E+01
377	  0.095350705	-3.020000E-01	  0.095350705	1.173550E+02	  0.095350705	1.193000E+00	  0.095350705	3.041400E+01
378	  0.095551103	-3.010000E-01	  0.095551103	1.170300E+02	  0.095551103	1.194000E+00	  0.095551103	3.060800E+01
379	  0.095751502	-2.970000E-01	  0.095751502	1.167000E+02	  0.095751502	1.179000E+00	  0.095751502	3.080700E+01
380	  0.095951907	-2.980000E-01	  0.095951907	1.163990E+02	  0.095951907	1.189000E+00	  0.095951907	3.098800E+01
381	  0.096152306	-3.010000E-01	  0.096152306	1.160690E+02	  0.096152306	1.205000E+00	  0.096152306	3.118800E+01
382	  0.096352704	-3.020000E-01	  0.096352704	1.157620E+02	  0.096352704	1.211000E+00	  0.096352704	3.137400E+01
383	  0.096553110	-3.070000E-01	  0.096553110	1.154130E+02	  0.096553110	1.240000E+00	  0.096553110	3.158600E+01
384	  0.096753508	-3.020000E-01	  0.096753508	1.150780E+02	  0.096753508	1.223000E+00	  0.096753508	3.179100E+01
385	  0.096953906	-3.060000E-01	  0.096953906	1.147390E+02	  0.096953906	1.245000E+00	  0.096953906	3.199900E+01
386	  0.097154312	-3.040000E-01	  0.097154312	1.144130E+02	  0.097154312	1.238000E+00	  0.097154312	3.220000E+01
387	  0.097354710	-3.080000E-01	  0.097354710	1.140510E+02	  0.097354710	1.262000E+00	  0.097354710	3.242300E+01
388	  0.097555116	-3.090000E-01	  0.097555116	1.137260E+02	  0.097555116	1.268000E+00	  0.097555116	3.262500E+01
389	  0.097755514	-3.050000E-01	  0.097755514	1.133570E+02	  0.097755514	1.260000E+00	  0.097755514	3.285500E+01
390	  0.097955912	-3.040000E-01	  0.097955912	1.130230E+02	  0.097955912	1.258000E+00	  0.097955912	3.306500E+01
391	  0.098156318	-3.030000E-01	  0.098156318	1.126780E+02	  0.098156318	1.259000E+00	  0.098156318	3.328100E+01
392	  0.098356716	-3.040000E-01	  0.098356716	1.123400E+02	  0.098356716	1.270000E+00	  0.098356716	3.349400E+01
393	  0.098557115	-3.060000E-01	  0.098557115	1.119920E+02	  0.098557115	1.282000E+00	  0.098557115	3.371400E+01
394	  0.098757520	-3.060000E-01	  0.098757520	1.116790E+02	  0.098757520	1.287000E+00	  0.098757520	3.391300E+01
395	  0.098957919	-3.110000E-01	  0.098957919	1.113190E+02	  0.098957919	1.313000E+00	  0.098957919	3.414300E+01
396	  0.099158317	-3.120000E-01	  0.099158317	1.109810E+02	  0.099158317	1.324000E+00	  0.099158317	3.435900E+01
397	  0.099358723	-3.120000E-01	  0.099358723	1.106440E+02	  0.099358723	1.331000E+00	  0.099358723	3.457600E+01
398	  0.099559121	-3.140000E-01	  0.099559121	1.103080E+02	  0.099559121	1.342000E+00	  0.099559121	3.479300E+01
399	  0.099759519	-3.200000E-01	  0.099759519	1.099600E+02	  0.099759519	1.375000E+00	  0.099759519	3.501800E+01
400	  0.099959925	-3.160000E-01	  0.099959925	1.095870E+02	  0.099959925	1.364000E+00	  0.099959925	3.526100E+01
401	  0.100160323	-3.210000E-01	  0.100160323	1.092930E+02	  0.100160323	1.389000E+00	  0.100160323	3.545300E+01
402	  0.100360721	-3.230000E-01	  0.100360721	1.089180E+02	  0.100360721	1.404000E+00	  0.100360721	3.569900E+01
403	  0.100561127	-3.200000E-01	  0.100561127	1.085850E+02	  0.100561127	1.397000E+00	  0.100561127	3.591900E+01
404	  0.100761525	-3.200000E-01	  0.100761525	1.082810E+02	  0.100761525	1.403000E+00	  0.100761525	3.612000E+01
405	  0.100961931	-3.200000E-01	  0.100961931	1.079620E+02	  0.100961931	1.411000E+00	  0.100961931	3.633300E+01
406	  0.101162329	-3.180000E-01	  0.101162329	1.076440E+02	  0.101162329	1.407000E+00	  0.101162329	3.654500E+01
407	  0.101362728	-3.200000E-01	  0.101362728	1.073610E+02	  0.101362728	1.422000E+00	  0.101362728	3.673500E+01
408	  0.101563133	-3.260000E-01	  0.101563133	1.070260E+02	  0.101563133	1.453000E+00	  0.101563133	3.695900E+01
409	  0.101763532	-3.230000E-01	  0.101763532	1.066730E+02	  0.101763532	1.447000E+00	  0.101763532	3.719800E+01
410	  0.101963930	-3.240000E-01	  0.101963930	1.064170E+02	  0.101963930	1.453000E+00	  0.101963930	3.737200E+01
411	  0.102164336	-3.140000E-01	  0.102164336	1.061170E+02	  0.102164336	1.416000E+00	  0.102164336	3.757800E+01
412	  0.102364734	-3.210000E-01	  0.102364734	1.057930E+02	  0.102364734	1.455000E+00	  0.102364734	3.779800E+01
413	  0.102565132	-3.140000E-01	  0.102565132	1.054720E+02	  0.102565132	1.428000E+00	  0.102565132	3.802000E+01
414	  0.102765530	-3.190000E-01	  0.102765530	1.051780E+02	  0.102765530	1.458000E+00	  0.102765530	3.822200E+01
415	  0.102965929	-3.120000E-01	  0.102965929	1.048340E+02	  0.102965929	1.432000E+00	  0.102965929	3.846100E+01
416	  0.103166327	-3.120000E-01	  0.103166327	1.045600E+02	  0.103166327	1.437000E+00	  0.103166327	3.865100E+01
417	  0.103366733	-3.030000E-01	  0.103366733	1.042420E+02	  0.103366733	1.403000E+00	  0.103366733	3.887500E+01
418	  0.103567131	-3.030000E-01	  0.103567131	1.039160E+02	  0.103567131	1.409000E+00	  0.103567131	3.910300E+01
419	  0.103767529	-3.050000E-01	  0.103767529	1.036020E+02	  0.103767529	1.425000E+00	  0.103767529	3.932400E+01
420	  0.103967935	-3.000000E-01	  0.103967935	1.032830E+02	  0.103967935	1.407000E+00	  0.103967935	3.955100E+01
421	  0.104168333	-3.040000E-01	  0.104168333	1.029360E+02	  0.104168333	1.434000E+00	  0.104168333	3.979600E+01
422	  0.104368731	-2.990000E-01	  0.104368731	1.026410E+02	  0.104368731	1.413000E+00	  0.104368731	4.000800E+01
423	  0.104569137	-3.000000E-01	  0.104569137	1.023070E+02	  0.104569137	1.426000E+00	  0.104569137	4.024700E+01
424	  0.104769535	-3.020000E-01	  0.104769535	1.020220E+02	  0.104769535	1.442000E+00	  0.104769535	4.045200E+01
425	  0.104969934	-3.010000E-01	  0.104969934	1.016510E+02	  0.104969934	1.444000E+00	  0.104969934	4.072000E+01
426	  0.105170339	-3.050000E-01	  0.105170339	1.013490E+02	  0.105170339	1.470000E+00	  0.105170339	4.093900E+01
427	  0.105370738	-3.020000E-01	  0.105370738	1.010350E+02	  0.105370738	1.459000E+00	  0.105370738	4.116900E+01
428	  0.105571143	-3.100000E-01	  0.105571143	1.006480E+02	  0.105571143	1.508000E+00	  0.105571143	4.145200E+01
429	  0.105771542	-3.030000E-01	  0.105771542	1.003300E+02	  0.105771542	1.482000E+00	  0.105771542	4.168800E+01
430	  0.105971940	-3.150000E-01	  0.105971940	9.999800E+01	  0.105971940	1.548000E+00	  0.105971940	4.193200E+01
431	  0.106172346	-3.030000E-01	  0.106172346	9.968000E+01	  0.106172346	1.496000E+00	  0.106172346	4.217100E+01
432	  0.106372744	-3.100000E-01	  0.106372744	9.930100E+01	  0.106372744	1.537000E+00	  0.106372744	4.245300E+01
433	  0.106573142	-3.150000E-01	  0.106573142	9.902000E+01	  0.106573142	1.568000E+00	  0.106573142	4.266400E+01
434	  0.106773548	-3.160000E-01	  0.106773548	9.867900E+01	  0.106773548	1.584000E+00	  0.106773548	4.292100E+01
435	  0.106973946	-3.210000E-01	  0.106973946	9.844100E+01	  0.106973946	1.614000E+00	  0.106973946	4.310100E+01
436	  0.107174344	-3.280000E-01	  0.107174344	9.806600E+01	  0.107174344	1.655000E+00	  0.107174344	4.338600E+01
437	  0.107374750	-3.250000E-01	  0.107374750	9.775600E+01	  0.107374750	1.651000E+00	  0.107374750	4.362400E+01
438	  0.107575148	-3.240000E-01	  0.107575148	9.742100E+01	  0.107575148	1.651000E+00	  0.107575148	4.388200E+01
439	  0.107775547	-3.280000E-01	  0.107775547	9.707000E+01	  0.107775547	1.681000E+00	  0.107775547	4.415300E+01
440	  0.107975952	-3.320000E-01	  0.107975952	9.679200E+01	  0.107975952	1.711000E+00	  0.107975952	4.436900E+01
441	  0.108176351	-3.310000E-01	  0.108176351	9.647700E+01	  0.108176351	1.712000E+00	  0.108176351	4.461500E+01
442	  0.108376749	-3.340000E-01	  0.108376749	9.615200E+01	  0.108376749	1.739000E+00	  0.108376749	4.487000E+01
443	  0.108577155	-3.330000E-01	  0.108577155	9.583900E+01	  0.108577155	1.740000E+00	  0.108577155	4.511700E+01
444	  0.108777553	-3.300000E-01	  0.108777553	9.552700E+01	  0.108777553	1.734000E+00	  0.108777553	4.536500E+01
445	  0.108977959	-3.300000E-01	  0.108977959	9.521600E+01	  0.108977959	1.745000E+00	  0.108977959	4.561300E+01
446	  0.109178357	-3.290000E-01	  0.109178357	9.490400E+01	  0.109178357	1.749000E+00	  0.109178357	4.586200E+01
447	  0.109378755	-3.270000E-01	  0.109378755	9.460100E+01	  0.109378755	1.744000E+00	  0.109378755	4.610700E+01
448	  0.109579161	-3.260000E-01	  0.109579161	9.427400E+01	  0.109579161	1.747000E+00	  0.109579161	4.637100E+01
449	  0.109779559	-3.250000E-01	  0.109779559	9.398700E+01	  0.109779559	1.750000E+00	  0.109779559	4.660500E+01
450	  0.109979957	-3.210000E-01	  0.109979957	9.367900E+01	  0.109979957	1.736000E+00	  0.109979957	4.685800E+01
451	  0.110180363	-3.150000E-01	  0.110180363	9.337300E+01	  0.110180363	1.712000E+00	  0.110180363	4.711000E+01
452	  0.110380761	-3.160000E-01	  0.110380761	9.307800E+01	  0.110380761	1.730000E+00	  0.110380761	4.735300E+01
453	  0.110581160	-3.190000E-01	  0.110581160	9.277500E+01	  0.110581160	1.753000E+00	  0.110581160	4.760400E+01
454	  0.110781565	-3.100000E-01	  0.110781565	9.244100E+01	  0.110781565	1.714000E+00	  0.110781565	4.788400E+01
455	  0.110981964	-3.060000E-01	  0.110981964	9.213700E+01	  0.110981964	1.702000E+00	  0.110981964	4.813900E+01
456	  0.111182362	-3.080000E-01	  0.111182362	9.184000E+01	  0.111182362	1.720000E+00	  0.111182362	4.838900E+01
457	  0.111382768	-3.040000E-01	  0.111382768	9.154800E+01	  0.111382768	1.706000E+00	  0.111382768	4.863700E+01
458	  0.111583166	-3.020000E-01	  0.111583166	9.124100E+01	  0.111583166	1.701000E+00	  0.111583166	4.889900E+01
459	  0.111783572	-3.050000E-01	  0.111783572	9.093800E+01	  0.111783572	1.730000E+00	  0.111783572	4.915700E+01
460	  0.111983970	-3.010000E-01	  0.111983970	9.064700E+01	  0.111983970	1.715000E+00	  0.111983970	4.940800E+01
461	  0.112184368	-3.030000E-01	  0.112184368	9.034900E+01	  0.112184368	1.736000E+00	  0.112184368	4.966600E+01
462	  0.112384774	-3.040000E-01	  0.112384774	9.011300E+01	  0.112384774	1.747000E+00	  0.112384774	4.987000E+01
463	  0.112585172	-2.940000E-01	  0.112585172	8.978000E+01	  0.112585172	1.702000E+00	  0.112585172	5.016200E+01
464	  0.112785570	-2.990000E-01	  0.112785570	8.949900E+01	  0.112785570	1.736000E+00	  0.112785570	5.040800E+01
465	  0.112985976	-3.020000E-01	  0.112985976	8.921100E+01	  0.112985976	1.764000E+00	  0.112985976	5.066100E+01
466	  0.113186374	-3.020000E-01	  0.113186374	8.889200E+01	  0.113186374	1.775000E+00	  0.113186374	5.094400E+01
467	  0.113386773	-3.060000E-01	  0.113386773	8.860300E+01	  0.113386773	1.805000E+00	  0.113386773	5.120100E+01
468	  0.113587178	-3.130000E-01	  0.113587178	8.826900E+01	  0.113587178	1.861000E+00	  0.113587178	5.149800E+01
469	  0.113787577	-3.130000E-01	  0.113787577	8.796100E+01	  0.113787577	1.868000E+00	  0.113787577	5.177600E+01
470	  0.113987975	-3.160000E-01	  0.113987975	8.764700E+01	  0.113987975	1.901000E+00	  0.113987975	5.205900E+01
471	  0.114188381	-3.190000E-01	  0.114188381	8.735300E+01	  0.114188381	1.925000E+00	  0.114188381	5.232700E+01
472	  0.114388779	-3.290000E-01	  0.114388779	8.703300E+01	  0.114388779	1.996000E+00	  0.114388779	5.261800E+01
473	  0.114589177	-3.260000E-01	  0.114589177	8.673500E+01	  0.114589177	1.993000E+00	  0.114589177	5.289300E+01
474	  0.114789583	-3.280000E-01	  0.114789583	8.636100E+01	  0.114789583	2.016000E+00	  0.114789583	5.324000E+01
475	  0.114989981	-3.320000E-01	  0.114989981	8.600300E+01	  0.114989981	2.056000E+00	  0.114989981	5.357200E+01
476	  0.115190387	-3.310000E-01	  0.115190387	8.571900E+01	  0.115190387	2.058000E+00	  0.115190387	5.383900E+01
477	  0.115390785	-3.320000E-01	  0.115390785	8.537400E+01	  0.115390785	2.081000E+00	  0.115390785	5.416500E+01
478	  0.115591183	-3.320000E-01	  0.115591183	8.506900E+01	  0.115591183	2.092000E+00	  0.115591183	5.445400E+01
479	  0.115791589	-3.350000E-01	  0.115791589	8.475500E+01	  0.115791589	2.123000E+00	  0.115791589	5.475400E+01
480	  0.115991987	-3.290000E-01	  0.115991987	8.441600E+01	  0.115991987	2.097000E+00	  0.115991987	5.508200E+01
481	  0.116192386	-3.310000E-01	  0.116192386	8.407700E+01	  0.116192386	2.129000E+00	  0.116192386	5.540900E+01
482	  0.116392791	-3.250000E-01	  0.116392791	8.374700E+01	  0.116392791	2.099000E+00	  0.116392791	5.573300E+01
483	  0.116593190	-3.230000E-01	  0.116593190	8.343900E+01	  0.116593190	2.103000E+00	  0.116593190	5.603600E+01
484	  0.116793588	-3.210000E-01	  0.116793588	8.313800E+01	  0.116793588	2.103000E+00	  0.116793588	5.633300E+01
485	  0.116993994	-3.190000E-01	  0.116993994	8.282700E+01	  0.116993994	2.099000E+00	  0.116993994	5.664200E+01
486	  0.117194392	-3.190000E-01	  0.117194392	8.250900E+01	  0.117194392	2.113000E+00	  0.117194392	5.696000E+01
487	  0.117394790	-3.140000E-01	  0.117394790	8.222100E+01	  0.117394790	2.090000E+00	  0.117394790	5.725100E+01
488	  0.117595196	-3.080000E-01	  0.117595196	8.193300E+01	  0.117595196	2.067000E+00	  0.117595196	5.754300E+01
489	  0.117795594	-3.000000E-01	  0.117795594	8.163900E+01	  0.117795594	2.025000E+00	  0.117795594	5.784400E+01
490	  0.117995992	-2.970000E-01	  0.117995992	8.133600E+01	  0.117995992	2.018000E+00	  0.117995992	5.815400E+01
491	  0.118196398	-3.000000E-01	  0.118196398	8.105700E+01	  0.118196398	2.044000E+00	  0.118196398	5.844100E+01
492	  0.118396796	-2.960000E-01	  0.118396796	8.081800E+01	  0.118396796	2.031000E+00	  0.118396796	5.869000E+01
493	  0.118597202	-2.960000E-01	  0.118597202	8.050200E+01	  0.118597202	2.042000E+00	  0.118597202	5.901800E+01
494	  0.118797600	-2.920000E-01	  0.118797600	8.025500E+01	  0.118797600	2.022000E+00	  0.118797600	5.927800E+01
495	  0.118997999	-2.930000E-01	  0.118997999	7.996700E+01	  0.118997999	2.046000E+00	  0.118997999	5.958000E+01
496	  0.119198404	-2.920000E-01	  0.119198404	7.966200E+01	  0.119198404	2.054000E+00	  0.119198404	5.990300E+01
497	  0.119398803	-2.940000E-01	  0.119398803	7.938800E+01	  0.119398803	2.074000E+00	  0.119398803	6.019400E+01
498	  0.119599201	-3.000000E-01	  0.119599201	7.909000E+01	  0.119599201	2.135000E+00	  0.119599201	6.051300E+01
499	  0.119799607	-2.990000E-01	  0.119799607	7.880300E+01	  0.119799607	2.141000E+00	  0.119799607	6.082100E+01
500	  0.120000005	-3.020000E-01	  0.120000005	7.851600E+01	  0.120000005	2.173000E+00	  0.120000005	6.113200E+01
