! Anritsu VNA Master:             	Model: MS2036C/10/77
! SN:             	1601066
! /card0/usr/18may27.balun/5b.m2.txt
! Existing Calibration Information:
! TYPE:             	Current Settings	Active Cal Settings
! TIME:             	05/27/2018 03:40:49 PM	05/27/2018 03:21:57 PM
! INTERNAL TEMP:    	53.8 C	52.3 C
! # POINTS:         	500	500
! START FREQ:       	20.000 MHz	20.000 MHz
! STOP FREQ:        	120.000 MHz	120.000 MHz
! SOURCE POWER:     	High	High
! IFBW:             	50 Hz	50 Hz
! AVG FACTOR:       	  1 	  1 
! REF PLANE 1:      	0 mm	0 mm
! REF PLANE 2:      	0 mm	0 mm
! CAL TYPE:         	Full S11	Full S11
! CAL METHOD:       	SOLT	SOLT
! CAL LINE TYPE:    	Coax	Coax
! DUT PORT 1:       	K-Conn(M)	K-Conn(M)
! DUT PORT 2:       	K-Conn(M)	K-Conn(M)
! CAL STATUS:       	OK: Accuracy High	--
! PROP-V:       	0.700
! CABLE LOSS:       	0.000 dB/m
! REF IMPEDANCE:       	50.0
! Trace Specific Parameters:	TR1	TR2	TR3	TR4
! TRACE.#.Y (GRAPH TYPE)	LOG MAG	PHASE	REAL IMPEDANCE	IMAGINARY IMPEDANCE
! TRACE.#.X 	FREQ.GHZ	FREQ.GHZ	FREQ.GHZ	FREQ.GHZ
! S-PARAMETER	S11	S11	S11	S11
! SMOOTH/APERTURE %	0	0	0	0
! WINDOW	NSL	NSL	NSL	NSL
! GATING	OFF	OFF	OFF	OFF
! FGTD	OFF	OFF	OFF	OFF
Marker Information per Trace:	TR1	TR2	TR3	TR4
!MK1	--	--	--	"MK1 TR4:  70.100 200 MHz,Z:(17.311 ohm, -2.248 ohm)"
!MK2	--	--	--	--
!MK3	--	--	--	--
!MK4	--	--	--	--
!MK5	--	--	--	--
!MK6	--	--	--	--
!MK7	--	--	--	--
!MK8	--	--	--	--
PNT	TR1.FREQ.GHZ	TR1.LOG MAG.dB	TR2.FREQ.GHZ	TR2.PHASE.deg	TR3.FREQ.GHZ	TR3.REAL IMPEDANCE.ohm	TR4.FREQ.GHZ	TR4.IMAGINARY IMPEDANCE.ohm
1	  0.020000000	-7.330000E-01	  0.020000000	-1.250950E+02	  0.020000000	2.677000E+00	  0.020000000	-2.591600E+01
2	  0.020200402	-7.330000E-01	  0.020200402	-1.265710E+02	  0.020200402	2.644000E+00	  0.020200402	-2.510600E+01
3	  0.020400802	-7.320000E-01	  0.020400802	-1.280220E+02	  0.020400802	2.606000E+00	  0.020400802	-2.432000E+01
4	  0.020601204	-7.330000E-01	  0.020601204	-1.294980E+02	  0.020601204	2.579000E+00	  0.020601204	-2.353100E+01
5	  0.020801604	-7.390000E-01	  0.020801604	-1.309960E+02	  0.020801604	2.567000E+00	  0.020801604	-2.273800E+01
6	  0.021002004	-7.460000E-01	  0.021002004	-1.325270E+02	  0.021002004	2.561000E+00	  0.021002004	-2.193700E+01
7	  0.021202406	-7.550000E-01	  0.021202406	-1.340930E+02	  0.021202406	2.560000E+00	  0.021202406	-2.112800E+01
8	  0.021402806	-7.630000E-01	  0.021402806	-1.356630E+02	  0.021402806	2.560000E+00	  0.021402806	-2.032600E+01
9	  0.021603208	-7.670000E-01	  0.021603208	-1.372390E+02	  0.021603208	2.545000E+00	  0.021603208	-1.953100E+01
10	  0.021803608	-7.730000E-01	  0.021803608	-1.387910E+02	  0.021803608	2.537000E+00	  0.021803608	-1.875500E+01
11	  0.022004008	-7.780000E-01	  0.022004008	-1.403630E+02	  0.022004008	2.530000E+00	  0.022004008	-1.797800E+01
12	  0.022204408	-7.790000E-01	  0.022204408	-1.419540E+02	  0.022204408	2.507000E+00	  0.022204408	-1.719900E+01
13	  0.022404809	-7.820000E-01	  0.022404809	-1.435440E+02	  0.022404809	2.493000E+00	  0.022404809	-1.642800E+01
14	  0.022605211	-7.810000E-01	  0.022605211	-1.451240E+02	  0.022605211	2.470000E+00	  0.022605211	-1.567000E+01
15	  0.022805611	-7.790000E-01	  0.022805611	-1.466750E+02	  0.022805611	2.441000E+00	  0.022805611	-1.493100E+01
16	  0.023006011	-7.800000E-01	  0.023006011	-1.482190E+02	  0.023006011	2.427000E+00	  0.023006011	-1.420200E+01
17	  0.023206413	-7.890000E-01	  0.023206413	-1.497570E+02	  0.023206413	2.437000E+00	  0.023206413	-1.348000E+01
18	  0.023406813	-7.980000E-01	  0.023406813	-1.512940E+02	  0.023406813	2.446000E+00	  0.023406813	-1.276500E+01
19	  0.023607215	-8.070000E-01	  0.023607215	-1.528530E+02	  0.023607215	2.457000E+00	  0.023607215	-1.204400E+01
20	  0.023807615	-8.130000E-01	  0.023807615	-1.544100E+02	  0.023807615	2.460000E+00	  0.023807615	-1.132800E+01
21	  0.024008015	-8.230000E-01	  0.024008015	-1.559680E+02	  0.024008015	2.475000E+00	  0.024008015	-1.061700E+01
22	  0.024208417	-8.350000E-01	  0.024208417	-1.575190E+02	  0.024208417	2.496000E+00	  0.024208417	-9.912000E+00
23	  0.024408817	-8.490000E-01	  0.024408817	-1.591080E+02	  0.024408817	2.527000E+00	  0.024408817	-9.195000E+00
24	  0.024609219	-8.650000E-01	  0.024609219	-1.607390E+02	  0.024609219	2.559000E+00	  0.024609219	-8.462000E+00
25	  0.024809619	-8.760000E-01	  0.024809619	-1.623920E+02	  0.024809619	2.579000E+00	  0.024809619	-7.723000E+00
26	  0.025010020	-8.850000E-01	  0.025010020	-1.640550E+02	  0.025010020	2.596000E+00	  0.025010020	-6.984000E+00
27	  0.025210422	-8.970000E-01	  0.025210422	-1.657280E+02	  0.025210422	2.621000E+00	  0.025210422	-6.242000E+00
28	  0.025410822	-9.090000E-01	  0.025410822	-1.674210E+02	  0.025410822	2.647000E+00	  0.025410822	-5.495000E+00
29	  0.025611224	-9.230000E-01	  0.025611224	-1.691310E+02	  0.025611224	2.678000E+00	  0.025611224	-4.742000E+00
30	  0.025811624	-9.370000E-01	  0.025811624	-1.708770E+02	  0.025811624	2.712000E+00	  0.025811624	-3.977000E+00
31	  0.026012026	-9.500000E-01	  0.026012026	-1.726350E+02	  0.026012026	2.743000E+00	  0.026012026	-3.208000E+00
32	  0.026212426	-9.670000E-01	  0.026212426	-1.744210E+02	  0.026212426	2.788000E+00	  0.026212426	-2.428000E+00
33	  0.026412826	-9.860000E-01	  0.026412826	-1.762060E+02	  0.026412826	2.838000E+00	  0.026412826	-1.650000E+00
34	  0.026613226	-1.004000E+00	  0.026613226	-1.780200E+02	  0.026613226	2.887000E+00	  0.026613226	-8.600000E-01
35	  0.026813626	-1.020000E+00	  0.026813626	-1.798340E+02	  0.026813626	2.933000E+00	  0.026813626	-7.100000E-02
36	  0.027014028	-1.035000E+00	  0.027014028	1.783900E+02	  0.027014028	2.977000E+00	  0.027014028	6.990000E-01
37	  0.027214428	-1.049000E+00	  0.027214428	1.765860E+02	  0.027214428	3.020000E+00	  0.027214428	1.484000E+00
38	  0.027414829	-1.063000E+00	  0.027414829	1.748250E+02	  0.027414829	3.062000E+00	  0.027414829	2.251000E+00
39	  0.027615231	-1.079000E+00	  0.027615231	1.730460E+02	  0.027615231	3.115000E+00	  0.027615231	3.026000E+00
40	  0.027815631	-1.098000E+00	  0.027815631	1.712640E+02	  0.027815631	3.174000E+00	  0.027815631	3.803000E+00
41	  0.028016033	-1.116000E+00	  0.028016033	1.694730E+02	  0.028016033	3.236000E+00	  0.028016033	4.587000E+00
42	  0.028216433	-1.136000E+00	  0.028216433	1.676920E+02	  0.028216433	3.303000E+00	  0.028216433	5.367000E+00
43	  0.028416833	-1.157000E+00	  0.028416833	1.659170E+02	  0.028416833	3.377000E+00	  0.028416833	6.147000E+00
44	  0.028617235	-1.180000E+00	  0.028617235	1.641500E+02	  0.028617235	3.459000E+00	  0.028617235	6.927000E+00
45	  0.028817635	-1.205000E+00	  0.028817635	1.623630E+02	  0.028817635	3.548000E+00	  0.028817635	7.718000E+00
46	  0.029018037	-1.233000E+00	  0.029018037	1.605460E+02	  0.029018037	3.649000E+00	  0.029018037	8.526000E+00
47	  0.029218437	-1.260000E+00	  0.029218437	1.587140E+02	  0.029218437	3.750000E+00	  0.029218437	9.344000E+00
48	  0.029418837	-1.286000E+00	  0.029418837	1.568810E+02	  0.029418837	3.849000E+00	  0.029418837	1.016800E+01
49	  0.029619239	-1.312000E+00	  0.029619239	1.550590E+02	  0.029619239	3.953000E+00	  0.029619239	1.099100E+01
50	  0.029819639	-1.340000E+00	  0.029819639	1.532270E+02	  0.029819639	4.066000E+00	  0.029819639	1.182400E+01
51	  0.030020041	-1.369000E+00	  0.030020041	1.513770E+02	  0.030020041	4.188000E+00	  0.030020041	1.267100E+01
52	  0.030220442	-1.403000E+00	  0.030220442	1.495110E+02	  0.030220442	4.327000E+00	  0.030220442	1.353100E+01
53	  0.030420844	-1.442000E+00	  0.030420844	1.476040E+02	  0.030420844	4.490000E+00	  0.030420844	1.441600E+01
54	  0.030621244	-1.486000E+00	  0.030621244	1.456460E+02	  0.030621244	4.671000E+00	  0.030621244	1.533200E+01
55	  0.030821644	-1.524000E+00	  0.030821644	1.436310E+02	  0.030821644	4.846000E+00	  0.030821644	1.628400E+01
56	  0.031022044	-1.559000E+00	  0.031022044	1.415920E+02	  0.031022044	5.016000E+00	  0.031022044	1.725900E+01
57	  0.031222444	-1.591000E+00	  0.031222444	1.395240E+02	  0.031222444	5.182000E+00	  0.031222444	1.825900E+01
58	  0.031422846	-1.618000E+00	  0.031422846	1.374680E+02	  0.031422846	5.342000E+00	  0.031422846	1.926600E+01
59	  0.031623244	-1.645000E+00	  0.031623244	1.354300E+02	  0.031623244	5.506000E+00	  0.031623244	2.027700E+01
60	  0.031823646	-1.666000E+00	  0.031823646	1.334010E+02	  0.031823646	5.657000E+00	  0.031823646	2.129900E+01
61	  0.032024048	-1.688000E+00	  0.032024048	1.314300E+02	  0.032024048	5.819000E+00	  0.032024048	2.230500E+01
62	  0.032224450	-1.716000E+00	  0.032224450	1.294650E+02	  0.032224450	6.008000E+00	  0.032224450	2.332000E+01
63	  0.032424849	-1.740000E+00	  0.032424849	1.275290E+02	  0.032424849	6.191000E+00	  0.032424849	2.433600E+01
64	  0.032625251	-1.775000E+00	  0.032625251	1.255900E+02	  0.032625251	6.419000E+00	  0.032625251	2.536500E+01
65	  0.032825653	-1.814000E+00	  0.032825653	1.236540E+02	  0.032825653	6.675000E+00	  0.032825653	2.640700E+01
66	  0.033026051	-1.858000E+00	  0.033026051	1.217530E+02	  0.033026051	6.959000E+00	  0.033026051	2.744200E+01
67	  0.033226453	-1.902000E+00	  0.033226453	1.197950E+02	  0.033226453	7.259000E+00	  0.033226453	2.852700E+01
68	  0.033426855	-1.947000E+00	  0.033426855	1.178590E+02	  0.033426855	7.574000E+00	  0.033426855	2.961600E+01
69	  0.033627257	-1.994000E+00	  0.033627257	1.158840E+02	  0.033627257	7.917000E+00	  0.033627257	3.074600E+01
70	  0.033827655	-2.039000E+00	  0.033827655	1.138730E+02	  0.033827655	8.272000E+00	  0.033827655	3.191900E+01
71	  0.034028057	-2.089000E+00	  0.034028057	1.118470E+02	  0.034028057	8.666000E+00	  0.034028057	3.312000E+01
72	  0.034228459	-2.138000E+00	  0.034228459	1.098160E+02	  0.034228459	9.081000E+00	  0.034228459	3.434800E+01
73	  0.034428857	-2.188000E+00	  0.034428857	1.077770E+02	  0.034428857	9.519000E+00	  0.034428857	3.560500E+01
74	  0.034629259	-2.232000E+00	  0.034629259	1.057250E+02	  0.034629259	9.962000E+00	  0.034629259	3.690100E+01
75	  0.034829661	-2.276000E+00	  0.034829661	1.036780E+02	  0.034829661	1.042800E+01	  0.034829661	3.822200E+01
76	  0.035030060	-2.319000E+00	  0.035030060	1.016450E+02	  0.035030060	1.091500E+01	  0.035030060	3.956500E+01
77	  0.035230462	-2.369000E+00	  0.035230462	9.960900E+01	  0.035230462	1.146700E+01	  0.035230462	4.093200E+01
78	  0.035430863	-2.424000E+00	  0.035430863	9.757400E+01	  0.035430863	1.207200E+01	  0.035430863	4.232500E+01
79	  0.035631265	-2.486000E+00	  0.035631265	9.550400E+01	  0.035631265	1.276000E+01	  0.035631265	4.376500E+01
80	  0.035831664	-2.550000E+00	  0.035831664	9.339900E+01	  0.035831664	1.350400E+01	  0.035831664	4.526200E+01
81	  0.036032066	-2.611000E+00	  0.036032066	9.122400E+01	  0.036032066	1.430100E+01	  0.036032066	4.685400E+01
82	  0.036232468	-2.667000E+00	  0.036232468	8.901100E+01	  0.036232468	1.513900E+01	  0.036232468	4.852300E+01
83	  0.036432866	-2.723000E+00	  0.036432866	8.679300E+01	  0.036432866	1.603500E+01	  0.036432866	5.024200E+01
84	  0.036633268	-2.769000E+00	  0.036633268	8.459600E+01	  0.036633268	1.694100E+01	  0.036633268	5.200900E+01
85	  0.036833670	-2.814000E+00	  0.036833670	8.240300E+01	  0.036833670	1.790500E+01	  0.036833670	5.382600E+01
86	  0.037034072	-2.851000E+00	  0.037034072	8.027800E+01	  0.037034072	1.887200E+01	  0.037034072	5.565200E+01
87	  0.037234470	-2.891000E+00	  0.037234470	7.816000E+01	  0.037234470	1.992600E+01	  0.037234470	5.752200E+01
88	  0.037434869	-2.923000E+00	  0.037434869	7.612800E+01	  0.037434869	2.097800E+01	  0.037434869	5.938200E+01
89	  0.037635271	-2.956000E+00	  0.037635271	7.408900E+01	  0.037635271	2.211800E+01	  0.037635271	6.130400E+01
90	  0.037835669	-2.991000E+00	  0.037835669	7.204400E+01	  0.037835669	2.336600E+01	  0.037835669	6.328300E+01
91	  0.038036071	-3.040000E+00	  0.038036071	6.994500E+01	  0.038036071	2.484200E+01	  0.038036071	6.532700E+01
92	  0.038236473	-3.102000E+00	  0.038236473	6.788000E+01	  0.038236473	2.651900E+01	  0.038236473	6.733000E+01
93	  0.038436871	-3.174000E+00	  0.038436871	6.581600E+01	  0.038436871	2.839900E+01	  0.038436871	6.933300E+01
94	  0.038637273	-3.249000E+00	  0.038637273	6.381000E+01	  0.038637273	3.041100E+01	  0.038637273	7.128100E+01
95	  0.038837675	-3.322000E+00	  0.038837675	6.174700E+01	  0.038837675	3.262000E+01	  0.038837675	7.332200E+01
96	  0.039038073	-3.394000E+00	  0.039038073	5.963700E+01	  0.039038073	3.504200E+01	  0.039038073	7.544100E+01
97	  0.039238475	-3.457000E+00	  0.039238475	5.751800E+01	  0.039238475	3.761000E+01	  0.039238475	7.764100E+01
98	  0.039438877	-3.516000E+00	  0.039438877	5.540200E+01	  0.039438877	4.036700E+01	  0.039438877	7.987600E+01
99	  0.039639279	-3.567000E+00	  0.039639279	5.330700E+01	  0.039639279	4.327500E+01	  0.039639279	8.215200E+01
100	  0.039839678	-3.614000E+00	  0.039839678	5.123300E+01	  0.039839678	4.637800E+01	  0.039839678	8.443800E+01
101	  0.040040080	-3.665000E+00	  0.040040080	4.919300E+01	  0.040040080	4.974800E+01	  0.040040080	8.662800E+01
102	  0.040240481	-3.721000E+00	  0.040240481	4.717700E+01	  0.040240481	5.340700E+01	  0.040240481	8.870100E+01
103	  0.040440880	-3.781000E+00	  0.040440880	4.511500E+01	  0.040440880	5.750900E+01	  0.040440880	9.069500E+01
104	  0.040641282	-3.843000E+00	  0.040641282	4.303500E+01	  0.040641282	6.200600E+01	  0.040641282	9.257600E+01
105	  0.040841684	-3.901000E+00	  0.040841684	4.094300E+01	  0.040841684	6.687800E+01	  0.040841684	9.436000E+01
106	  0.041042086	-3.960000E+00	  0.041042086	3.880800E+01	  0.041042086	7.226700E+01	  0.041042086	9.596600E+01
107	  0.041242484	-4.013000E+00	  0.041242484	3.672400E+01	  0.041242484	7.792400E+01	  0.041242484	9.734400E+01
108	  0.041442886	-4.064000E+00	  0.041442886	3.462000E+01	  0.041442886	8.407500E+01	  0.041442886	9.843200E+01
109	  0.041643288	-4.113000E+00	  0.041643288	3.253200E+01	  0.041643288	9.062700E+01	  0.041643288	9.915100E+01
110	  0.041843686	-4.156000E+00	  0.041843686	3.045000E+01	  0.041843686	9.759500E+01	  0.041843686	9.950600E+01
111	  0.042044088	-4.199000E+00	  0.042044088	2.839200E+01	  0.042044088	1.049310E+02	  0.042044088	9.927400E+01
112	  0.042244490	-4.241000E+00	  0.042244490	2.639200E+01	  0.042244490	1.124570E+02	  0.042244490	9.842100E+01
113	  0.042444889	-4.285000E+00	  0.042444889	2.441400E+01	  0.042444889	1.202230E+02	  0.042444889	9.675400E+01
114	  0.042645290	-4.326000E+00	  0.042645290	2.246600E+01	  0.042645290	1.281150E+02	  0.042645290	9.434500E+01
115	  0.042845692	-4.371000E+00	  0.042845692	2.053700E+01	  0.042845692	1.360340E+02	  0.042845692	9.094200E+01
116	  0.043046094	-4.414000E+00	  0.043046094	1.859200E+01	  0.043046094	1.440220E+02	  0.043046094	8.658300E+01
117	  0.043246493	-4.460000E+00	  0.043246493	1.667800E+01	  0.043246493	1.516590E+02	  0.043246493	8.115600E+01
118	  0.043446895	-4.507000E+00	  0.043446895	1.476900E+01	  0.043446895	1.588810E+02	  0.043446895	7.465600E+01
119	  0.043647297	-4.560000E+00	  0.043647297	1.286300E+01	  0.043647297	1.653940E+02	  0.043647297	6.701200E+01
120	  0.043847695	-4.611000E+00	  0.043847695	1.094500E+01	  0.043847695	1.711660E+02	  0.043847695	5.842400E+01
121	  0.044048097	-4.667000E+00	  0.044048097	9.018000E+00	  0.044048097	1.758440E+02	  0.044048097	4.890300E+01
122	  0.044248499	-4.718000E+00	  0.044248499	7.074000E+00	  0.044248499	1.795360E+02	  0.044248499	3.876300E+01
123	  0.044448901	-4.765000E+00	  0.044448901	5.117000E+00	  0.044448901	1.821020E+02	  0.044448901	2.817200E+01
124	  0.044649299	-4.810000E+00	  0.044649299	3.178000E+00	  0.044649299	1.833670E+02	  0.044649299	1.745200E+01
125	  0.044849701	-4.856000E+00	  0.044849701	1.236000E+00	  0.044849701	1.832020E+02	  0.044849701	6.716000E+00
126	  0.045050103	-4.898000E+00	  0.045050103	-7.370000E-01	  0.045050103	1.818980E+02	  0.045050103	-3.938000E+00
127	  0.045250501	-4.944000E+00	  0.045250501	-2.694000E+00	  0.045250501	1.791860E+02	  0.045250501	-1.402400E+01
128	  0.045450903	-4.984000E+00	  0.045450903	-4.667000E+00	  0.045450903	1.755770E+02	  0.045450903	-2.358300E+01
129	  0.045651305	-5.022000E+00	  0.045651305	-6.642000E+00	  0.045651305	1.710620E+02	  0.045651305	-3.238700E+01
130	  0.045851704	-5.057000E+00	  0.045851704	-8.599000E+00	  0.045851704	1.658760E+02	  0.045851704	-4.028200E+01
131	  0.046052106	-5.092000E+00	  0.046052106	-1.056700E+01	  0.046052106	1.600640E+02	  0.046052106	-4.730700E+01
132	  0.046252504	-5.123000E+00	  0.046252504	-1.249600E+01	  0.046252504	1.540340E+02	  0.046252504	-5.335500E+01
133	  0.046452906	-5.152000E+00	  0.046452906	-1.439800E+01	  0.046452906	1.478590E+02	  0.046452906	-5.849200E+01
134	  0.046653304	-5.182000E+00	  0.046653304	-1.627700E+01	  0.046653304	1.415940E+02	  0.046653304	-6.273100E+01
135	  0.046853706	-5.209000E+00	  0.046853706	-1.812400E+01	  0.046853706	1.354350E+02	  0.046853706	-6.620100E+01
136	  0.047054108	-5.236000E+00	  0.047054108	-1.996900E+01	  0.047054108	1.293470E+02	  0.047054108	-6.901600E+01
137	  0.047254506	-5.262000E+00	  0.047254506	-2.178500E+01	  0.047254506	1.234680E+02	  0.047254506	-7.119300E+01
138	  0.047454908	-5.286000E+00	  0.047454908	-2.357900E+01	  0.047454908	1.178330E+02	  0.047454908	-7.285600E+01
139	  0.047655310	-5.314000E+00	  0.047655310	-2.534300E+01	  0.047655310	1.124570E+02	  0.047655310	-7.397700E+01
140	  0.047855709	-5.344000E+00	  0.047855709	-2.710900E+01	  0.047855709	1.072820E+02	  0.047855709	-7.465400E+01
141	  0.048056111	-5.371000E+00	  0.048056111	-2.885300E+01	  0.048056111	1.024150E+02	  0.048056111	-7.504100E+01
142	  0.048256513	-5.399000E+00	  0.048256513	-3.060200E+01	  0.048256513	9.776500E+01	  0.048256513	-7.512400E+01
143	  0.048456915	-5.428000E+00	  0.048456915	-3.236400E+01	  0.048456915	9.332200E+01	  0.048456915	-7.494900E+01
144	  0.048657313	-5.455000E+00	  0.048657313	-3.409200E+01	  0.048657313	8.919800E+01	  0.048657313	-7.459700E+01
145	  0.048857715	-5.480000E+00	  0.048857715	-3.581900E+01	  0.048857715	8.529900E+01	  0.048857715	-7.410500E+01
146	  0.049058117	-5.508000E+00	  0.049058117	-3.752100E+01	  0.049058117	8.167200E+01	  0.049058117	-7.342000E+01
147	  0.049258515	-5.531000E+00	  0.049258515	-3.922000E+01	  0.049258515	7.824600E+01	  0.049258515	-7.267700E+01
148	  0.049458917	-5.561000E+00	  0.049458917	-4.090200E+01	  0.049458917	7.506000E+01	  0.049458917	-7.175600E+01
149	  0.049659319	-5.589000E+00	  0.049659319	-4.260300E+01	  0.049659319	7.201700E+01	  0.049659319	-7.077500E+01
150	  0.049859721	-5.618000E+00	  0.049859721	-4.432800E+01	  0.049859721	6.911700E+01	  0.049859721	-6.970200E+01
151	  0.050060119	-5.647000E+00	  0.050060119	-4.604900E+01	  0.050060119	6.639200E+01	  0.050060119	-6.858400E+01
152	  0.050260521	-5.675000E+00	  0.050260521	-4.779400E+01	  0.050260521	6.379000E+01	  0.050260521	-6.741600E+01
153	  0.050460923	-5.699000E+00	  0.050460923	-4.951400E+01	  0.050460923	6.136400E+01	  0.050460923	-6.626500E+01
154	  0.050661322	-5.718000E+00	  0.050661322	-5.124900E+01	  0.050661322	5.903700E+01	  0.050661322	-6.513100E+01
155	  0.050861724	-5.734000E+00	  0.050861724	-5.298100E+01	  0.050861724	5.683800E+01	  0.050861724	-6.398900E+01
156	  0.051062126	-5.745000E+00	  0.051062126	-5.469000E+01	  0.051062126	5.477100E+01	  0.051062126	-6.287900E+01
157	  0.051262524	-5.751000E+00	  0.051262524	-5.636500E+01	  0.051262524	5.283100E+01	  0.051262524	-6.181500E+01
158	  0.051462926	-5.761000E+00	  0.051462926	-5.799700E+01	  0.051462926	5.106000E+01	  0.051462926	-6.072700E+01
159	  0.051663328	-5.771000E+00	  0.051663328	-5.960300E+01	  0.051663328	4.940700E+01	  0.051663328	-5.964800E+01
160	  0.051863730	-5.784000E+00	  0.051863730	-6.116800E+01	  0.051863730	4.789100E+01	  0.051863730	-5.857200E+01
161	  0.052064128	-5.796000E+00	  0.052064128	-6.271100E+01	  0.052064128	4.646600E+01	  0.052064128	-5.751400E+01
162	  0.052264530	-5.808000E+00	  0.052264530	-6.426900E+01	  0.052264530	4.509900E+01	  0.052264530	-5.644700E+01
163	  0.052464932	-5.821000E+00	  0.052464932	-6.580800E+01	  0.052464932	4.381500E+01	  0.052464932	-5.539600E+01
164	  0.052665330	-5.832000E+00	  0.052665330	-6.735100E+01	  0.052665330	4.258500E+01	  0.052665330	-5.435500E+01
165	  0.052865732	-5.850000E+00	  0.052865732	-6.885400E+01	  0.052865732	4.147300E+01	  0.052865732	-5.330800E+01
166	  0.053066134	-5.863000E+00	  0.053066134	-7.039800E+01	  0.053066134	4.036400E+01	  0.053066134	-5.226900E+01
167	  0.053266536	-5.876000E+00	  0.053266536	-7.191000E+01	  0.053266536	3.933200E+01	  0.053266536	-5.125600E+01
168	  0.053466935	-5.892000E+00	  0.053466935	-7.341600E+01	  0.053466935	3.836100E+01	  0.053466935	-5.024600E+01
169	  0.053667337	-5.902000E+00	  0.053667337	-7.492700E+01	  0.053667337	3.740600E+01	  0.053667337	-4.927100E+01
170	  0.053867739	-5.910000E+00	  0.053867739	-7.643400E+01	  0.053867739	3.649200E+01	  0.053867739	-4.831100E+01
171	  0.054068137	-5.924000E+00	  0.054068137	-7.789800E+01	  0.054068137	3.566300E+01	  0.054068137	-4.736700E+01
172	  0.054268539	-5.935000E+00	  0.054268539	-7.932700E+01	  0.054268539	3.488100E+01	  0.054268539	-4.646400E+01
173	  0.054468941	-5.950000E+00	  0.054468941	-8.078600E+01	  0.054468941	3.413400E+01	  0.054468941	-4.553500E+01
174	  0.054669339	-5.965000E+00	  0.054669339	-8.220700E+01	  0.054669339	3.343600E+01	  0.054669339	-4.464200E+01
175	  0.054869737	-5.979000E+00	  0.054869737	-8.365200E+01	  0.054869737	3.275300E+01	  0.054869737	-4.374700E+01
176	  0.055070139	-5.994000E+00	  0.055070139	-8.511700E+01	  0.055070139	3.209300E+01	  0.055070139	-4.284800E+01
177	  0.055270538	-6.014000E+00	  0.055270538	-8.656600E+01	  0.055270538	3.148500E+01	  0.055270538	-4.195700E+01
178	  0.055470940	-6.027000E+00	  0.055470940	-8.804500E+01	  0.055470940	3.086700E+01	  0.055470940	-4.107700E+01
179	  0.055671342	-6.038000E+00	  0.055671342	-8.951800E+01	  0.055671342	3.026700E+01	  0.055671342	-4.022000E+01
180	  0.055871744	-6.045000E+00	  0.055871744	-9.098300E+01	  0.055871744	2.968300E+01	  0.055871744	-3.938600E+01
181	  0.056072142	-6.047000E+00	  0.056072142	-9.242300E+01	  0.056072142	2.911600E+01	  0.056072142	-3.858600E+01
182	  0.056272544	-6.049000E+00	  0.056272544	-9.388700E+01	  0.056272544	2.856000E+01	  0.056272544	-3.778200E+01
183	  0.056472946	-6.047000E+00	  0.056472946	-9.528000E+01	  0.056472946	2.804000E+01	  0.056472946	-3.703300E+01
184	  0.056673344	-6.049000E+00	  0.056673344	-9.668000E+01	  0.056673344	2.754800E+01	  0.056673344	-3.627900E+01
185	  0.056873746	-6.048000E+00	  0.056873746	-9.802100E+01	  0.056873746	2.708300E+01	  0.056873746	-3.556900E+01
186	  0.057074148	-6.049000E+00	  0.057074148	-9.933800E+01	  0.057074148	2.665400E+01	  0.057074148	-3.487200E+01
187	  0.057274550	-6.052000E+00	  0.057274550	-1.006500E+02	  0.057274550	2.624400E+01	  0.057274550	-3.418200E+01
188	  0.057474948	-6.053000E+00	  0.057474948	-1.019680E+02	  0.057474948	2.584400E+01	  0.057474948	-3.349600E+01
189	  0.057675350	-6.058000E+00	  0.057675350	-1.032710E+02	  0.057675350	2.547200E+01	  0.057675350	-3.281800E+01
190	  0.057875752	-6.064000E+00	  0.057875752	-1.045820E+02	  0.057875752	2.511800E+01	  0.057875752	-3.213900E+01
191	  0.058076151	-6.068000E+00	  0.058076151	-1.058990E+02	  0.058076151	2.476600E+01	  0.058076151	-3.146800E+01
192	  0.058276553	-6.073000E+00	  0.058276553	-1.071920E+02	  0.058276553	2.443700E+01	  0.058276553	-3.081200E+01
193	  0.058476955	-6.075000E+00	  0.058476955	-1.085020E+02	  0.058476955	2.410500E+01	  0.058476955	-3.016000E+01
194	  0.058677353	-6.080000E+00	  0.058677353	-1.098380E+02	  0.058677353	2.378600E+01	  0.058677353	-2.949600E+01
195	  0.058877755	-6.079000E+00	  0.058877755	-1.111140E+02	  0.058877755	2.347600E+01	  0.058877755	-2.887500E+01
196	  0.059078157	-6.084000E+00	  0.059078157	-1.123610E+02	  0.059078157	2.320200E+01	  0.059078157	-2.826400E+01
197	  0.059278559	-6.085000E+00	  0.059278559	-1.136420E+02	  0.059278559	2.291700E+01	  0.059278559	-2.764800E+01
198	  0.059478957	-6.089000E+00	  0.059478957	-1.148850E+02	  0.059478957	2.266000E+01	  0.059478957	-2.705000E+01
199	  0.059679359	-6.095000E+00	  0.059679359	-1.160950E+02	  0.059679359	2.242500E+01	  0.059679359	-2.646900E+01
200	  0.059879761	-6.102000E+00	  0.059879761	-1.173670E+02	  0.059879761	2.218700E+01	  0.059879761	-2.586300E+01
201	  0.060080159	-6.109000E+00	  0.060080159	-1.185930E+02	  0.060080159	2.196500E+01	  0.060080159	-2.528400E+01
202	  0.060280561	-6.119000E+00	  0.060280561	-1.198470E+02	  0.060280561	2.175600E+01	  0.060280561	-2.469200E+01
203	  0.060480963	-6.124000E+00	  0.060480963	-1.211050E+02	  0.060480963	2.154200E+01	  0.060480963	-2.410900E+01
204	  0.060681365	-6.134000E+00	  0.060681365	-1.223830E+02	  0.060681365	2.134200E+01	  0.060681365	-2.351600E+01
205	  0.060881764	-6.140000E+00	  0.060881764	-1.236290E+02	  0.060881764	2.114600E+01	  0.060881764	-2.294600E+01
206	  0.061082166	-6.144000E+00	  0.061082166	-1.248900E+02	  0.061082166	2.094800E+01	  0.061082166	-2.237600E+01
207	  0.061282568	-6.149000E+00	  0.061282568	-1.261420E+02	  0.061282568	2.076200E+01	  0.061282568	-2.181200E+01
208	  0.061482966	-6.150000E+00	  0.061482966	-1.273830E+02	  0.061482966	2.057200E+01	  0.061482966	-2.126200E+01
209	  0.061683368	-6.150000E+00	  0.061683368	-1.286300E+02	  0.061683368	2.038600E+01	  0.061683368	-2.071300E+01
210	  0.061883770	-6.147000E+00	  0.061883770	-1.298450E+02	  0.061883770	2.020100E+01	  0.061883770	-2.018500E+01
211	  0.062084168	-6.148000E+00	  0.062084168	-1.310570E+02	  0.062084168	2.003400E+01	  0.062084168	-1.965600E+01
212	  0.062284570	-6.150000E+00	  0.062284570	-1.322400E+02	  0.062284570	1.987800E+01	  0.062284570	-1.914400E+01
213	  0.062484972	-6.148000E+00	  0.062484972	-1.333760E+02	  0.062484972	1.972500E+01	  0.062484972	-1.865600E+01
214	  0.062685370	-6.146000E+00	  0.062685370	-1.345440E+02	  0.062685370	1.957200E+01	  0.062685370	-1.815800E+01
215	  0.062885776	-6.149000E+00	  0.062885776	-1.357000E+02	  0.062885776	1.944100E+01	  0.062885776	-1.766300E+01
216	  0.063086174	-6.154000E+00	  0.063086174	-1.368630E+02	  0.063086174	1.931600E+01	  0.063086174	-1.716700E+01
217	  0.063286573	-6.157000E+00	  0.063286573	-1.380500E+02	  0.063286573	1.918900E+01	  0.063286573	-1.666400E+01
218	  0.063486971	-6.158000E+00	  0.063486971	-1.391780E+02	  0.063486971	1.906900E+01	  0.063486971	-1.619000E+01
219	  0.063687377	-6.155000E+00	  0.063687377	-1.403400E+02	  0.063687377	1.893800E+01	  0.063687377	-1.570600E+01
220	  0.063887775	-6.152000E+00	  0.063887775	-1.414330E+02	  0.063887775	1.881800E+01	  0.063887775	-1.525400E+01
221	  0.064088173	-6.157000E+00	  0.064088173	-1.426000E+02	  0.064088173	1.871500E+01	  0.064088173	-1.476800E+01
222	  0.064288579	-6.153000E+00	  0.064288579	-1.436710E+02	  0.064288579	1.860500E+01	  0.064288579	-1.432800E+01
223	  0.064488977	-6.153000E+00	  0.064488977	-1.447860E+02	  0.064488977	1.850400E+01	  0.064488977	-1.386900E+01
224	  0.064689375	-6.155000E+00	  0.064689375	-1.458240E+02	  0.064689375	1.841600E+01	  0.064689375	-1.344400E+01
225	  0.064889781	-6.160000E+00	  0.064889781	-1.468990E+02	  0.064889781	1.833800E+01	  0.064889781	-1.300200E+01
226	  0.065090179	-6.163000E+00	  0.065090179	-1.479780E+02	  0.065090179	1.825900E+01	  0.065090179	-1.256200E+01
227	  0.065290578	-6.167000E+00	  0.065290578	-1.490300E+02	  0.065290578	1.818800E+01	  0.065290578	-1.213400E+01
228	  0.065490983	-6.174000E+00	  0.065490983	-1.501010E+02	  0.065490983	1.812500E+01	  0.065490983	-1.169800E+01
229	  0.065691382	-6.183000E+00	  0.065691382	-1.511710E+02	  0.065691382	1.807100E+01	  0.065691382	-1.126400E+01
230	  0.065891780	-6.191000E+00	  0.065891780	-1.522140E+02	  0.065891780	1.801900E+01	  0.065891780	-1.084200E+01
231	  0.066092186	-6.195000E+00	  0.066092186	-1.532710E+02	  0.066092186	1.795900E+01	  0.066092186	-1.041800E+01
232	  0.066292584	-6.205000E+00	  0.066292584	-1.543270E+02	  0.066292584	1.791900E+01	  0.066292584	-9.993000E+00
233	  0.066492982	-6.210000E+00	  0.066492982	-1.554110E+02	  0.066492982	1.786500E+01	  0.066492982	-9.560000E+00
234	  0.066693388	-6.214000E+00	  0.066693388	-1.564760E+02	  0.066693388	1.781400E+01	  0.066693388	-9.137000E+00
235	  0.066893786	-6.222000E+00	  0.066893786	-1.575420E+02	  0.066893786	1.777400E+01	  0.066893786	-8.713000E+00
236	  0.067094192	-6.231000E+00	  0.067094192	-1.586290E+02	  0.067094192	1.774200E+01	  0.067094192	-8.282000E+00
237	  0.067294590	-6.238000E+00	  0.067294590	-1.596590E+02	  0.067294590	1.770800E+01	  0.067294590	-7.875000E+00
238	  0.067494988	-6.243000E+00	  0.067494988	-1.607310E+02	  0.067494988	1.767000E+01	  0.067494988	-7.453000E+00
239	  0.067695394	-6.245000E+00	  0.067695394	-1.618050E+02	  0.067695394	1.762800E+01	  0.067695394	-7.033000E+00
240	  0.067895792	-6.249000E+00	  0.067895792	-1.628430E+02	  0.067895792	1.759400E+01	  0.067895792	-6.626000E+00
241	  0.068096191	-6.258000E+00	  0.068096191	-1.638860E+02	  0.068096191	1.757500E+01	  0.068096191	-6.218000E+00
242	  0.068296596	-6.263000E+00	  0.068296596	-1.649680E+02	  0.068296596	1.754900E+01	  0.068296596	-5.796000E+00
243	  0.068496995	-6.259000E+00	  0.068496995	-1.660290E+02	  0.068496995	1.750200E+01	  0.068496995	-5.385000E+00
244	  0.068697393	-6.264000E+00	  0.068697393	-1.670510E+02	  0.068697393	1.748300E+01	  0.068697393	-4.987000E+00
245	  0.068897791	-6.263000E+00	  0.068897791	-1.681030E+02	  0.068897791	1.745000E+01	  0.068897791	-4.580000E+00
246	  0.069098189	-6.258000E+00	  0.069098189	-1.691730E+02	  0.069098189	1.740700E+01	  0.069098189	-4.168000E+00
247	  0.069298595	-6.257000E+00	  0.069298595	-1.702170E+02	  0.069298595	1.738100E+01	  0.069298595	-3.765000E+00
248	  0.069498993	-6.260000E+00	  0.069498993	-1.712200E+02	  0.069498993	1.736800E+01	  0.069498993	-3.377000E+00
249	  0.069699399	-6.260000E+00	  0.069699399	-1.721890E+02	  0.069699399	1.734800E+01	  0.069699399	-3.004000E+00
250	  0.069899797	-6.258000E+00	  0.069899797	-1.731570E+02	  0.069899797	1.732700E+01	  0.069899797	-2.631000E+00
251	  0.070100196	-6.257000E+00	  0.070100196	-1.741530E+02	  0.070100196	1.731000E+01	  0.070100196	-2.247000E+00
252	  0.070300601	-6.256000E+00	  0.070300601	-1.751170E+02	  0.070300601	1.729300E+01	  0.070300601	-1.877000E+00
253	  0.070501000	-6.260000E+00	  0.070501000	-1.760420E+02	  0.070501000	1.729600E+01	  0.070501000	-1.520000E+00
254	  0.070701398	-6.263000E+00	  0.070701398	-1.770320E+02	  0.070701398	1.729500E+01	  0.070701398	-1.140000E+00
255	  0.070901804	-6.262000E+00	  0.070901804	-1.779770E+02	  0.070901804	1.728600E+01	  0.070901804	-7.770000E-01
256	  0.071102202	-6.270000E+00	  0.071102202	-1.788560E+02	  0.071102202	1.730400E+01	  0.071102202	-4.390000E-01
257	  0.071302600	-6.275000E+00	  0.071302600	-1.798150E+02	  0.071302600	1.731600E+01	  0.071302600	-7.000000E-02
258	  0.071503006	-6.282000E+00	  0.071503006	1.792620E+02	  0.071503006	1.733300E+01	  0.071503006	2.830000E-01
259	  0.071703404	-6.288000E+00	  0.071703404	1.783320E+02	  0.071703404	1.735200E+01	  0.071703404	6.400000E-01
260	  0.071903802	-6.297000E+00	  0.071903802	1.774010E+02	  0.071903802	1.738000E+01	  0.071903802	9.970000E-01
261	  0.072104208	-6.309000E+00	  0.072104208	1.764700E+02	  0.072104208	1.741700E+01	  0.072104208	1.353000E+00
262	  0.072304606	-6.319000E+00	  0.072304606	1.755270E+02	  0.072304606	1.745000E+01	  0.072304606	1.714000E+00
263	  0.072505005	-6.330000E+00	  0.072505005	1.746090E+02	  0.072505005	1.748900E+01	  0.072505005	2.066000E+00
264	  0.072705410	-6.344000E+00	  0.072705410	1.736730E+02	  0.072705410	1.753700E+01	  0.072705410	2.424000E+00
265	  0.072905809	-6.349000E+00	  0.072905809	1.727050E+02	  0.072905809	1.756500E+01	  0.072905809	2.795000E+00
266	  0.073106214	-6.365000E+00	  0.073106214	1.717040E+02	  0.073106214	1.762300E+01	  0.073106214	3.177000E+00
267	  0.073306613	-6.381000E+00	  0.073306613	1.707730E+02	  0.073306613	1.768200E+01	  0.073306613	3.532000E+00
268	  0.073507011	-6.386000E+00	  0.073507011	1.697870E+02	  0.073507011	1.772000E+01	  0.073507011	3.910000E+00
269	  0.073707417	-6.393000E+00	  0.073707417	1.688380E+02	  0.073707417	1.776000E+01	  0.073707417	4.274000E+00
270	  0.073907815	-6.397000E+00	  0.073907815	1.678780E+02	  0.073907815	1.779700E+01	  0.073907815	4.642000E+00
271	  0.074108213	-6.403000E+00	  0.074108213	1.669610E+02	  0.074108213	1.784000E+01	  0.074108213	4.994000E+00
272	  0.074308619	-6.410000E+00	  0.074308619	1.659810E+02	  0.074308619	1.789000E+01	  0.074308619	5.370000E+00
273	  0.074509017	-6.419000E+00	  0.074509017	1.650410E+02	  0.074509017	1.794600E+01	  0.074509017	5.731000E+00
274	  0.074709415	-6.429000E+00	  0.074709415	1.640770E+02	  0.074709415	1.800700E+01	  0.074709415	6.100000E+00
275	  0.074909821	-6.435000E+00	  0.074909821	1.631350E+02	  0.074909821	1.805900E+01	  0.074909821	6.463000E+00
276	  0.075110219	-6.442000E+00	  0.075110219	1.622400E+02	  0.075110219	1.811300E+01	  0.075110219	6.807000E+00
277	  0.075310618	-6.441000E+00	  0.075310618	1.613180E+02	  0.075310618	1.815100E+01	  0.075310618	7.165000E+00
278	  0.075511023	-6.446000E+00	  0.075511023	1.604160E+02	  0.075511023	1.820700E+01	  0.075511023	7.513000E+00
279	  0.075711422	-6.460000E+00	  0.075711422	1.595380E+02	  0.075711422	1.828500E+01	  0.075711422	7.850000E+00
280	  0.075911827	-6.460000E+00	  0.075911827	1.586610E+02	  0.075911827	1.833100E+01	  0.075911827	8.191000E+00
281	  0.076112226	-6.468000E+00	  0.076112226	1.577880E+02	  0.076112226	1.839900E+01	  0.076112226	8.528000E+00
282	  0.076312624	-6.474000E+00	  0.076312624	1.569330E+02	  0.076312624	1.846100E+01	  0.076312624	8.860000E+00
283	  0.076513030	-6.479000E+00	  0.076513030	1.561010E+02	  0.076513030	1.852400E+01	  0.076513030	9.183000E+00
284	  0.076713428	-6.485000E+00	  0.076713428	1.552940E+02	  0.076713428	1.858800E+01	  0.076713428	9.496000E+00
285	  0.076913826	-6.496000E+00	  0.076913826	1.544150E+02	  0.076913826	1.867200E+01	  0.076913826	9.837000E+00
286	  0.077114232	-6.513000E+00	  0.077114232	1.536190E+02	  0.077114232	1.876600E+01	  0.077114232	1.014200E+01
287	  0.077314630	-6.519000E+00	  0.077314630	1.527880E+02	  0.077314630	1.883900E+01	  0.077314630	1.046600E+01
288	  0.077515028	-6.535000E+00	  0.077515028	1.519490E+02	  0.077515028	1.893900E+01	  0.077515028	1.078900E+01
289	  0.077715434	-6.556000E+00	  0.077715434	1.511310E+02	  0.077715434	1.905400E+01	  0.077715434	1.110100E+01
290	  0.077915832	-6.576000E+00	  0.077915832	1.503150E+02	  0.077915832	1.916600E+01	  0.077915832	1.141400E+01
291	  0.078116231	-6.589000E+00	  0.078116231	1.494920E+02	  0.078116231	1.926300E+01	  0.078116231	1.173300E+01
292	  0.078316636	-6.610000E+00	  0.078316636	1.486400E+02	  0.078316636	1.938700E+01	  0.078316636	1.205800E+01
293	  0.078517035	-6.631000E+00	  0.078517035	1.477440E+02	  0.078517035	1.951600E+01	  0.078517035	1.240200E+01
294	  0.078717433	-6.645000E+00	  0.078717433	1.468920E+02	  0.078717433	1.962700E+01	  0.078717433	1.273200E+01
295	  0.078917839	-6.664000E+00	  0.078917839	1.460240E+02	  0.078917839	1.975300E+01	  0.078917839	1.306600E+01
296	  0.079118237	-6.678000E+00	  0.079118237	1.451730E+02	  0.079118237	1.986800E+01	  0.079118237	1.339700E+01
297	  0.079318643	-6.694000E+00	  0.079318643	1.443300E+02	  0.079318643	1.999000E+01	  0.079318643	1.372300E+01
298	  0.079519041	-6.709000E+00	  0.079519041	1.434550E+02	  0.079519041	2.011500E+01	  0.079519041	1.406400E+01
299	  0.079719439	-6.730000E+00	  0.079719439	1.425660E+02	  0.079719439	2.025900E+01	  0.079719439	1.440600E+01
300	  0.079919845	-6.744000E+00	  0.079919845	1.417310E+02	  0.079919845	2.038300E+01	  0.079919845	1.473100E+01
301	  0.080120243	-6.765000E+00	  0.080120243	1.408510E+02	  0.080120243	2.053200E+01	  0.080120243	1.507000E+01
302	  0.080320641	-6.777000E+00	  0.080320641	1.400160E+02	  0.080320641	2.065500E+01	  0.080320641	1.539800E+01
303	  0.080521047	-6.792000E+00	  0.080521047	1.391620E+02	  0.080521047	2.079100E+01	  0.080521047	1.573200E+01
304	  0.080721445	-6.807000E+00	  0.080721445	1.383430E+02	  0.080721445	2.092700E+01	  0.080721445	1.605100E+01
305	  0.080921844	-6.821000E+00	  0.080921844	1.375190E+02	  0.080921844	2.106000E+01	  0.080921844	1.637500E+01
306	  0.081122249	-6.832000E+00	  0.081122249	1.367040E+02	  0.081122249	2.119100E+01	  0.081122249	1.669700E+01
307	  0.081322648	-6.843000E+00	  0.081322648	1.358630E+02	  0.081322648	2.132400E+01	  0.081322648	1.703000E+01
308	  0.081523046	-6.853000E+00	  0.081523046	1.350850E+02	  0.081523046	2.145100E+01	  0.081523046	1.733900E+01
309	  0.081723452	-6.867000E+00	  0.081723452	1.343100E+02	  0.081723452	2.159100E+01	  0.081723452	1.764400E+01
310	  0.081923850	-6.880000E+00	  0.081923850	1.335410E+02	  0.081923850	2.172900E+01	  0.081923850	1.794800E+01
311	  0.082124248	-6.892000E+00	  0.082124248	1.328080E+02	  0.082124248	2.186300E+01	  0.082124248	1.823800E+01
312	  0.082324654	-6.901000E+00	  0.082324654	1.320440E+02	  0.082324654	2.199500E+01	  0.082324654	1.854300E+01
313	  0.082525052	-6.922000E+00	  0.082525052	1.313390E+02	  0.082525052	2.215400E+01	  0.082525052	1.881400E+01
314	  0.082725458	-6.940000E+00	  0.082725458	1.306460E+02	  0.082725458	2.230300E+01	  0.082725458	1.908300E+01
315	  0.082925856	-6.956000E+00	  0.082925856	1.299430E+02	  0.082925856	2.245300E+01	  0.082925856	1.935800E+01
316	  0.083126254	-6.977000E+00	  0.083126254	1.292780E+02	  0.083126254	2.261400E+01	  0.083126254	1.961100E+01
317	  0.083326660	-7.004000E+00	  0.083326660	1.285710E+02	  0.083326660	2.279800E+01	  0.083326660	1.987700E+01
318	  0.083527058	-7.029000E+00	  0.083527058	1.278220E+02	  0.083527058	2.298700E+01	  0.083527058	2.016100E+01
319	  0.083727457	-7.058000E+00	  0.083727457	1.270600E+02	  0.083727457	2.319000E+01	  0.083727457	2.044600E+01
320	  0.083927862	-7.080000E+00	  0.083927862	1.263920E+02	  0.083927862	2.336100E+01	  0.083927862	2.070000E+01
321	  0.084128261	-7.099000E+00	  0.084128261	1.256210E+02	  0.084128261	2.354600E+01	  0.084128261	2.099900E+01
322	  0.084328659	-7.126000E+00	  0.084328659	1.249250E+02	  0.084328659	2.374200E+01	  0.084328659	2.125800E+01
323	  0.084529065	-7.158000E+00	  0.084529065	1.242020E+02	  0.084529065	2.395800E+01	  0.084529065	2.152200E+01
324	  0.084729463	-7.185000E+00	  0.084729463	1.234590E+02	  0.084729463	2.416600E+01	  0.084729463	2.180000E+01
325	  0.084929861	-7.212000E+00	  0.084929861	1.227060E+02	  0.084929861	2.438300E+01	  0.084929861	2.208000E+01
326	  0.085130267	-7.240000E+00	  0.085130267	1.219900E+02	  0.085130267	2.459400E+01	  0.085130267	2.234500E+01
327	  0.085330658	-7.268000E+00	  0.085330658	1.212050E+02	  0.085330658	2.482500E+01	  0.085330658	2.263600E+01
328	  0.085531056	-7.297000E+00	  0.085531056	1.204750E+02	  0.085531056	2.505000E+01	  0.085531056	2.290400E+01
329	  0.085731462	-7.323000E+00	  0.085731462	1.197170E+02	  0.085731462	2.527600E+01	  0.085731462	2.318700E+01
330	  0.085931860	-7.356000E+00	  0.085931860	1.189460E+02	  0.085931860	2.552400E+01	  0.085931860	2.346500E+01
331	  0.086132258	-7.377000E+00	  0.086132258	1.181780E+02	  0.086132258	2.574600E+01	  0.086132258	2.375700E+01
332	  0.086332664	-7.401000E+00	  0.086332664	1.174300E+02	  0.086332664	2.597200E+01	  0.086332664	2.403700E+01
333	  0.086533062	-7.422000E+00	  0.086533062	1.166800E+02	  0.086533062	2.619500E+01	  0.086533062	2.432200E+01
334	  0.086733460	-7.437000E+00	  0.086733460	1.159150E+02	  0.086733460	2.641000E+01	  0.086733460	2.462000E+01
335	  0.086933866	-7.459000E+00	  0.086933866	1.152200E+02	  0.086933866	2.662900E+01	  0.086933866	2.488000E+01
336	  0.087134264	-7.476000E+00	  0.087134264	1.145060E+02	  0.087134264	2.684500E+01	  0.087134264	2.515300E+01
337	  0.087334670	-7.490000E+00	  0.087334670	1.138260E+02	  0.087334670	2.704300E+01	  0.087334670	2.541800E+01
338	  0.087535068	-7.501000E+00	  0.087535068	1.131560E+02	  0.087535068	2.723900E+01	  0.087535068	2.568200E+01
339	  0.087735467	-7.523000E+00	  0.087735467	1.125610E+02	  0.087735467	2.744400E+01	  0.087735467	2.589900E+01
340	  0.087935872	-7.541000E+00	  0.087935872	1.119120E+02	  0.087935872	2.765800E+01	  0.087935872	2.614200E+01
341	  0.088136271	-7.564000E+00	  0.088136271	1.113330E+02	  0.088136271	2.786900E+01	  0.088136271	2.634800E+01
342	  0.088336669	-7.582000E+00	  0.088336669	1.107360E+02	  0.088336669	2.807400E+01	  0.088336669	2.656800E+01
343	  0.088537075	-7.611000E+00	  0.088537075	1.101170E+02	  0.088537075	2.831700E+01	  0.088537075	2.678000E+01
344	  0.088737473	-7.631000E+00	  0.088737473	1.095180E+02	  0.088737473	2.853100E+01	  0.088737473	2.699800E+01
345	  0.088937871	-7.658000E+00	  0.088937871	1.089360E+02	  0.088937871	2.876400E+01	  0.088937871	2.719400E+01
346	  0.089138277	-7.683000E+00	  0.089138277	1.083360E+02	  0.089138277	2.900000E+01	  0.089138277	2.740100E+01
347	  0.089338675	-7.716000E+00	  0.089338675	1.077490E+02	  0.089338675	2.925400E+01	  0.089338675	2.758800E+01
348	  0.089539073	-7.744000E+00	  0.089539073	1.071640E+02	  0.089539073	2.949900E+01	  0.089539073	2.778000E+01
349	  0.089739479	-7.773000E+00	  0.089739479	1.065540E+02	  0.089739479	2.975500E+01	  0.089739479	2.798000E+01
350	  0.089939877	-7.812000E+00	  0.089939877	1.059860E+02	  0.089939877	3.002800E+01	  0.089939877	2.814200E+01
351	  0.090140276	-7.839000E+00	  0.090140276	1.053650E+02	  0.090140276	3.028700E+01	  0.090140276	2.834800E+01
352	  0.090340681	-7.864000E+00	  0.090340681	1.047590E+02	  0.090340681	3.053800E+01	  0.090340681	2.855100E+01
353	  0.090541080	-7.905000E+00	  0.090541080	1.041600E+02	  0.090541080	3.083500E+01	  0.090541080	2.871600E+01
354	  0.090741485	-7.932000E+00	  0.090741485	1.035380E+02	  0.090741485	3.110100E+01	  0.090741485	2.892000E+01
355	  0.090941884	-7.968000E+00	  0.090941884	1.029200E+02	  0.090941884	3.139500E+01	  0.090941884	2.909900E+01
356	  0.091142282	-8.002000E+00	  0.091142282	1.022950E+02	  0.091142282	3.168800E+01	  0.091142282	2.928300E+01
357	  0.091342688	-8.026000E+00	  0.091342688	1.016260E+02	  0.091342688	3.197100E+01	  0.091342688	2.950700E+01
358	  0.091543086	-8.053000E+00	  0.091543086	1.009850E+02	  0.091543086	3.225800E+01	  0.091543086	2.971000E+01
359	  0.091743484	-8.079000E+00	  0.091743484	1.003120E+02	  0.091743484	3.255600E+01	  0.091743484	2.992500E+01
360	  0.091943890	-8.103000E+00	  0.091943890	9.965900E+01	  0.091943890	3.284300E+01	  0.091943890	3.013800E+01
361	  0.092144288	-8.122000E+00	  0.092144288	9.907900E+01	  0.092144288	3.309600E+01	  0.092144288	3.033000E+01
362	  0.092344686	-8.136000E+00	  0.092344686	9.846100E+01	  0.092344686	3.335100E+01	  0.092344686	3.054800E+01
363	  0.092545092	-8.145000E+00	  0.092545092	9.785500E+01	  0.092545092	3.359300E+01	  0.092545092	3.077200E+01
364	  0.092745490	-8.163000E+00	  0.092745490	9.730700E+01	  0.092745490	3.383800E+01	  0.092745490	3.095100E+01
365	  0.092945889	-8.169000E+00	  0.092945889	9.672200E+01	  0.092945889	3.407000E+01	  0.092945889	3.117200E+01
366	  0.093146294	-8.186000E+00	  0.093146294	9.624900E+01	  0.093146294	3.429300E+01	  0.093146294	3.132000E+01
367	  0.093346693	-8.198000E+00	  0.093346693	9.576400E+01	  0.093346693	3.450700E+01	  0.093346693	3.148500E+01
368	  0.093547091	-8.220000E+00	  0.093547091	9.528600E+01	  0.093547091	3.474700E+01	  0.093547091	3.162200E+01
369	  0.093747497	-8.236000E+00	  0.093747497	9.488000E+01	  0.093747497	3.494600E+01	  0.093747497	3.174400E+01
370	  0.093947895	-8.250000E+00	  0.093947895	9.438700E+01	  0.093947895	3.517500E+01	  0.093947895	3.190400E+01
371	  0.094148301	-8.270000E+00	  0.094148301	9.395100E+01	  0.094148301	3.539800E+01	  0.094148301	3.202600E+01
372	  0.094348699	-8.290000E+00	  0.094348699	9.352400E+01	  0.094348699	3.562100E+01	  0.094348699	3.214200E+01
373	  0.094549097	-8.312000E+00	  0.094549097	9.310900E+01	  0.094549097	3.584400E+01	  0.094549097	3.224800E+01
374	  0.094749503	-8.335000E+00	  0.094749503	9.272200E+01	  0.094749503	3.606300E+01	  0.094749503	3.233700E+01
375	  0.094949901	-8.356000E+00	  0.094949901	9.231000E+01	  0.094949901	3.628500E+01	  0.094949901	3.244100E+01
376	  0.095150299	-8.381000E+00	  0.095150299	9.189700E+01	  0.095150299	3.651900E+01	  0.095150299	3.253500E+01
377	  0.095350705	-8.404000E+00	  0.095350705	9.146800E+01	  0.095350705	3.675600E+01	  0.095350705	3.263900E+01
378	  0.095551103	-8.431000E+00	  0.095551103	9.103800E+01	  0.095551103	3.700700E+01	  0.095551103	3.272800E+01
379	  0.095751502	-8.460000E+00	  0.095751502	9.064300E+01	  0.095751502	3.724800E+01	  0.095751502	3.279800E+01
380	  0.095951907	-8.493000E+00	  0.095951907	9.021700E+01	  0.095951907	3.751200E+01	  0.095951907	3.286800E+01
381	  0.096152306	-8.528000E+00	  0.096152306	8.979400E+01	  0.096152306	3.778300E+01	  0.096152306	3.292700E+01
382	  0.096352704	-8.555000E+00	  0.096352704	8.932600E+01	  0.096352704	3.805300E+01	  0.096352704	3.302600E+01
383	  0.096553110	-8.574000E+00	  0.096553110	8.887900E+01	  0.096553110	3.829900E+01	  0.096553110	3.313600E+01
384	  0.096753508	-8.605000E+00	  0.096753508	8.831900E+01	  0.096753508	3.862400E+01	  0.096753508	3.325200E+01
385	  0.096953906	-8.632000E+00	  0.096953906	8.782700E+01	  0.096953906	3.890900E+01	  0.096953906	3.335400E+01
386	  0.097154312	-8.653000E+00	  0.097154312	8.734000E+01	  0.097154312	3.918300E+01	  0.097154312	3.346700E+01
387	  0.097354710	-8.666000E+00	  0.097354710	8.681800E+01	  0.097354710	3.945300E+01	  0.097354710	3.361900E+01
388	  0.097555116	-8.688000E+00	  0.097555116	8.629900E+01	  0.097555116	3.974700E+01	  0.097555116	3.373900E+01
389	  0.097755514	-8.693000E+00	  0.097755514	8.577000E+01	  0.097755514	4.000900E+01	  0.097755514	3.391100E+01
390	  0.097955912	-8.707000E+00	  0.097955912	8.531100E+01	  0.097955912	4.025900E+01	  0.097955912	3.403300E+01
391	  0.098156318	-8.710000E+00	  0.098156318	8.480200E+01	  0.098156318	4.051300E+01	  0.098156318	3.420200E+01
392	  0.098356716	-8.714000E+00	  0.098356716	8.434600E+01	  0.098356716	4.074200E+01	  0.098356716	3.435300E+01
393	  0.098557115	-8.720000E+00	  0.098557115	8.392900E+01	  0.098557115	4.096100E+01	  0.098557115	3.447900E+01
394	  0.098757520	-8.723000E+00	  0.098757520	8.346500E+01	  0.098757520	4.119900E+01	  0.098757520	3.463000E+01
395	  0.098957919	-8.724000E+00	  0.098957919	8.308900E+01	  0.098957919	4.139000E+01	  0.098957919	3.475800E+01
396	  0.099158317	-8.725000E+00	  0.099158317	8.258500E+01	  0.099158317	4.164500E+01	  0.099158317	3.493100E+01
397	  0.099358723	-8.730000E+00	  0.099358723	8.220200E+01	  0.099358723	4.185300E+01	  0.099358723	3.504600E+01
398	  0.099559121	-8.727000E+00	  0.099559121	8.177600E+01	  0.099559121	4.206500E+01	  0.099559121	3.520200E+01
399	  0.099759519	-8.739000E+00	  0.099759519	8.138400E+01	  0.099759519	4.229400E+01	  0.099759519	3.529800E+01
400	  0.099959925	-8.745000E+00	  0.099959925	8.096100E+01	  0.099959925	4.253100E+01	  0.099959925	3.541900E+01
401	  0.100160323	-8.743000E+00	  0.100160323	8.055200E+01	  0.100160323	4.274200E+01	  0.100160323	3.556500E+01
402	  0.100360721	-8.754000E+00	  0.100360721	8.018600E+01	  0.100360721	4.296100E+01	  0.100360721	3.565100E+01
403	  0.100561127	-8.754000E+00	  0.100561127	7.986200E+01	  0.100561127	4.313500E+01	  0.100561127	3.575900E+01
404	  0.100761525	-8.765000E+00	  0.100761525	7.936400E+01	  0.100761525	4.342800E+01	  0.100761525	3.588600E+01
405	  0.100961931	-8.760000E+00	  0.100961931	7.894400E+01	  0.100961931	4.364800E+01	  0.100961931	3.604200E+01
406	  0.101162329	-8.775000E+00	  0.101162329	7.859100E+01	  0.101162329	4.387400E+01	  0.101162329	3.610500E+01
407	  0.101362728	-8.783000E+00	  0.101362728	7.820000E+01	  0.101362728	4.410900E+01	  0.101362728	3.620100E+01
408	  0.101563133	-8.780000E+00	  0.101563133	7.770200E+01	  0.101563133	4.438200E+01	  0.101563133	3.637500E+01
409	  0.101763532	-8.793000E+00	  0.101763532	7.723300E+01	  0.101763532	4.467400E+01	  0.101763532	3.647900E+01
410	  0.101963930	-8.786000E+00	  0.101963930	7.680200E+01	  0.101963930	4.490700E+01	  0.101963930	3.664100E+01
411	  0.102164336	-8.781000E+00	  0.102164336	7.628400E+01	  0.102164336	4.519600E+01	  0.102164336	3.682400E+01
412	  0.102364734	-8.778000E+00	  0.102364734	7.587800E+01	  0.102364734	4.542600E+01	  0.102364734	3.696500E+01
413	  0.102565132	-8.772000E+00	  0.102565132	7.532900E+01	  0.102565132	4.573700E+01	  0.102565132	3.716000E+01
414	  0.102765530	-8.773000E+00	  0.102765530	7.481100E+01	  0.102765530	4.604900E+01	  0.102765530	3.731600E+01
415	  0.102965929	-8.754000E+00	  0.102965929	7.430000E+01	  0.102965929	4.631800E+01	  0.102965929	3.755100E+01
416	  0.103166327	-8.736000E+00	  0.103166327	7.387100E+01	  0.103166327	4.654200E+01	  0.103166327	3.775800E+01
417	  0.103366733	-8.710000E+00	  0.103366733	7.339900E+01	  0.103366733	4.678200E+01	  0.103366733	3.800700E+01
418	  0.103567131	-8.698000E+00	  0.103567131	7.296100E+01	  0.103567131	4.703100E+01	  0.103567131	3.818700E+01
419	  0.103767529	-8.684000E+00	  0.103767529	7.244000E+01	  0.103767529	4.733000E+01	  0.103767529	3.840700E+01
420	  0.103967935	-8.663000E+00	  0.103967935	7.202600E+01	  0.103967935	4.755400E+01	  0.103967935	3.861800E+01
421	  0.104168333	-8.637000E+00	  0.104168333	7.152200E+01	  0.104168333	4.782700E+01	  0.104168333	3.888200E+01
422	  0.104368731	-8.624000E+00	  0.104368731	7.108400E+01	  0.104368731	4.808700E+01	  0.104368731	3.907000E+01
423	  0.104569137	-8.603000E+00	  0.104569137	7.057200E+01	  0.104569137	4.838200E+01	  0.104569137	3.931600E+01
424	  0.104769535	-8.599000E+00	  0.104769535	7.015600E+01	  0.104769535	4.865200E+01	  0.104769535	3.945500E+01
425	  0.104969934	-8.586000E+00	  0.104969934	6.969700E+01	  0.104969934	4.893600E+01	  0.104969934	3.964800E+01
426	  0.105170339	-8.570000E+00	  0.105170339	6.918900E+01	  0.105170339	4.925200E+01	  0.105170339	3.986700E+01
427	  0.105370738	-8.564000E+00	  0.105370738	6.865900E+01	  0.105370738	4.960600E+01	  0.105370738	4.004700E+01
428	  0.105571143	-8.555000E+00	  0.105571143	6.819700E+01	  0.105571143	4.991100E+01	  0.105571143	4.022200E+01
429	  0.105771542	-8.557000E+00	  0.105771542	6.762200E+01	  0.105771542	5.032100E+01	  0.105771542	4.037100E+01
430	  0.105971940	-8.544000E+00	  0.105971940	6.709000E+01	  0.105971940	5.067700E+01	  0.105971940	4.058000E+01
431	  0.106172346	-8.545000E+00	  0.106172346	6.656800E+01	  0.106172346	5.105500E+01	  0.106172346	4.072000E+01
432	  0.106372744	-8.548000E+00	  0.106372744	6.604800E+01	  0.106372744	5.144000E+01	  0.106372744	4.084500E+01
433	  0.106573142	-8.542000E+00	  0.106573142	6.549000E+01	  0.106573142	5.184000E+01	  0.106573142	4.102200E+01
434	  0.106773548	-8.542000E+00	  0.106773548	6.485700E+01	  0.106773548	5.231400E+01	  0.106773548	4.118400E+01
435	  0.106973946	-8.536000E+00	  0.106973946	6.416800E+01	  0.106973946	5.282600E+01	  0.106973946	4.138700E+01
436	  0.107174344	-8.530000E+00	  0.107174344	6.358000E+01	  0.107174344	5.326800E+01	  0.107174344	4.156300E+01
437	  0.107374750	-8.530000E+00	  0.107374750	6.296900E+01	  0.107374750	5.374300E+01	  0.107374750	4.170800E+01
438	  0.107575148	-8.527000E+00	  0.107575148	6.228500E+01	  0.107575148	5.427700E+01	  0.107575148	4.188500E+01
439	  0.107775547	-8.513000E+00	  0.107775547	6.163300E+01	  0.107775547	5.477700E+01	  0.107775547	4.210300E+01
440	  0.107975952	-8.507000E+00	  0.107975952	6.099600E+01	  0.107975952	5.528500E+01	  0.107975952	4.227400E+01
441	  0.108176351	-8.490000E+00	  0.108176351	6.022900E+01	  0.108176351	5.589300E+01	  0.108176351	4.252600E+01
442	  0.108376749	-8.480000E+00	  0.108376749	5.958500E+01	  0.108376749	5.641700E+01	  0.108376749	4.271400E+01
443	  0.108577155	-8.454000E+00	  0.108577155	5.892000E+01	  0.108577155	5.694800E+01	  0.108577155	4.298700E+01
444	  0.108777553	-8.444000E+00	  0.108777553	5.829900E+01	  0.108777553	5.746900E+01	  0.108777553	4.316500E+01
445	  0.108977959	-8.418000E+00	  0.108977959	5.760200E+01	  0.108977959	5.804600E+01	  0.108977959	4.344100E+01
446	  0.109178357	-8.398000E+00	  0.109178357	5.689200E+01	  0.109178357	5.865300E+01	  0.109178357	4.368100E+01
447	  0.109378755	-8.375000E+00	  0.109378755	5.626500E+01	  0.109378755	5.919400E+01	  0.109378755	4.391900E+01
448	  0.109579161	-8.362000E+00	  0.109579161	5.564400E+01	  0.109579161	5.974700E+01	  0.109579161	4.409800E+01
449	  0.109779559	-8.348000E+00	  0.109779559	5.499800E+01	  0.109779559	6.033200E+01	  0.109779559	4.427800E+01
450	  0.109979957	-8.336000E+00	  0.109979957	5.437400E+01	  0.109979957	6.090700E+01	  0.109979957	4.443700E+01
451	  0.110180363	-8.324000E+00	  0.110180363	5.372800E+01	  0.110180363	6.151100E+01	  0.110180363	4.459500E+01
452	  0.110380761	-8.311000E+00	  0.110380761	5.305800E+01	  0.110380761	6.214700E+01	  0.110380761	4.476100E+01
453	  0.110581160	-8.303000E+00	  0.110581160	5.243800E+01	  0.110581160	6.274700E+01	  0.110581160	4.487500E+01
454	  0.110781565	-8.307000E+00	  0.110781565	5.178300E+01	  0.110781565	6.339700E+01	  0.110781565	4.491200E+01
455	  0.110981964	-8.291000E+00	  0.110981964	5.108900E+01	  0.110981964	6.408300E+01	  0.110981964	4.507600E+01
456	  0.111182362	-8.300000E+00	  0.111182362	5.039000E+01	  0.111182362	6.479600E+01	  0.111182362	4.505800E+01
457	  0.111382768	-8.303000E+00	  0.111382768	4.968800E+01	  0.111382768	6.551600E+01	  0.111382768	4.507100E+01
458	  0.111583166	-8.305000E+00	  0.111583166	4.891100E+01	  0.111583166	6.632300E+01	  0.111583166	4.508200E+01
459	  0.111783572	-8.315000E+00	  0.111783572	4.813400E+01	  0.111783572	6.713900E+01	  0.111783572	4.502700E+01
460	  0.111983970	-8.313000E+00	  0.111983970	4.737100E+01	  0.111983970	6.794900E+01	  0.111983970	4.503500E+01
461	  0.112184368	-8.320000E+00	  0.112184368	4.661000E+01	  0.112184368	6.876600E+01	  0.112184368	4.496900E+01
462	  0.112384774	-8.331000E+00	  0.112384774	4.578100E+01	  0.112384774	6.966100E+01	  0.112384774	4.484900E+01
463	  0.112585172	-8.324000E+00	  0.112585172	4.495100E+01	  0.112585172	7.057600E+01	  0.112585172	4.483900E+01
464	  0.112785570	-8.333000E+00	  0.112785570	4.402600E+01	  0.112785570	7.159700E+01	  0.112785570	4.468600E+01
465	  0.112985976	-8.335000E+00	  0.112985976	4.319200E+01	  0.112985976	7.253200E+01	  0.112985976	4.457100E+01
466	  0.113186374	-8.339000E+00	  0.113186374	4.227700E+01	  0.113186374	7.356600E+01	  0.113186374	4.440300E+01
467	  0.113386773	-8.336000E+00	  0.113386773	4.142800E+01	  0.113386773	7.454300E+01	  0.113386773	4.427500E+01
468	  0.113587178	-8.340000E+00	  0.113587178	4.053200E+01	  0.113587178	7.557500E+01	  0.113587178	4.406100E+01
469	  0.113787577	-8.336000E+00	  0.113787577	3.960200E+01	  0.113787577	7.666800E+01	  0.113787577	4.387000E+01
470	  0.113987975	-8.331000E+00	  0.113987975	3.881500E+01	  0.113987975	7.760300E+01	  0.113987975	4.369400E+01
471	  0.114188381	-8.339000E+00	  0.114188381	3.794900E+01	  0.114188381	7.861600E+01	  0.114188381	4.337400E+01
472	  0.114388779	-8.339000E+00	  0.114388779	3.704500E+01	  0.114388779	7.969500E+01	  0.114388779	4.307500E+01
473	  0.114589177	-8.333000E+00	  0.114589177	3.626700E+01	  0.114589177	8.064600E+01	  0.114589177	4.284300E+01
474	  0.114789583	-8.346000E+00	  0.114789583	3.539300E+01	  0.114789583	8.166800E+01	  0.114789583	4.239500E+01
475	  0.114989981	-8.353000E+00	  0.114989981	3.458000E+01	  0.114989981	8.262900E+01	  0.114989981	4.198500E+01
476	  0.115190387	-8.361000E+00	  0.115190387	3.378900E+01	  0.115190387	8.356400E+01	  0.115190387	4.155300E+01
477	  0.115390785	-8.390000E+00	  0.115390785	3.295600E+01	  0.115390785	8.447700E+01	  0.115390785	4.090900E+01
478	  0.115591183	-8.408000E+00	  0.115591183	3.203400E+01	  0.115591183	8.552300E+01	  0.115591183	4.027000E+01
479	  0.115791589	-8.440000E+00	  0.115791589	3.126000E+01	  0.115791589	8.633000E+01	  0.115791589	3.957500E+01
480	  0.115991987	-8.461000E+00	  0.115991987	3.035600E+01	  0.115991987	8.731900E+01	  0.115991987	3.885700E+01
481	  0.116192386	-8.504000E+00	  0.116192386	2.951000E+01	  0.116192386	8.813100E+01	  0.116192386	3.797600E+01
482	  0.116392791	-8.541000E+00	  0.116392791	2.859900E+01	  0.116392791	8.901600E+01	  0.116392791	3.706000E+01
483	  0.116593190	-8.593000E+00	  0.116593190	2.763200E+01	  0.116593190	8.987000E+01	  0.116593190	3.596600E+01
484	  0.116793588	-8.632000E+00	  0.116793588	2.663000E+01	  0.116793588	9.079600E+01	  0.116793588	3.491400E+01
485	  0.116993994	-8.690000E+00	  0.116993994	2.563100E+01	  0.116993994	9.157600E+01	  0.116993994	3.368700E+01
486	  0.117194392	-8.731000E+00	  0.117194392	2.463100E+01	  0.117194392	9.241000E+01	  0.117194392	3.254800E+01
487	  0.117394790	-8.791000E+00	  0.117394790	2.355700E+01	  0.117394790	9.316500E+01	  0.117394790	3.118500E+01
488	  0.117595196	-8.837000E+00	  0.117595196	2.245400E+01	  0.117595196	9.397900E+01	  0.117595196	2.985300E+01
489	  0.117795594	-8.895000E+00	  0.117795594	2.130800E+01	  0.117795594	9.470800E+01	  0.117795594	2.837500E+01
490	  0.117995992	-8.957000E+00	  0.117995992	2.015600E+01	  0.117995992	9.535500E+01	  0.117995992	2.684500E+01
491	  0.118196398	-9.014000E+00	  0.118196398	1.900700E+01	  0.118196398	9.596400E+01	  0.118196398	2.531900E+01
492	  0.118396796	-9.065000E+00	  0.118396796	1.780300E+01	  0.118396796	9.659600E+01	  0.118396796	2.374700E+01
493	  0.118597202	-9.126000E+00	  0.118597202	1.657000E+01	  0.118597202	9.709800E+01	  0.118597202	2.206300E+01
494	  0.118797600	-9.177000E+00	  0.118797600	1.537100E+01	  0.118797600	9.758200E+01	  0.118797600	2.045600E+01
495	  0.118997999	-9.245000E+00	  0.118997999	1.416200E+01	  0.118997999	9.787100E+01	  0.118997999	1.875000E+01
496	  0.119198404	-9.300000E+00	  0.119198404	1.295000E+01	  0.119198404	9.818300E+01	  0.119198404	1.709000E+01
497	  0.119398803	-9.364000E+00	  0.119398803	1.174000E+01	  0.119398803	9.835400E+01	  0.119398803	1.540100E+01
498	  0.119599201	-9.428000E+00	  0.119599201	1.051200E+01	  0.119599201	9.844900E+01	  0.119599201	1.369400E+01
499	  0.119799607	-9.504000E+00	  0.119799607	9.308000E+00	  0.119799607	9.836600E+01	  0.119799607	1.199700E+01
500	  0.120000005	-9.576000E+00	  0.120000005	8.058000E+00	  0.120000005	9.826300E+01	  0.120000005	1.028000E+01
