! Anritsu VNA Master:             	Model: MS2036C/10/77
! SN:             	1601066
! /card0/usr/18may27.balun/5b.m.txt
! Existing Calibration Information:
! TYPE:             	Current Settings	Active Cal Settings
! TIME:             	05/27/2018 03:26:22 PM	05/27/2018 03:21:57 PM
! INTERNAL TEMP:    	52.5 C	52.3 C
! # POINTS:         	500	500
! START FREQ:       	20.000 MHz	20.000 MHz
! STOP FREQ:        	120.000 MHz	120.000 MHz
! SOURCE POWER:     	High	High
! IFBW:             	50 Hz	50 Hz
! AVG FACTOR:       	  1 	  1 
! REF PLANE 1:      	0 mm	0 mm
! REF PLANE 2:      	0 mm	0 mm
! CAL TYPE:         	Full S11	Full S11
! CAL METHOD:       	SOLT	SOLT
! CAL LINE TYPE:    	Coax	Coax
! DUT PORT 1:       	K-Conn(M)	K-Conn(M)
! DUT PORT 2:       	K-Conn(M)	K-Conn(M)
! CAL STATUS:       	OK: Accuracy High	--
! PROP-V:       	0.700
! CABLE LOSS:       	0.000 dB/m
! REF IMPEDANCE:       	50.0
! Trace Specific Parameters:	TR1	TR2	TR3	TR4
! TRACE.#.Y (GRAPH TYPE)	LOG MAG	PHASE	REAL IMPEDANCE	IMAGINARY IMPEDANCE
! TRACE.#.X 	FREQ.GHZ	FREQ.GHZ	FREQ.GHZ	FREQ.GHZ
! S-PARAMETER	S11	S11	S11	S11
! SMOOTH/APERTURE %	0	0	0	0
! WINDOW	NSL	NSL	NSL	NSL
! GATING	OFF	OFF	OFF	OFF
! FGTD	OFF	OFF	OFF	OFF
Marker Information per Trace:	TR1	TR2	TR3	TR4
!MK1	--	--	--	"MK1 TR4:  70.100 200 MHz,Z:(17.328 ohm, -1.864 ohm)"
!MK2	--	--	--	--
!MK3	--	--	--	--
!MK4	--	--	--	--
!MK5	--	--	--	--
!MK6	--	--	--	--
!MK7	--	--	--	--
!MK8	--	--	--	--
PNT	TR1.FREQ.GHZ	TR1.LOG MAG.dB	TR2.FREQ.GHZ	TR2.PHASE.deg	TR3.FREQ.GHZ	TR3.REAL IMPEDANCE.ohm	TR4.FREQ.GHZ	TR4.IMAGINARY IMPEDANCE.ohm
1	  0.020000000	-7.190000E-01	  0.020000000	-1.255010E+02	  0.020000000	2.617000E+00	  0.020000000	-2.569500E+01
2	  0.020200402	-7.190000E-01	  0.020200402	-1.269830E+02	  0.020200402	2.584000E+00	  0.020200402	-2.488400E+01
3	  0.020400802	-7.160000E-01	  0.020400802	-1.284410E+02	  0.020400802	2.540000E+00	  0.020400802	-2.409800E+01
4	  0.020601204	-7.170000E-01	  0.020601204	-1.299040E+02	  0.020601204	2.513000E+00	  0.020601204	-2.331700E+01
5	  0.020801604	-7.220000E-01	  0.020801604	-1.313940E+02	  0.020801604	2.500000E+00	  0.020801604	-2.253100E+01
6	  0.021002004	-7.280000E-01	  0.021002004	-1.329010E+02	  0.021002004	2.493000E+00	  0.021002004	-2.174600E+01
7	  0.021202406	-7.370000E-01	  0.021202406	-1.344450E+02	  0.021202406	2.493000E+00	  0.021202406	-2.095000E+01
8	  0.021402806	-7.430000E-01	  0.021402806	-1.359810E+02	  0.021402806	2.485000E+00	  0.021402806	-2.016700E+01
9	  0.021603208	-7.480000E-01	  0.021603208	-1.375160E+02	  0.021603208	2.476000E+00	  0.021603208	-1.939300E+01
10	  0.021803608	-7.530000E-01	  0.021803608	-1.390460E+02	  0.021803608	2.468000E+00	  0.021803608	-1.863000E+01
11	  0.022004008	-7.590000E-01	  0.022004008	-1.406020E+02	  0.022004008	2.463000E+00	  0.022004008	-1.786200E+01
12	  0.022204408	-7.620000E-01	  0.022204408	-1.421780E+02	  0.022204408	2.448000E+00	  0.022204408	-1.709200E+01
13	  0.022404809	-7.660000E-01	  0.022404809	-1.437550E+02	  0.022404809	2.439000E+00	  0.022404809	-1.632800E+01
14	  0.022605211	-7.700000E-01	  0.022605211	-1.453240E+02	  0.022605211	2.430000E+00	  0.022605211	-1.557500E+01
15	  0.022805611	-7.710000E-01	  0.022805611	-1.468680E+02	  0.022805611	2.413000E+00	  0.022805611	-1.484100E+01
16	  0.023006011	-7.720000E-01	  0.023006011	-1.484190E+02	  0.023006011	2.399000E+00	  0.023006011	-1.410900E+01
17	  0.023206413	-7.820000E-01	  0.023206413	-1.499770E+02	  0.023206413	2.412000E+00	  0.023206413	-1.337800E+01
18	  0.023406813	-7.900000E-01	  0.023406813	-1.515560E+02	  0.023406813	2.418000E+00	  0.023406813	-1.264400E+01
19	  0.023607215	-8.010000E-01	  0.023607215	-1.531430E+02	  0.023607215	2.436000E+00	  0.023607215	-1.191100E+01
20	  0.023807615	-8.090000E-01	  0.023807615	-1.547370E+02	  0.023807615	2.445000E+00	  0.023807615	-1.117900E+01
21	  0.024008015	-8.190000E-01	  0.024008015	-1.563340E+02	  0.024008015	2.460000E+00	  0.024008015	-1.045100E+01
22	  0.024208417	-8.300000E-01	  0.024208417	-1.579230E+02	  0.024208417	2.478000E+00	  0.024208417	-9.730000E+00
23	  0.024408817	-8.440000E-01	  0.024408817	-1.595530E+02	  0.024408817	2.506000E+00	  0.024408817	-8.995000E+00
24	  0.024609219	-8.580000E-01	  0.024609219	-1.612110E+02	  0.024609219	2.535000E+00	  0.024609219	-8.251000E+00
25	  0.024809619	-8.670000E-01	  0.024809619	-1.628870E+02	  0.024809619	2.550000E+00	  0.024809619	-7.503000E+00
26	  0.025010020	-8.750000E-01	  0.025010020	-1.645750E+02	  0.025010020	2.563000E+00	  0.025010020	-6.753000E+00
27	  0.025210422	-8.860000E-01	  0.025210422	-1.662490E+02	  0.025210422	2.585000E+00	  0.025210422	-6.012000E+00
28	  0.025410822	-8.960000E-01	  0.025410822	-1.679410E+02	  0.025410822	2.608000E+00	  0.025410822	-5.266000E+00
29	  0.025611224	-9.080000E-01	  0.025611224	-1.696490E+02	  0.025611224	2.634000E+00	  0.025611224	-4.515000E+00
30	  0.025811624	-9.210000E-01	  0.025811624	-1.713660E+02	  0.025811624	2.663000E+00	  0.025811624	-3.763000E+00
31	  0.026012026	-9.330000E-01	  0.026012026	-1.731130E+02	  0.026012026	2.693000E+00	  0.026012026	-2.999000E+00
32	  0.026212426	-9.510000E-01	  0.026212426	-1.748570E+02	  0.026212426	2.740000E+00	  0.026212426	-2.238000E+00
33	  0.026412826	-9.690000E-01	  0.026412826	-1.766200E+02	  0.026412826	2.789000E+00	  0.026412826	-1.470000E+00
34	  0.026613226	-9.870000E-01	  0.026613226	-1.784010E+02	  0.026613226	2.839000E+00	  0.026613226	-6.950000E-01
35	  0.026813626	-1.004000E+00	  0.026813626	1.798260E+02	  0.026813626	2.888000E+00	  0.026813626	7.500000E-02
36	  0.027014028	-1.020000E+00	  0.027014028	1.780620E+02	  0.027014028	2.935000E+00	  0.027014028	8.420000E-01
37	  0.027214428	-1.036000E+00	  0.027214428	1.762910E+02	  0.027214428	2.982000E+00	  0.027214428	1.612000E+00
38	  0.027414829	-1.052000E+00	  0.027414829	1.745240E+02	  0.027414829	3.031000E+00	  0.027414829	2.382000E+00
39	  0.027615231	-1.070000E+00	  0.027615231	1.727510E+02	  0.027615231	3.089000E+00	  0.027615231	3.154000E+00
40	  0.027815631	-1.092000E+00	  0.027815631	1.709560E+02	  0.027815631	3.160000E+00	  0.027815631	3.938000E+00
41	  0.028016033	-1.114000E+00	  0.028016033	1.691400E+02	  0.028016033	3.230000E+00	  0.028016033	4.732000E+00
42	  0.028216433	-1.134000E+00	  0.028216433	1.673300E+02	  0.028216433	3.301000E+00	  0.028216433	5.526000E+00
43	  0.028416833	-1.157000E+00	  0.028416833	1.655180E+02	  0.028416833	3.380000E+00	  0.028416833	6.323000E+00
44	  0.028617235	-1.181000E+00	  0.028617235	1.637040E+02	  0.028617235	3.465000E+00	  0.028617235	7.124000E+00
45	  0.028817635	-1.207000E+00	  0.028817635	1.618720E+02	  0.028817635	3.557000E+00	  0.028817635	7.936000E+00
46	  0.029018037	-1.234000E+00	  0.029018037	1.600130E+02	  0.029018037	3.658000E+00	  0.029018037	8.764000E+00
47	  0.029218437	-1.259000E+00	  0.029218437	1.581320E+02	  0.029218437	3.752000E+00	  0.029218437	9.606000E+00
48	  0.029418837	-1.282000E+00	  0.029418837	1.562670E+02	  0.029418837	3.845000E+00	  0.029418837	1.044600E+01
49	  0.029619239	-1.305000E+00	  0.029619239	1.544190E+02	  0.029619239	3.942000E+00	  0.029619239	1.128300E+01
50	  0.029819639	-1.331000E+00	  0.029819639	1.525650E+02	  0.029819639	4.052000E+00	  0.029819639	1.212800E+01
51	  0.030020041	-1.358000E+00	  0.030020041	1.507090E+02	  0.030020041	4.165000E+00	  0.030020041	1.298100E+01
52	  0.030220442	-1.390000E+00	  0.030220442	1.488360E+02	  0.030220442	4.301000E+00	  0.030220442	1.384700E+01
53	  0.030420844	-1.427000E+00	  0.030420844	1.469440E+02	  0.030420844	4.458000E+00	  0.030420844	1.472800E+01
54	  0.030621244	-1.469000E+00	  0.030621244	1.449930E+02	  0.030621244	4.634000E+00	  0.030621244	1.564400E+01
55	  0.030821644	-1.505000E+00	  0.030821644	1.430140E+02	  0.030821644	4.802000E+00	  0.030821644	1.658300E+01
56	  0.031022044	-1.540000E+00	  0.031022044	1.409940E+02	  0.031022044	4.973000E+00	  0.031022044	1.755200E+01
57	  0.031222444	-1.569000E+00	  0.031222444	1.389780E+02	  0.031222444	5.129000E+00	  0.031222444	1.853200E+01
58	  0.031422846	-1.597000E+00	  0.031422846	1.369550E+02	  0.031422846	5.290000E+00	  0.031422846	1.952600E+01
59	  0.031623244	-1.624000E+00	  0.031623244	1.349520E+02	  0.031623244	5.455000E+00	  0.031623244	2.052400E+01
60	  0.031823646	-1.649000E+00	  0.031823646	1.329630E+02	  0.031823646	5.619000E+00	  0.031823646	2.152800E+01
61	  0.032024048	-1.674000E+00	  0.032024048	1.310060E+02	  0.032024048	5.790000E+00	  0.032024048	2.252900E+01
62	  0.032224450	-1.702000E+00	  0.032224450	1.290590E+02	  0.032224450	5.980000E+00	  0.032224450	2.353800E+01
63	  0.032424849	-1.731000E+00	  0.032424849	1.271260E+02	  0.032424849	6.179000E+00	  0.032424849	2.455500E+01
64	  0.032625251	-1.769000E+00	  0.032625251	1.251710E+02	  0.032625251	6.424000E+00	  0.032625251	2.559500E+01
65	  0.032825653	-1.811000E+00	  0.032825653	1.232220E+02	  0.032825653	6.691000E+00	  0.032825653	2.664600E+01
66	  0.033026051	-1.857000E+00	  0.033026051	1.212630E+02	  0.033026051	6.987000E+00	  0.033026051	2.771800E+01
67	  0.033226453	-1.903000E+00	  0.033226453	1.192860E+02	  0.033226453	7.298000E+00	  0.033226453	2.881700E+01
68	  0.033426855	-1.949000E+00	  0.033426855	1.172940E+02	  0.033426855	7.627000E+00	  0.033426855	2.994400E+01
69	  0.033627257	-1.995000E+00	  0.033627257	1.152570E+02	  0.033627257	7.975000E+00	  0.033627257	3.111700E+01
70	  0.033827655	-2.041000E+00	  0.033827655	1.132010E+02	  0.033827655	8.342000E+00	  0.033827655	3.232400E+01
71	  0.034028057	-2.088000E+00	  0.034028057	1.111280E+02	  0.034028057	8.735000E+00	  0.034028057	3.356400E+01
72	  0.034228459	-2.134000E+00	  0.034228459	1.090550E+02	  0.034228459	9.146000E+00	  0.034228459	3.483100E+01
73	  0.034428857	-2.179000E+00	  0.034428857	1.069850E+02	  0.034428857	9.577000E+00	  0.034428857	3.612200E+01
74	  0.034629259	-2.221000E+00	  0.034629259	1.049180E+02	  0.034629259	1.001800E+01	  0.034629259	3.744300E+01
75	  0.034829661	-2.259000E+00	  0.034829661	1.028630E+02	  0.034829661	1.046700E+01	  0.034829661	3.878900E+01
76	  0.035030060	-2.299000E+00	  0.035030060	1.008360E+02	  0.035030060	1.094800E+01	  0.035030060	4.014500E+01
77	  0.035230462	-2.346000E+00	  0.035230462	9.883200E+01	  0.035230462	1.148700E+01	  0.035230462	4.150900E+01
78	  0.035430863	-2.398000E+00	  0.035430863	9.682100E+01	  0.035430863	1.208500E+01	  0.035430863	4.290300E+01
79	  0.035631265	-2.459000E+00	  0.035631265	9.480300E+01	  0.035631265	1.276200E+01	  0.035631265	4.432400E+01
80	  0.035831664	-2.520000E+00	  0.035831664	9.273300E+01	  0.035831664	1.349900E+01	  0.035831664	4.581500E+01
81	  0.036032066	-2.581000E+00	  0.036032066	9.061000E+01	  0.036032066	1.428900E+01	  0.036032066	4.738400E+01
82	  0.036232468	-2.638000E+00	  0.036232468	8.844100E+01	  0.036232468	1.513000E+01	  0.036232468	4.903500E+01
83	  0.036432866	-2.695000E+00	  0.036432866	8.626300E+01	  0.036432866	1.603500E+01	  0.036432866	5.073600E+01
84	  0.036633268	-2.746000E+00	  0.036633268	8.410400E+01	  0.036633268	1.696400E+01	  0.036633268	5.247900E+01
85	  0.036833670	-2.793000E+00	  0.036833670	8.193700E+01	  0.036833670	1.794200E+01	  0.036833670	5.428700E+01
86	  0.037034072	-2.838000E+00	  0.037034072	7.982800E+01	  0.037034072	1.895600E+01	  0.037034072	5.609900E+01
87	  0.037234470	-2.877000E+00	  0.037234470	7.771300E+01	  0.037234470	2.002100E+01	  0.037234470	5.798200E+01
88	  0.037434869	-2.917000E+00	  0.037434869	7.566100E+01	  0.037434869	2.114200E+01	  0.037434869	5.985800E+01
89	  0.037635271	-2.954000E+00	  0.037635271	7.358800E+01	  0.037635271	2.234400E+01	  0.037635271	6.181700E+01
90	  0.037835669	-2.994000E+00	  0.037835669	7.151000E+01	  0.037835669	2.366500E+01	  0.037835669	6.383100E+01
91	  0.038036071	-3.044000E+00	  0.038036071	6.937600E+01	  0.038036071	2.519600E+01	  0.038036071	6.592500E+01
92	  0.038236473	-3.107000E+00	  0.038236473	6.726400E+01	  0.038236473	2.694000E+01	  0.038236473	6.799600E+01
93	  0.038436871	-3.178000E+00	  0.038436871	6.515100E+01	  0.038436871	2.888900E+01	  0.038436871	7.007400E+01
94	  0.038637273	-3.250000E+00	  0.038637273	6.310300E+01	  0.038637273	3.096500E+01	  0.038637273	7.210000E+01
95	  0.038837675	-3.322000E+00	  0.038837675	6.100200E+01	  0.038837675	3.325300E+01	  0.038837675	7.421100E+01
96	  0.039038073	-3.388000E+00	  0.039038073	5.884300E+01	  0.039038073	3.574400E+01	  0.039038073	7.644600E+01
97	  0.039238475	-3.448000E+00	  0.039238475	5.671300E+01	  0.039238475	3.836900E+01	  0.039238475	7.871100E+01
98	  0.039438877	-3.500000E+00	  0.039438877	5.458000E+01	  0.039438877	4.117500E+01	  0.039438877	8.104300E+01
99	  0.039639279	-3.547000E+00	  0.039639279	5.249000E+01	  0.039639279	4.413100E+01	  0.039639279	8.338400E+01
100	  0.039839678	-3.592000E+00	  0.039839678	5.044100E+01	  0.039839678	4.729200E+01	  0.039839678	8.567900E+01
101	  0.040040080	-3.638000E+00	  0.040040080	4.843600E+01	  0.040040080	5.066800E+01	  0.040040080	8.790600E+01
102	  0.040240481	-3.691000E+00	  0.040240481	4.643500E+01	  0.040240481	5.439700E+01	  0.040240481	9.001200E+01
103	  0.040440880	-3.751000E+00	  0.040440880	4.442700E+01	  0.040440880	5.852100E+01	  0.040440880	9.196200E+01
104	  0.040641282	-3.811000E+00	  0.040641282	4.237600E+01	  0.040641282	6.308100E+01	  0.040641282	9.383900E+01
105	  0.040841684	-3.870000E+00	  0.040841684	4.033700E+01	  0.040841684	6.798300E+01	  0.040841684	9.555700E+01
106	  0.041042086	-3.929000E+00	  0.041042086	3.824300E+01	  0.041042086	7.342100E+01	  0.041042086	9.711200E+01
107	  0.041242484	-3.986000E+00	  0.041242484	3.618800E+01	  0.041242484	7.918000E+01	  0.041242484	9.836800E+01
108	  0.041442886	-4.042000E+00	  0.041442886	3.411800E+01	  0.041442886	8.541000E+01	  0.041442886	9.932000E+01
109	  0.041643288	-4.096000E+00	  0.041643288	3.206100E+01	  0.041643288	9.203700E+01	  0.041643288	9.984900E+01
110	  0.041843686	-4.147000E+00	  0.041843686	2.996600E+01	  0.041843686	9.922400E+01	  0.041843686	9.995000E+01
111	  0.042044088	-4.194000E+00	  0.042044088	2.790900E+01	  0.042044088	1.066980E+02	  0.042044088	9.950400E+01
112	  0.042244490	-4.240000E+00	  0.042244490	2.587100E+01	  0.042244490	1.144870E+02	  0.042244490	9.837900E+01
113	  0.042444889	-4.289000E+00	  0.042444889	2.387700E+01	  0.042444889	1.224030E+02	  0.042444889	9.636200E+01
114	  0.042645290	-4.334000E+00	  0.042645290	2.186900E+01	  0.042645290	1.305960E+02	  0.042645290	9.355100E+01
115	  0.042845692	-4.381000E+00	  0.042845692	1.988000E+01	  0.042845692	1.387740E+02	  0.042845692	8.969100E+01
116	  0.043046094	-4.425000E+00	  0.043046094	1.788700E+01	  0.043046094	1.469460E+02	  0.043046094	8.487000E+01
117	  0.043246493	-4.472000E+00	  0.043246493	1.591200E+01	  0.043246493	1.547220E+02	  0.043246493	7.884700E+01
118	  0.043446895	-4.517000E+00	  0.043446895	1.393600E+01	  0.043446895	1.620850E+02	  0.043446895	7.176900E+01
119	  0.043647297	-4.568000E+00	  0.043647297	1.198400E+01	  0.043647297	1.685300E+02	  0.043647297	6.356200E+01
120	  0.043847695	-4.615000E+00	  0.043847695	1.000800E+01	  0.043847695	1.742380E+02	  0.043847695	5.438200E+01
121	  0.044048097	-4.667000E+00	  0.044048097	8.046000E+00	  0.044048097	1.786700E+02	  0.044048097	4.438000E+01
122	  0.044248499	-4.709000E+00	  0.044248499	6.089000E+00	  0.044248499	1.820950E+02	  0.044248499	3.393600E+01
123	  0.044448901	-4.750000E+00	  0.044448901	4.129000E+00	  0.044448901	1.842690E+02	  0.044448901	2.309300E+01
124	  0.044649299	-4.789000E+00	  0.044649299	2.192000E+00	  0.044649299	1.850430E+02	  0.044649299	1.221100E+01
125	  0.044849701	-4.832000E+00	  0.044849701	2.690000E-01	  0.044849701	1.843350E+02	  0.044849701	1.479000E+00
126	  0.045050103	-4.872000E+00	  0.045050103	-1.659000E+00	  0.045050103	1.824340E+02	  0.045050103	-8.943000E+00
127	  0.045250501	-4.916000E+00	  0.045250501	-3.563000E+00	  0.045250501	1.792620E+02	  0.045250501	-1.867500E+01
128	  0.045450903	-4.953000E+00	  0.045450903	-5.480000E+00	  0.045450903	1.752730E+02	  0.045450903	-2.781800E+01
129	  0.045651305	-4.991000E+00	  0.045651305	-7.415000E+00	  0.045651305	1.703710E+02	  0.045651305	-3.623300E+01
130	  0.045851704	-5.028000E+00	  0.045851704	-9.306000E+00	  0.045851704	1.649390E+02	  0.045851704	-4.359700E+01
131	  0.046052106	-5.065000E+00	  0.046052106	-1.122500E+01	  0.046052106	1.589260E+02	  0.046052106	-5.016200E+01
132	  0.046252504	-5.100000E+00	  0.046252504	-1.312300E+01	  0.046252504	1.526920E+02	  0.046252504	-5.578100E+01
133	  0.046452906	-5.132000E+00	  0.046452906	-1.500100E+01	  0.046452906	1.463740E+02	  0.046452906	-6.053500E+01
134	  0.046653304	-5.167000E+00	  0.046653304	-1.684600E+01	  0.046653304	1.400450E+02	  0.046653304	-6.436200E+01
135	  0.046853706	-5.203000E+00	  0.046853706	-1.870400E+01	  0.046853706	1.336980E+02	  0.046853706	-6.746800E+01
136	  0.047054108	-5.237000E+00	  0.047054108	-2.055000E+01	  0.047054108	1.275260E+02	  0.047054108	-6.992700E+01
137	  0.047254506	-5.267000E+00	  0.047254506	-2.240300E+01	  0.047254506	1.215380E+02	  0.047254506	-7.189600E+01
138	  0.047454908	-5.299000E+00	  0.047454908	-2.423600E+01	  0.047454908	1.157920E+02	  0.047454908	-7.328000E+01
139	  0.047655310	-5.329000E+00	  0.047655310	-2.604500E+01	  0.047655310	1.103570E+02	  0.047655310	-7.423500E+01
140	  0.047855709	-5.359000E+00	  0.047855709	-2.785900E+01	  0.047855709	1.051470E+02	  0.047855709	-7.479000E+01
141	  0.048056111	-5.387000E+00	  0.048056111	-2.965300E+01	  0.048056111	1.002530E+02	  0.048056111	-7.506700E+01
142	  0.048256513	-5.413000E+00	  0.048256513	-3.146400E+01	  0.048256513	9.556100E+01	  0.048256513	-7.508300E+01
143	  0.048456915	-5.439000E+00	  0.048456915	-3.326400E+01	  0.048456915	9.114500E+01	  0.048456915	-7.484300E+01
144	  0.048657313	-5.460000E+00	  0.048657313	-3.504300E+01	  0.048657313	8.702000E+01	  0.048657313	-7.447100E+01
145	  0.048857715	-5.483000E+00	  0.048857715	-3.679800E+01	  0.048857715	8.317200E+01	  0.048857715	-7.391200E+01
146	  0.049058117	-5.504000E+00	  0.049058117	-3.852400E+01	  0.049058117	7.959500E+01	  0.049058117	-7.323100E+01
147	  0.049258515	-5.522000E+00	  0.049258515	-4.022200E+01	  0.049258515	7.626800E+01	  0.049258515	-7.247300E+01
148	  0.049458917	-5.548000E+00	  0.049458917	-4.188900E+01	  0.049458917	7.319600E+01	  0.049458917	-7.154900E+01
149	  0.049659319	-5.569000E+00	  0.049659319	-4.356400E+01	  0.049659319	7.027700E+01	  0.049659319	-7.059000E+01
150	  0.049859721	-5.597000E+00	  0.049859721	-4.526000E+01	  0.049859721	6.750400E+01	  0.049859721	-6.950000E+01
151	  0.050060119	-5.622000E+00	  0.050060119	-4.693500E+01	  0.050060119	6.492000E+01	  0.050060119	-6.839200E+01
152	  0.050260521	-5.651000E+00	  0.050260521	-4.864800E+01	  0.050260521	6.243900E+01	  0.050260521	-6.719700E+01
153	  0.050460923	-5.673000E+00	  0.050460923	-5.031200E+01	  0.050460923	6.014800E+01	  0.050460923	-6.606400E+01
154	  0.050661322	-5.693000E+00	  0.050661322	-5.197600E+01	  0.050661322	5.797700E+01	  0.050661322	-6.492600E+01
155	  0.050861724	-5.711000E+00	  0.050861724	-5.366400E+01	  0.050861724	5.588800E+01	  0.050861724	-6.377700E+01
156	  0.051062126	-5.727000E+00	  0.051062126	-5.534900E+01	  0.051062126	5.391500E+01	  0.051062126	-6.261700E+01
157	  0.051262524	-5.738000E+00	  0.051262524	-5.697900E+01	  0.051262524	5.208600E+01	  0.051262524	-6.152800E+01
158	  0.051462926	-5.755000E+00	  0.051462926	-5.859200E+01	  0.051462926	5.039800E+01	  0.051462926	-6.039500E+01
159	  0.051663328	-5.769000E+00	  0.051663328	-6.019500E+01	  0.051663328	4.879800E+01	  0.051663328	-5.928400E+01
160	  0.051863730	-5.791000E+00	  0.051863730	-6.174800E+01	  0.051863730	4.735700E+01	  0.051863730	-5.815800E+01
161	  0.052064128	-5.806000E+00	  0.052064128	-6.333900E+01	  0.052064128	4.592900E+01	  0.052064128	-5.705200E+01
162	  0.052264530	-5.826000E+00	  0.052264530	-6.491700E+01	  0.052264530	4.460300E+01	  0.052264530	-5.593300E+01
163	  0.052464932	-5.841000E+00	  0.052464932	-6.648200E+01	  0.052464932	4.333400E+01	  0.052464932	-5.485800E+01
164	  0.052665330	-5.857000E+00	  0.052665330	-6.808000E+01	  0.052665330	4.211000E+01	  0.052665330	-5.375800E+01
165	  0.052865732	-5.874000E+00	  0.052865732	-6.962400E+01	  0.052865732	4.098600E+01	  0.052865732	-5.270200E+01
166	  0.053066134	-5.890000E+00	  0.053066134	-7.121900E+01	  0.053066134	3.988000E+01	  0.053066134	-5.162200E+01
167	  0.053266536	-5.903000E+00	  0.053266536	-7.280500E+01	  0.053266536	3.881900E+01	  0.053266536	-5.057900E+01
168	  0.053466935	-5.914000E+00	  0.053466935	-7.434000E+01	  0.053466935	3.783800E+01	  0.053466935	-4.957900E+01
169	  0.053667337	-5.923000E+00	  0.053667337	-7.590300E+01	  0.053667337	3.687000E+01	  0.053667337	-4.858600E+01
170	  0.053867739	-5.928000E+00	  0.053867739	-7.742400E+01	  0.053867739	3.596000E+01	  0.053867739	-4.764000E+01
171	  0.054068137	-5.938000E+00	  0.054068137	-7.889900E+01	  0.054068137	3.513700E+01	  0.054068137	-4.671000E+01
172	  0.054268539	-5.941000E+00	  0.054268539	-8.035400E+01	  0.054268539	3.433300E+01	  0.054268539	-4.582600E+01
173	  0.054468941	-5.951000E+00	  0.054468941	-8.179100E+01	  0.054468941	3.360100E+01	  0.054468941	-4.493500E+01
174	  0.054669339	-5.963000E+00	  0.054669339	-8.322100E+01	  0.054669339	3.290700E+01	  0.054669339	-4.405300E+01
175	  0.054869737	-5.973000E+00	  0.054869737	-8.465000E+01	  0.054869737	3.223600E+01	  0.054869737	-4.318800E+01
176	  0.055070139	-5.984000E+00	  0.055070139	-8.609300E+01	  0.055070139	3.159000E+01	  0.055070139	-4.231900E+01
177	  0.055270538	-6.004000E+00	  0.055270538	-8.749900E+01	  0.055270538	3.102300E+01	  0.055270538	-4.145500E+01
178	  0.055470940	-6.015000E+00	  0.055470940	-8.894100E+01	  0.055470940	3.042900E+01	  0.055470940	-4.060800E+01
179	  0.055671342	-6.025000E+00	  0.055671342	-9.039500E+01	  0.055671342	2.985200E+01	  0.055671342	-3.976600E+01
180	  0.055871744	-6.034000E+00	  0.055871744	-9.180000E+01	  0.055871744	2.931400E+01	  0.055871744	-3.896300E+01
181	  0.056072142	-6.038000E+00	  0.056072142	-9.320600E+01	  0.056072142	2.878100E+01	  0.056072142	-3.818000E+01
182	  0.056272544	-6.044000E+00	  0.056272544	-9.465300E+01	  0.056272544	2.825600E+01	  0.056272544	-3.738000E+01
183	  0.056472946	-6.045000E+00	  0.056472946	-9.602000E+01	  0.056472946	2.776600E+01	  0.056472946	-3.664100E+01
184	  0.056673344	-6.050000E+00	  0.056673344	-9.741800E+01	  0.056673344	2.729600E+01	  0.056673344	-3.588400E+01
185	  0.056873746	-6.055000E+00	  0.056873746	-9.874700E+01	  0.056873746	2.686800E+01	  0.056873746	-3.516900E+01
186	  0.057074148	-6.061000E+00	  0.057074148	-1.000620E+02	  0.057074148	2.646000E+01	  0.057074148	-3.446900E+01
187	  0.057274550	-6.068000E+00	  0.057274550	-1.013860E+02	  0.057274550	2.607100E+01	  0.057274550	-3.376700E+01
188	  0.057474948	-6.074000E+00	  0.057474948	-1.027230E+02	  0.057474948	2.568800E+01	  0.057474948	-3.306700E+01
189	  0.057675350	-6.079000E+00	  0.057675350	-1.040870E+02	  0.057675350	2.530900E+01	  0.057675350	-3.236200E+01
190	  0.057875752	-6.089000E+00	  0.057875752	-1.054100E+02	  0.057875752	2.497000E+01	  0.057875752	-3.167500E+01
191	  0.058076151	-6.094000E+00	  0.058076151	-1.067740E+02	  0.058076151	2.461700E+01	  0.058076151	-3.098400E+01
192	  0.058276553	-6.099000E+00	  0.058276553	-1.081040E+02	  0.058276553	2.428400E+01	  0.058276553	-3.031600E+01
193	  0.058476955	-6.102000E+00	  0.058476955	-1.094420E+02	  0.058476955	2.395600E+01	  0.058476955	-2.965300E+01
194	  0.058677353	-6.103000E+00	  0.058677353	-1.107980E+02	  0.058677353	2.362800E+01	  0.058677353	-2.899100E+01
195	  0.058877755	-6.100000E+00	  0.058877755	-1.121170E+02	  0.058877755	2.331000E+01	  0.058877755	-2.835700E+01
196	  0.059078157	-6.103000E+00	  0.059078157	-1.134060E+02	  0.059078157	2.302700E+01	  0.059078157	-2.773400E+01
197	  0.059278559	-6.096000E+00	  0.059278559	-1.146920E+02	  0.059278559	2.272300E+01	  0.059278559	-2.713200E+01
198	  0.059478957	-6.098000E+00	  0.059478957	-1.159370E+02	  0.059478957	2.246600E+01	  0.059478957	-2.654000E+01
199	  0.059679359	-6.104000E+00	  0.059679359	-1.171590E+02	  0.059679359	2.223300E+01	  0.059679359	-2.595800E+01
200	  0.059879761	-6.107000E+00	  0.059879761	-1.184160E+02	  0.059879761	2.199300E+01	  0.059879761	-2.536900E+01
201	  0.060080159	-6.110000E+00	  0.060080159	-1.196480E+02	  0.060080159	2.176900E+01	  0.060080159	-2.479400E+01
202	  0.060280561	-6.116000E+00	  0.060280561	-1.208950E+02	  0.060280561	2.155600E+01	  0.060280561	-2.421400E+01
203	  0.060480963	-6.121000E+00	  0.060480963	-1.221220E+02	  0.060480963	2.134900E+01	  0.060480963	-2.364900E+01
204	  0.060681365	-6.127000E+00	  0.060681365	-1.233850E+02	  0.060681365	2.114900E+01	  0.060681365	-2.307100E+01
205	  0.060881764	-6.134000E+00	  0.060881764	-1.246070E+02	  0.060881764	2.096600E+01	  0.060881764	-2.251300E+01
206	  0.061082166	-6.137000E+00	  0.061082166	-1.258420E+02	  0.061082166	2.077200E+01	  0.061082166	-2.195900E+01
207	  0.061282568	-6.141000E+00	  0.061282568	-1.270730E+02	  0.061282568	2.059400E+01	  0.061282568	-2.140800E+01
208	  0.061482966	-6.144000E+00	  0.061482966	-1.283060E+02	  0.061482966	2.041500E+01	  0.061482966	-2.086200E+01
209	  0.061683368	-6.148000E+00	  0.061683368	-1.295340E+02	  0.061683368	2.024600E+01	  0.061683368	-2.032000E+01
210	  0.061883770	-6.145000E+00	  0.061883770	-1.307270E+02	  0.061883770	2.007000E+01	  0.061883770	-1.980300E+01
211	  0.062084168	-6.150000E+00	  0.062084168	-1.319330E+02	  0.062084168	1.992100E+01	  0.062084168	-1.927600E+01
212	  0.062284570	-6.153000E+00	  0.062284570	-1.331190E+02	  0.062284570	1.977300E+01	  0.062284570	-1.876200E+01
213	  0.062484972	-6.151000E+00	  0.062484972	-1.342560E+02	  0.062484972	1.962200E+01	  0.062484972	-1.827700E+01
214	  0.062685370	-6.153000E+00	  0.062685370	-1.354230E+02	  0.062685370	1.948500E+01	  0.062685370	-1.777700E+01
215	  0.062885776	-6.160000E+00	  0.062885776	-1.365990E+02	  0.062885776	1.936500E+01	  0.062885776	-1.727300E+01
216	  0.063086174	-6.169000E+00	  0.063086174	-1.377760E+02	  0.063086174	1.925400E+01	  0.063086174	-1.677000E+01
217	  0.063286573	-6.171000E+00	  0.063286573	-1.389690E+02	  0.063286573	1.912700E+01	  0.063286573	-1.626800E+01
218	  0.063486971	-6.176000E+00	  0.063486971	-1.401220E+02	  0.063486971	1.901700E+01	  0.063486971	-1.578300E+01
219	  0.063687377	-6.173000E+00	  0.063687377	-1.412980E+02	  0.063687377	1.888800E+01	  0.063687377	-1.529600E+01
220	  0.063887775	-6.171000E+00	  0.063887775	-1.424410E+02	  0.063887775	1.877100E+01	  0.063887775	-1.482400E+01
221	  0.064088173	-6.173000E+00	  0.064088173	-1.436150E+02	  0.064088173	1.866400E+01	  0.064088173	-1.433900E+01
222	  0.064288579	-6.172000E+00	  0.064288579	-1.447100E+02	  0.064288579	1.856200E+01	  0.064288579	-1.388900E+01
223	  0.064488977	-6.173000E+00	  0.064488977	-1.458310E+02	  0.064488977	1.846400E+01	  0.064488977	-1.343100E+01
224	  0.064689375	-6.171000E+00	  0.064689375	-1.469050E+02	  0.064689375	1.836900E+01	  0.064689375	-1.299400E+01
225	  0.064889781	-6.178000E+00	  0.064889781	-1.479980E+02	  0.064889781	1.829700E+01	  0.064889781	-1.254600E+01
226	  0.065090179	-6.177000E+00	  0.065090179	-1.490830E+02	  0.065090179	1.821000E+01	  0.065090179	-1.210700E+01
227	  0.065290578	-6.182000E+00	  0.065290578	-1.501650E+02	  0.065290578	1.814000E+01	  0.065290578	-1.166900E+01
228	  0.065490983	-6.184000E+00	  0.065490983	-1.512430E+02	  0.065490983	1.806900E+01	  0.065490983	-1.123400E+01
229	  0.065691382	-6.191000E+00	  0.065691382	-1.522950E+02	  0.065691382	1.801400E+01	  0.065691382	-1.081000E+01
230	  0.065891780	-6.194000E+00	  0.065891780	-1.533520E+02	  0.065891780	1.795200E+01	  0.065891780	-1.038600E+01
231	  0.066092186	-6.202000E+00	  0.066092186	-1.544220E+02	  0.066092186	1.790400E+01	  0.066092186	-9.957000E+00
232	  0.066292584	-6.207000E+00	  0.066292584	-1.554780E+02	  0.066292584	1.785200E+01	  0.066292584	-9.536000E+00
233	  0.066492982	-6.206000E+00	  0.066492982	-1.565780E+02	  0.066492982	1.778800E+01	  0.066492982	-9.100000E+00
234	  0.066693388	-6.211000E+00	  0.066693388	-1.575950E+02	  0.066693388	1.774500E+01	  0.066693388	-8.696000E+00
235	  0.066893786	-6.218000E+00	  0.066893786	-1.586440E+02	  0.066893786	1.770600E+01	  0.066893786	-8.281000E+00
236	  0.067094192	-6.222000E+00	  0.067094192	-1.597320E+02	  0.067094192	1.766200E+01	  0.067094192	-7.852000E+00
237	  0.067294590	-6.227000E+00	  0.067294590	-1.607630E+02	  0.067294590	1.762700E+01	  0.067294590	-7.446000E+00
238	  0.067494988	-6.232000E+00	  0.067494988	-1.618120E+02	  0.067494988	1.759400E+01	  0.067494988	-7.034000E+00
239	  0.067695394	-6.236000E+00	  0.067695394	-1.628360E+02	  0.067695394	1.756100E+01	  0.067695394	-6.632000E+00
240	  0.067895792	-6.241000E+00	  0.067895792	-1.638860E+02	  0.067895792	1.753100E+01	  0.067895792	-6.222000E+00
241	  0.068096191	-6.245000E+00	  0.068096191	-1.649270E+02	  0.068096191	1.750300E+01	  0.068096191	-5.816000E+00
242	  0.068296596	-6.254000E+00	  0.068296596	-1.659690E+02	  0.068296596	1.749200E+01	  0.068296596	-5.409000E+00
243	  0.068496995	-6.255000E+00	  0.068496995	-1.670030E+02	  0.068496995	1.746000E+01	  0.068496995	-5.008000E+00
244	  0.068697393	-6.257000E+00	  0.068697393	-1.680430E+02	  0.068697393	1.743700E+01	  0.068697393	-4.605000E+00
245	  0.068897791	-6.258000E+00	  0.068897791	-1.691030E+02	  0.068897791	1.740900E+01	  0.068897791	-4.195000E+00
246	  0.069098189	-6.257000E+00	  0.069098189	-1.701230E+02	  0.069098189	1.738200E+01	  0.069098189	-3.801000E+00
247	  0.069298595	-6.260000E+00	  0.069298595	-1.711340E+02	  0.069298595	1.736800E+01	  0.069298595	-3.410000E+00
248	  0.069498993	-6.268000E+00	  0.069498993	-1.721850E+02	  0.069498993	1.736900E+01	  0.069498993	-3.004000E+00
249	  0.069699399	-6.267000E+00	  0.069699399	-1.731450E+02	  0.069699399	1.734900E+01	  0.069699399	-2.635000E+00
250	  0.069899797	-6.266000E+00	  0.069899797	-1.741340E+02	  0.069899797	1.733100E+01	  0.069899797	-2.254000E+00
251	  0.070100196	-6.269000E+00	  0.070100196	-1.751470E+02	  0.070100196	1.732700E+01	  0.070100196	-1.864000E+00
252	  0.070300601	-6.272000E+00	  0.070300601	-1.761110E+02	  0.070300601	1.732400E+01	  0.070300601	-1.493000E+00
253	  0.070501000	-6.277000E+00	  0.070501000	-1.770550E+02	  0.070501000	1.733000E+01	  0.070501000	-1.130000E+00
254	  0.070701398	-6.280000E+00	  0.070701398	-1.780660E+02	  0.070701398	1.733300E+01	  0.070701398	-7.420000E-01
255	  0.070901804	-6.286000E+00	  0.070901804	-1.789860E+02	  0.070901804	1.734300E+01	  0.070901804	-3.890000E-01
256	  0.071102202	-6.291000E+00	  0.071102202	-1.799570E+02	  0.071102202	1.735500E+01	  0.071102202	-1.600000E-02
257	  0.071302600	-6.293000E+00	  0.071302600	1.790730E+02	  0.071302600	1.736200E+01	  0.071302600	3.550000E-01
258	  0.071503006	-6.302000E+00	  0.071503006	1.781330E+02	  0.071503006	1.738700E+01	  0.071503006	7.160000E-01
259	  0.071703404	-6.309000E+00	  0.071703404	1.771850E+02	  0.071703404	1.741100E+01	  0.071703404	1.079000E+00
260	  0.071903802	-6.314000E+00	  0.071903802	1.762060E+02	  0.071903802	1.742900E+01	  0.071903802	1.454000E+00
261	  0.072104208	-6.323000E+00	  0.072104208	1.752670E+02	  0.072104208	1.746200E+01	  0.072104208	1.814000E+00
262	  0.072304606	-6.331000E+00	  0.072304606	1.743110E+02	  0.072304606	1.749500E+01	  0.072304606	2.180000E+00
263	  0.072505005	-6.338000E+00	  0.072505005	1.734060E+02	  0.072505005	1.752600E+01	  0.072505005	2.527000E+00
264	  0.072705410	-6.348000E+00	  0.072705410	1.724560E+02	  0.072705410	1.756700E+01	  0.072705410	2.890000E+00
265	  0.072905809	-6.351000E+00	  0.072905809	1.715210E+02	  0.072905809	1.759100E+01	  0.072905809	3.249000E+00
266	  0.073106214	-6.363000E+00	  0.073106214	1.705180E+02	  0.073106214	1.764300E+01	  0.073106214	3.633000E+00
267	  0.073306613	-6.372000E+00	  0.073306613	1.695700E+02	  0.073306613	1.768800E+01	  0.073306613	3.996000E+00
268	  0.073507011	-6.379000E+00	  0.073507011	1.686260E+02	  0.073507011	1.773000E+01	  0.073507011	4.358000E+00
269	  0.073707417	-6.385000E+00	  0.073707417	1.676860E+02	  0.073707417	1.777200E+01	  0.073707417	4.718000E+00
270	  0.073907815	-6.389000E+00	  0.073907815	1.667410E+02	  0.073907815	1.781100E+01	  0.073907815	5.082000E+00
271	  0.074108213	-6.394000E+00	  0.074108213	1.658500E+02	  0.074108213	1.785200E+01	  0.074108213	5.424000E+00
272	  0.074308619	-6.404000E+00	  0.074308619	1.648970E+02	  0.074308619	1.791100E+01	  0.074308619	5.790000E+00
273	  0.074509017	-6.410000E+00	  0.074509017	1.639720E+02	  0.074509017	1.796200E+01	  0.074509017	6.146000E+00
274	  0.074709415	-6.424000E+00	  0.074709415	1.630480E+02	  0.074709415	1.803400E+01	  0.074709415	6.500000E+00
275	  0.074909821	-6.434000E+00	  0.074909821	1.621150E+02	  0.074909821	1.809900E+01	  0.074909821	6.858000E+00
276	  0.075110219	-6.440000E+00	  0.075110219	1.612410E+02	  0.075110219	1.815300E+01	  0.075110219	7.195000E+00
277	  0.075310618	-6.447000E+00	  0.075310618	1.603360E+02	  0.075310618	1.821400E+01	  0.075310618	7.544000E+00
278	  0.075511023	-6.454000E+00	  0.075511023	1.594120E+02	  0.075511023	1.827700E+01	  0.075511023	7.901000E+00
279	  0.075711422	-6.470000E+00	  0.075711422	1.585310E+02	  0.075711422	1.836400E+01	  0.075711422	8.238000E+00
280	  0.075911827	-6.474000E+00	  0.075911827	1.576490E+02	  0.075911827	1.842200E+01	  0.075911827	8.580000E+00
281	  0.076112226	-6.485000E+00	  0.076112226	1.567490E+02	  0.076112226	1.850100E+01	  0.076112226	8.927000E+00
282	  0.076312624	-6.495000E+00	  0.076312624	1.558420E+02	  0.076312624	1.858000E+01	  0.076312624	9.278000E+00
283	  0.076513030	-6.501000E+00	  0.076513030	1.550340E+02	  0.076513030	1.864400E+01	  0.076513030	9.592000E+00
284	  0.076713428	-6.510000E+00	  0.076713428	1.541630E+02	  0.076713428	1.872400E+01	  0.076713428	9.929000E+00
285	  0.076913826	-6.522000E+00	  0.076913826	1.532540E+02	  0.076913826	1.881300E+01	  0.076913826	1.028200E+01
286	  0.077114232	-6.536000E+00	  0.077114232	1.524190E+02	  0.077114232	1.890700E+01	  0.077114232	1.060400E+01
287	  0.077314630	-6.545000E+00	  0.077314630	1.515550E+02	  0.077314630	1.899400E+01	  0.077314630	1.093900E+01
288	  0.077515028	-6.560000E+00	  0.077515028	1.507170E+02	  0.077515028	1.909500E+01	  0.077515028	1.126300E+01
289	  0.077715434	-6.573000E+00	  0.077715434	1.498640E+02	  0.077715434	1.919300E+01	  0.077715434	1.159300E+01
290	  0.077915832	-6.589000E+00	  0.077915832	1.490330E+02	  0.077915832	1.930000E+01	  0.077915832	1.191400E+01
291	  0.078116231	-6.601000E+00	  0.078116231	1.481820E+02	  0.078116231	1.940100E+01	  0.078116231	1.224500E+01
292	  0.078316636	-6.620000E+00	  0.078316636	1.473320E+02	  0.078316636	1.952200E+01	  0.078316636	1.257200E+01
293	  0.078517035	-6.636000E+00	  0.078517035	1.464230E+02	  0.078517035	1.964400E+01	  0.078517035	1.292400E+01
294	  0.078717433	-6.646000E+00	  0.078717433	1.455670E+02	  0.078717433	1.974700E+01	  0.078717433	1.325900E+01
295	  0.078917839	-6.660000E+00	  0.078917839	1.447260E+02	  0.078917839	1.986100E+01	  0.078917839	1.358700E+01
296	  0.079118237	-6.674000E+00	  0.079118237	1.438990E+02	  0.079118237	1.997900E+01	  0.079118237	1.390800E+01
297	  0.079318643	-6.687000E+00	  0.079318643	1.430750E+02	  0.079318643	2.009300E+01	  0.079318643	1.423000E+01
298	  0.079519041	-6.698000E+00	  0.079519041	1.422360E+02	  0.079519041	2.020700E+01	  0.079519041	1.456000E+01
299	  0.079719439	-6.722000E+00	  0.079719439	1.413930E+02	  0.079719439	2.036000E+01	  0.079719439	1.488300E+01
300	  0.079919845	-6.735000E+00	  0.079919845	1.405830E+02	  0.079919845	2.048000E+01	  0.079919845	1.520000E+01
301	  0.080120243	-6.753000E+00	  0.080120243	1.397400E+02	  0.080120243	2.062100E+01	  0.080120243	1.552800E+01
302	  0.080320641	-6.770000E+00	  0.080320641	1.389400E+02	  0.080320641	2.075900E+01	  0.080320641	1.583800E+01
303	  0.080521047	-6.784000E+00	  0.080521047	1.381400E+02	  0.080521047	2.088800E+01	  0.080521047	1.615200E+01
304	  0.080721445	-6.804000E+00	  0.080721445	1.373140E+02	  0.080721445	2.104100E+01	  0.080721445	1.647200E+01
305	  0.080921844	-6.822000E+00	  0.080921844	1.365050E+02	  0.080921844	2.118900E+01	  0.080921844	1.678500E+01
306	  0.081122249	-6.838000E+00	  0.081122249	1.356730E+02	  0.081122249	2.133600E+01	  0.081122249	1.711200E+01
307	  0.081322648	-6.858000E+00	  0.081322648	1.348690E+02	  0.081322648	2.149400E+01	  0.081322648	1.742300E+01
308	  0.081523046	-6.865000E+00	  0.081523046	1.340840E+02	  0.081523046	2.161600E+01	  0.081523046	1.773800E+01
309	  0.081723452	-6.887000E+00	  0.081723452	1.332590E+02	  0.081723452	2.178700E+01	  0.081723452	1.805700E+01
310	  0.081923850	-6.909000E+00	  0.081923850	1.324650E+02	  0.081923850	2.195800E+01	  0.081923850	1.836300E+01
311	  0.082124248	-6.922000E+00	  0.082124248	1.317210E+02	  0.082124248	2.209900E+01	  0.082124248	1.865600E+01
312	  0.082324654	-6.932000E+00	  0.082324654	1.309050E+02	  0.082324654	2.224500E+01	  0.082324654	1.898300E+01
313	  0.082525052	-6.955000E+00	  0.082525052	1.301490E+02	  0.082525052	2.241900E+01	  0.082525052	1.927400E+01
314	  0.082725458	-6.974000E+00	  0.082725458	1.294050E+02	  0.082725458	2.258400E+01	  0.082725458	1.956200E+01
315	  0.082925856	-6.990000E+00	  0.082925856	1.286540E+02	  0.082925856	2.274700E+01	  0.082925856	1.985700E+01
316	  0.083126254	-7.013000E+00	  0.083126254	1.279060E+02	  0.083126254	2.292700E+01	  0.083126254	2.014300E+01
317	  0.083326660	-7.040000E+00	  0.083326660	1.271730E+02	  0.083326660	2.312200E+01	  0.083326660	2.041900E+01
318	  0.083527058	-7.061000E+00	  0.083527058	1.263920E+02	  0.083527058	2.331000E+01	  0.083527058	2.072000E+01
319	  0.083727457	-7.081000E+00	  0.083727457	1.255850E+02	  0.083727457	2.350100E+01	  0.083727457	2.103500E+01
320	  0.083927862	-7.098000E+00	  0.083927862	1.248260E+02	  0.083927862	2.368100E+01	  0.083927862	2.133200E+01
321	  0.084128261	-7.116000E+00	  0.084128261	1.240650E+02	  0.084128261	2.386700E+01	  0.084128261	2.162900E+01
322	  0.084328659	-7.137000E+00	  0.084328659	1.233820E+02	  0.084328659	2.404900E+01	  0.084328659	2.189000E+01
323	  0.084529065	-7.163000E+00	  0.084529065	1.226530E+02	  0.084529065	2.425600E+01	  0.084529065	2.216400E+01
324	  0.084729463	-7.183000E+00	  0.084729463	1.219130E+02	  0.084729463	2.445200E+01	  0.084729463	2.244900E+01
325	  0.084929861	-7.205000E+00	  0.084929861	1.211640E+02	  0.084929861	2.465900E+01	  0.084929861	2.273500E+01
326	  0.085130267	-7.227000E+00	  0.085130267	1.204780E+02	  0.085130267	2.485600E+01	  0.085130267	2.299500E+01
327	  0.085330658	-7.253000E+00	  0.085330658	1.197420E+02	  0.085330658	2.507500E+01	  0.085330658	2.327100E+01
328	  0.085531056	-7.275000E+00	  0.085531056	1.190530E+02	  0.085531056	2.527800E+01	  0.085531056	2.353100E+01
329	  0.085731462	-7.301000E+00	  0.085731462	1.183300E+02	  0.085731462	2.550100E+01	  0.085731462	2.380100E+01
330	  0.085931860	-7.333000E+00	  0.085931860	1.176330E+02	  0.085931860	2.574000E+01	  0.085931860	2.404900E+01
331	  0.086132258	-7.352000E+00	  0.086132258	1.168820E+02	  0.086132258	2.595600E+01	  0.086132258	2.433900E+01
332	  0.086332664	-7.379000E+00	  0.086332664	1.161800E+02	  0.086332664	2.618800E+01	  0.086332664	2.459500E+01
333	  0.086533062	-7.404000E+00	  0.086533062	1.154770E+02	  0.086533062	2.641800E+01	  0.086533062	2.485400E+01
334	  0.086733460	-7.420000E+00	  0.086733460	1.147230E+02	  0.086733460	2.663700E+01	  0.086733460	2.514800E+01
335	  0.086933866	-7.445000E+00	  0.086933866	1.140580E+02	  0.086933866	2.686400E+01	  0.086933866	2.539000E+01
336	  0.087134264	-7.473000E+00	  0.087134264	1.133490E+02	  0.087134264	2.711100E+01	  0.087134264	2.564700E+01
337	  0.087334670	-7.492000E+00	  0.087334670	1.126870E+02	  0.087334670	2.732600E+01	  0.087334670	2.589600E+01
338	  0.087535068	-7.510000E+00	  0.087535068	1.120160E+02	  0.087535068	2.754600E+01	  0.087535068	2.614900E+01
339	  0.087735467	-7.534000E+00	  0.087735467	1.113710E+02	  0.087735467	2.777600E+01	  0.087735467	2.638200E+01
340	  0.087935872	-7.558000E+00	  0.087935872	1.107220E+02	  0.087935872	2.800900E+01	  0.087935872	2.661700E+01
341	  0.088136271	-7.584000E+00	  0.088136271	1.101010E+02	  0.088136271	2.824600E+01	  0.088136271	2.683300E+01
342	  0.088336669	-7.607000E+00	  0.088336669	1.094700E+02	  0.088336669	2.847900E+01	  0.088336669	2.706000E+01
343	  0.088537075	-7.638000E+00	  0.088537075	1.088180E+02	  0.088537075	2.874100E+01	  0.088537075	2.728000E+01
344	  0.088737473	-7.665000E+00	  0.088737473	1.081700E+02	  0.088737473	2.899700E+01	  0.088737473	2.750400E+01
345	  0.088937871	-7.686000E+00	  0.088937871	1.075190E+02	  0.088937871	2.923700E+01	  0.088937871	2.773900E+01
346	  0.089138277	-7.712000E+00	  0.089138277	1.068830E+02	  0.089138277	2.949100E+01	  0.089138277	2.795800E+01
347	  0.089338675	-7.738000E+00	  0.089338675	1.062540E+02	  0.089338675	2.974500E+01	  0.089338675	2.817400E+01
348	  0.089539073	-7.765000E+00	  0.089539073	1.056510E+02	  0.089539073	2.999700E+01	  0.089539073	2.837500E+01
349	  0.089739479	-7.790000E+00	  0.089739479	1.050330E+02	  0.089739479	3.025300E+01	  0.089739479	2.858400E+01
350	  0.089939877	-7.819000E+00	  0.089939877	1.044360E+02	  0.089939877	3.051300E+01	  0.089939877	2.877600E+01
351	  0.090140276	-7.841000E+00	  0.090140276	1.037960E+02	  0.090140276	3.077100E+01	  0.090140276	2.899900E+01
352	  0.090340681	-7.866000E+00	  0.090340681	1.032270E+02	  0.090340681	3.101900E+01	  0.090340681	2.918500E+01
353	  0.090541080	-7.900000E+00	  0.090541080	1.026190E+02	  0.090541080	3.130700E+01	  0.090541080	2.936600E+01
354	  0.090741485	-7.922000E+00	  0.090741485	1.020140E+02	  0.090741485	3.156200E+01	  0.090741485	2.957100E+01
355	  0.090941884	-7.956000E+00	  0.090941884	1.014210E+02	  0.090941884	3.185000E+01	  0.090941884	2.974300E+01
356	  0.091142282	-7.983000E+00	  0.091142282	1.008310E+02	  0.091142282	3.211900E+01	  0.091142282	2.992800E+01
357	  0.091342688	-8.007000E+00	  0.091342688	1.002140E+02	  0.091342688	3.239300E+01	  0.091342688	3.012900E+01
358	  0.091543086	-8.034000E+00	  0.091543086	9.963800E+01	  0.091543086	3.266500E+01	  0.091543086	3.030300E+01
359	  0.091743484	-8.063000E+00	  0.091743484	9.899000E+01	  0.091743484	3.297000E+01	  0.091743484	3.050200E+01
360	  0.091943890	-8.083000E+00	  0.091943890	9.837100E+01	  0.091943890	3.324100E+01	  0.091943890	3.070900E+01
361	  0.092144288	-8.115000E+00	  0.092144288	9.780800E+01	  0.092144288	3.352900E+01	  0.092144288	3.086300E+01
362	  0.092344686	-8.127000E+00	  0.092344686	9.724400E+01	  0.092344686	3.376600E+01	  0.092344686	3.106300E+01
363	  0.092545092	-8.145000E+00	  0.092545092	9.666200E+01	  0.092545092	3.402900E+01	  0.092545092	3.125500E+01
364	  0.092745490	-8.169000E+00	  0.092745490	9.610500E+01	  0.092745490	3.430000E+01	  0.092745490	3.142200E+01
365	  0.092945889	-8.185000E+00	  0.092945889	9.555000E+01	  0.092945889	3.455500E+01	  0.092945889	3.160300E+01
366	  0.093146294	-8.213000E+00	  0.093146294	9.507000E+01	  0.093146294	3.481100E+01	  0.093146294	3.172700E+01
367	  0.093346693	-8.233000E+00	  0.093346693	9.454800E+01	  0.093346693	3.506600E+01	  0.093346693	3.188500E+01
368	  0.093547091	-8.257000E+00	  0.093547091	9.404000E+01	  0.093547091	3.533000E+01	  0.093547091	3.202300E+01
369	  0.093747497	-8.279000E+00	  0.093747497	9.358200E+01	  0.093747497	3.557000E+01	  0.093747497	3.214700E+01
370	  0.093947895	-8.302000E+00	  0.093947895	9.304400E+01	  0.093947895	3.584600E+01	  0.093947895	3.229900E+01
371	  0.094148301	-8.320000E+00	  0.094148301	9.253700E+01	  0.094148301	3.609900E+01	  0.094148301	3.245000E+01
372	  0.094348699	-8.346000E+00	  0.094348699	9.203700E+01	  0.094348699	3.637000E+01	  0.094348699	3.257700E+01
373	  0.094549097	-8.368000E+00	  0.094549097	9.155500E+01	  0.094549097	3.662700E+01	  0.094549097	3.270500E+01
374	  0.094749503	-8.398000E+00	  0.094749503	9.112900E+01	  0.094749503	3.688200E+01	  0.094749503	3.278700E+01
375	  0.094949901	-8.410000E+00	  0.094949901	9.064200E+01	  0.094949901	3.712200E+01	  0.094949901	3.293900E+01
376	  0.095150299	-8.434000E+00	  0.095150299	9.015900E+01	  0.095150299	3.738900E+01	  0.095150299	3.305700E+01
377	  0.095350705	-8.453000E+00	  0.095350705	8.970000E+01	  0.095350705	3.763500E+01	  0.095350705	3.318000E+01
378	  0.095551103	-8.473000E+00	  0.095551103	8.923300E+01	  0.095551103	3.789000E+01	  0.095551103	3.330000E+01
379	  0.095751502	-8.495000E+00	  0.095751502	8.879500E+01	  0.095751502	3.814000E+01	  0.095751502	3.339900E+01
380	  0.095951907	-8.520000E+00	  0.095951907	8.835400E+01	  0.095951907	3.839900E+01	  0.095951907	3.349200E+01
381	  0.096152306	-8.547000E+00	  0.096152306	8.790100E+01	  0.096152306	3.866900E+01	  0.096152306	3.358100E+01
382	  0.096352704	-8.563000E+00	  0.096352704	8.745400E+01	  0.096352704	3.891200E+01	  0.096352704	3.369800E+01
383	  0.096553110	-8.585000E+00	  0.096553110	8.696700E+01	  0.096553110	3.918900E+01	  0.096553110	3.381300E+01
384	  0.096753508	-8.607000E+00	  0.096753508	8.646700E+01	  0.096753508	3.947600E+01	  0.096753508	3.392700E+01
385	  0.096953906	-8.627000E+00	  0.096953906	8.602900E+01	  0.096953906	3.972900E+01	  0.096953906	3.402500E+01
386	  0.097154312	-8.643000E+00	  0.097154312	8.555400E+01	  0.097154312	3.999400E+01	  0.097154312	3.414500E+01
387	  0.097354710	-8.655000E+00	  0.097354710	8.507300E+01	  0.097354710	4.025100E+01	  0.097354710	3.428100E+01
388	  0.097555116	-8.673000E+00	  0.097555116	8.460500E+01	  0.097555116	4.052200E+01	  0.097555116	3.439000E+01
389	  0.097755514	-8.683000E+00	  0.097755514	8.412900E+01	  0.097755514	4.077700E+01	  0.097755514	3.452700E+01
390	  0.097955912	-8.696000E+00	  0.097955912	8.366500E+01	  0.097955912	4.103700E+01	  0.097955912	3.464900E+01
391	  0.098156318	-8.704000E+00	  0.098156318	8.320800E+01	  0.098156318	4.128300E+01	  0.098156318	3.478300E+01
392	  0.098356716	-8.710000E+00	  0.098356716	8.276100E+01	  0.098356716	4.152100E+01	  0.098356716	3.492100E+01
393	  0.098557115	-8.720000E+00	  0.098557115	8.234400E+01	  0.098557115	4.175700E+01	  0.098557115	3.503000E+01
394	  0.098757520	-8.722000E+00	  0.098757520	8.189600E+01	  0.098757520	4.199000E+01	  0.098757520	3.518000E+01
395	  0.098957919	-8.731000E+00	  0.098957919	8.149500E+01	  0.098957919	4.222000E+01	  0.098957919	3.528500E+01
396	  0.099158317	-8.734000E+00	  0.099158317	8.100100E+01	  0.099158317	4.248500E+01	  0.099158317	3.544300E+01
397	  0.099358723	-8.746000E+00	  0.099358723	8.060400E+01	  0.099358723	4.272100E+01	  0.099358723	3.553800E+01
398	  0.099559121	-8.746000E+00	  0.099559121	8.014400E+01	  0.099559121	4.296600E+01	  0.099559121	3.569300E+01
399	  0.099759519	-8.754000E+00	  0.099759519	7.972100E+01	  0.099759519	4.321100E+01	  0.099759519	3.580600E+01
400	  0.099959925	-8.763000E+00	  0.099959925	7.931100E+01	  0.099959925	4.345300E+01	  0.099959925	3.590900E+01
401	  0.100160323	-8.756000E+00	  0.100160323	7.887400E+01	  0.100160323	4.367700E+01	  0.100160323	3.608100E+01
402	  0.100360721	-8.760000E+00	  0.100360721	7.850600E+01	  0.100360721	4.388800E+01	  0.100360721	3.618800E+01
403	  0.100561127	-8.756000E+00	  0.100561127	7.807400E+01	  0.100561127	4.412000E+01	  0.100561127	3.634500E+01
404	  0.100761525	-8.765000E+00	  0.100761525	7.765400E+01	  0.100761525	4.437600E+01	  0.100761525	3.644800E+01
405	  0.100961931	-8.764000E+00	  0.100961931	7.718700E+01	  0.100961931	4.464000E+01	  0.100961931	3.660000E+01
406	  0.101162329	-8.773000E+00	  0.101162329	7.682100E+01	  0.101162329	4.486800E+01	  0.101162329	3.668500E+01
407	  0.101362728	-8.769000E+00	  0.101362728	7.640500E+01	  0.101362728	4.509800E+01	  0.101362728	3.683500E+01
408	  0.101563133	-8.771000E+00	  0.101563133	7.600200E+01	  0.101563133	4.533900E+01	  0.101563133	3.695200E+01
409	  0.101763532	-8.769000E+00	  0.101763532	7.549700E+01	  0.101763532	4.563200E+01	  0.101763532	3.712000E+01
410	  0.101963930	-8.769000E+00	  0.101963930	7.508400E+01	  0.101963930	4.587700E+01	  0.101963930	3.724800E+01
411	  0.102164336	-8.758000E+00	  0.102164336	7.461300E+01	  0.102164336	4.613600E+01	  0.102164336	3.743800E+01
412	  0.102364734	-8.768000E+00	  0.102364734	7.420500E+01	  0.102364734	4.640300E+01	  0.102364734	3.752600E+01
413	  0.102565132	-8.759000E+00	  0.102565132	7.371300E+01	  0.102565132	4.668600E+01	  0.102565132	3.771000E+01
414	  0.102765530	-8.759000E+00	  0.102765530	7.323400E+01	  0.102765530	4.698200E+01	  0.102765530	3.785500E+01
415	  0.102965929	-8.738000E+00	  0.102965929	7.277700E+01	  0.102965929	4.722600E+01	  0.102965929	3.808000E+01
416	  0.103166327	-8.727000E+00	  0.103166327	7.234500E+01	  0.103166327	4.747700E+01	  0.103166327	3.825300E+01
417	  0.103366733	-8.709000E+00	  0.103366733	7.182900E+01	  0.103366733	4.777000E+01	  0.103366733	3.848400E+01
418	  0.103567131	-8.701000E+00	  0.103567131	7.137000E+01	  0.103567131	4.805100E+01	  0.103567131	3.865400E+01
419	  0.103767529	-8.687000E+00	  0.103767529	7.089700E+01	  0.103767529	4.833100E+01	  0.103767529	3.885400E+01
420	  0.103967935	-8.672000E+00	  0.103967935	7.043900E+01	  0.103967935	4.860600E+01	  0.103967935	3.904900E+01
421	  0.104168333	-8.653000E+00	  0.104168333	6.991800E+01	  0.104168333	4.891700E+01	  0.104168333	3.928400E+01
422	  0.104368731	-8.641000E+00	  0.104368731	6.946100E+01	  0.104368731	4.920200E+01	  0.104368731	3.946900E+01
423	  0.104569137	-8.622000E+00	  0.104569137	6.893600E+01	  0.104569137	4.952500E+01	  0.104569137	3.970200E+01
424	  0.104769535	-8.617000E+00	  0.104769535	6.845600E+01	  0.104769535	4.984600E+01	  0.104769535	3.986300E+01
425	  0.104969934	-8.597000E+00	  0.104969934	6.791700E+01	  0.104969934	5.018500E+01	  0.104969934	4.010600E+01
426	  0.105170339	-8.588000E+00	  0.105170339	6.740200E+01	  0.105170339	5.053400E+01	  0.105170339	4.028700E+01
427	  0.105370738	-8.572000E+00	  0.105370738	6.686900E+01	  0.105370738	5.088500E+01	  0.105370738	4.051000E+01
428	  0.105571143	-8.564000E+00	  0.105571143	6.631800E+01	  0.105571143	5.127100E+01	  0.105571143	4.069400E+01
429	  0.105771542	-8.553000E+00	  0.105771542	6.575200E+01	  0.105771542	5.166600E+01	  0.105771542	4.089800E+01
430	  0.105971940	-8.540000E+00	  0.105971940	6.519400E+01	  0.105971940	5.205800E+01	  0.105971940	4.110600E+01
431	  0.106172346	-8.533000E+00	  0.106172346	6.470600E+01	  0.106172346	5.241200E+01	  0.106172346	4.126900E+01
432	  0.106372744	-8.529000E+00	  0.106372744	6.415700E+01	  0.106372744	5.282200E+01	  0.106372744	4.142700E+01
433	  0.106573142	-8.516000E+00	  0.106573142	6.360600E+01	  0.106573142	5.322500E+01	  0.106573142	4.162700E+01
434	  0.106773548	-8.512000E+00	  0.106773548	6.297200E+01	  0.106773548	5.371200E+01	  0.106773548	4.180100E+01
435	  0.106973946	-8.500000E+00	  0.106973946	6.228700E+01	  0.106973946	5.423400E+01	  0.106973946	4.202600E+01
436	  0.107174344	-8.496000E+00	  0.107174344	6.183200E+01	  0.107174344	5.459200E+01	  0.107174344	4.215100E+01
437	  0.107374750	-8.493000E+00	  0.107374750	6.120400E+01	  0.107374750	5.509600E+01	  0.107374750	4.230500E+01
438	  0.107575148	-8.481000E+00	  0.107575148	6.066000E+01	  0.107575148	5.552300E+01	  0.107575148	4.249000E+01
439	  0.107775547	-8.472000E+00	  0.107775547	6.002500E+01	  0.107775547	5.603800E+01	  0.107775547	4.266800E+01
440	  0.107975952	-8.465000E+00	  0.107975952	5.938900E+01	  0.107975952	5.656300E+01	  0.107975952	4.283700E+01
441	  0.108176351	-8.459000E+00	  0.108176351	5.874700E+01	  0.108176351	5.710200E+01	  0.108176351	4.299500E+01
442	  0.108376749	-8.447000E+00	  0.108376749	5.811800E+01	  0.108376749	5.763000E+01	  0.108376749	4.318300E+01
443	  0.108577155	-8.430000E+00	  0.108577155	5.749100E+01	  0.108577155	5.815900E+01	  0.108577155	4.338900E+01
444	  0.108777553	-8.423000E+00	  0.108777553	5.690400E+01	  0.108777553	5.867100E+01	  0.108777553	4.353100E+01
445	  0.108977959	-8.415000E+00	  0.108977959	5.619600E+01	  0.108977959	5.929800E+01	  0.108977959	4.369200E+01
446	  0.109178357	-8.396000E+00	  0.109178357	5.552000E+01	  0.109178357	5.989600E+01	  0.109178357	4.390700E+01
447	  0.109378755	-8.386000E+00	  0.109378755	5.483600E+01	  0.109378755	6.051700E+01	  0.109378755	4.406900E+01
448	  0.109579161	-8.376000E+00	  0.109579161	5.419000E+01	  0.109579161	6.111400E+01	  0.109579161	4.421300E+01
449	  0.109779559	-8.365000E+00	  0.109779559	5.355700E+01	  0.109779559	6.170700E+01	  0.109779559	4.435600E+01
450	  0.109979957	-8.359000E+00	  0.109979957	5.280300E+01	  0.109979957	6.242800E+01	  0.109979957	4.447800E+01
451	  0.110180363	-8.346000E+00	  0.110180363	5.216200E+01	  0.110180363	6.304500E+01	  0.110180363	4.462500E+01
452	  0.110380761	-8.345000E+00	  0.110380761	5.149500E+01	  0.110380761	6.370400E+01	  0.110380761	4.468800E+01
453	  0.110581160	-8.339000E+00	  0.110581160	5.080200E+01	  0.110581160	6.439400E+01	  0.110581160	4.477600E+01
454	  0.110781565	-8.331000E+00	  0.110781565	5.007000E+01	  0.110781565	6.513300E+01	  0.110781565	4.486900E+01
455	  0.110981964	-8.311000E+00	  0.110981964	4.937900E+01	  0.110981964	6.583700E+01	  0.110981964	4.503000E+01
456	  0.111182362	-8.315000E+00	  0.111182362	4.865100E+01	  0.111182362	6.659600E+01	  0.111182362	4.501800E+01
457	  0.111382768	-8.309000E+00	  0.111382768	4.792400E+01	  0.111382768	6.736100E+01	  0.111382768	4.506600E+01
458	  0.111583166	-8.305000E+00	  0.111583166	4.714200E+01	  0.111583166	6.819600E+01	  0.111583166	4.508900E+01
459	  0.111783572	-8.315000E+00	  0.111783572	4.638800E+01	  0.111783572	6.900600E+01	  0.111783572	4.499600E+01
460	  0.111983970	-8.305000E+00	  0.111983970	4.566300E+01	  0.111983970	6.980100E+01	  0.111983970	4.503000E+01
461	  0.112184368	-8.306000E+00	  0.112184368	4.490100E+01	  0.112184368	7.064100E+01	  0.112184368	4.496400E+01
462	  0.112384774	-8.308000E+00	  0.112384774	4.405400E+01	  0.112384774	7.158400E+01	  0.112384774	4.487600E+01
463	  0.112585172	-8.305000E+00	  0.112585172	4.329200E+01	  0.112585172	7.244600E+01	  0.112585172	4.480800E+01
464	  0.112785570	-8.309000E+00	  0.112785570	4.244700E+01	  0.112785570	7.340300E+01	  0.112785570	4.465400E+01
465	  0.112985976	-8.312000E+00	  0.112985976	4.160100E+01	  0.112985976	7.437400E+01	  0.112985976	4.449000E+01
466	  0.113186374	-8.313000E+00	  0.113186374	4.074100E+01	  0.113186374	7.537000E+01	  0.113186374	4.431200E+01
467	  0.113386773	-8.317000E+00	  0.113386773	3.993100E+01	  0.113386773	7.631100E+01	  0.113386773	4.409900E+01
468	  0.113587178	-8.330000E+00	  0.113587178	3.911400E+01	  0.113587178	7.725200E+01	  0.113587178	4.378900E+01
469	  0.113787577	-8.335000E+00	  0.113787577	3.816000E+01	  0.113787577	7.837400E+01	  0.113787577	4.347600E+01
470	  0.113987975	-8.338000E+00	  0.113987975	3.739000E+01	  0.113987975	7.928500E+01	  0.113987975	4.320200E+01
471	  0.114188381	-8.349000E+00	  0.114188381	3.649800E+01	  0.114188381	8.032700E+01	  0.114188381	4.279800E+01
472	  0.114388779	-8.360000E+00	  0.114388779	3.560400E+01	  0.114388779	8.137500E+01	  0.114388779	4.236800E+01
473	  0.114589177	-8.363000E+00	  0.114589177	3.477700E+01	  0.114589177	8.236400E+01	  0.114589177	4.199400E+01
474	  0.114789583	-8.386000E+00	  0.114789583	3.386400E+01	  0.114789583	8.339300E+01	  0.114789583	4.138900E+01
475	  0.114989981	-8.396000E+00	  0.114989981	3.300500E+01	  0.114989981	8.439600E+01	  0.114989981	4.088400E+01
476	  0.115190387	-8.411000E+00	  0.115190387	3.213400E+01	  0.115190387	8.539300E+01	  0.115190387	4.030500E+01
477	  0.115390785	-8.437000E+00	  0.115390785	3.122700E+01	  0.115390785	8.638000E+01	  0.115390785	3.957600E+01
478	  0.115591183	-8.454000E+00	  0.115591183	3.026700E+01	  0.115591183	8.745100E+01	  0.115591183	3.885100E+01
479	  0.115791589	-8.482000E+00	  0.115791589	2.940900E+01	  0.115791589	8.834500E+01	  0.115791589	3.807400E+01
480	  0.115991987	-8.505000E+00	  0.115991987	2.846600E+01	  0.115991987	8.933800E+01	  0.115991987	3.723900E+01
481	  0.116192386	-8.540000E+00	  0.116192386	2.754800E+01	  0.116192386	9.023100E+01	  0.116192386	3.630400E+01
482	  0.116392791	-8.572000E+00	  0.116392791	2.656500E+01	  0.116392791	9.118000E+01	  0.116392791	3.530100E+01
483	  0.116593190	-8.620000E+00	  0.116593190	2.558800E+01	  0.116593190	9.200600E+01	  0.116593190	3.415000E+01
484	  0.116793588	-8.648000E+00	  0.116793588	2.452900E+01	  0.116793588	9.299400E+01	  0.116793588	3.303600E+01
485	  0.116993994	-8.697000E+00	  0.116993994	2.354300E+01	  0.116993994	9.374500E+01	  0.116993994	3.180600E+01
486	  0.117194392	-8.732000E+00	  0.117194392	2.250200E+01	  0.117194392	9.459900E+01	  0.117194392	3.059400E+01
487	  0.117394790	-8.785000E+00	  0.117394790	2.145000E+01	  0.117394790	9.529600E+01	  0.117394790	2.921200E+01
488	  0.117595196	-8.826000E+00	  0.117595196	2.037100E+01	  0.117595196	9.605200E+01	  0.117595196	2.785700E+01
489	  0.117795594	-8.879000E+00	  0.117795594	1.926700E+01	  0.117795594	9.668600E+01	  0.117795594	2.636800E+01
490	  0.117995992	-8.929000E+00	  0.117995992	1.815200E+01	  0.117995992	9.729100E+01	  0.117995992	2.486400E+01
491	  0.118196398	-8.985000E+00	  0.118196398	1.702400E+01	  0.118196398	9.780400E+01	  0.118196398	2.329700E+01
492	  0.118396796	-9.039000E+00	  0.118396796	1.590000E+01	  0.118396796	9.825600E+01	  0.118396796	2.172500E+01
493	  0.118597202	-9.097000E+00	  0.118597202	1.468300E+01	  0.118597202	9.868200E+01	  0.118597202	2.001700E+01
494	  0.118797600	-9.151000E+00	  0.118797600	1.355500E+01	  0.118797600	9.900300E+01	  0.118797600	1.842300E+01
495	  0.118997999	-9.228000E+00	  0.118997999	1.237700E+01	  0.118997999	9.909100E+01	  0.118997999	1.667200E+01
496	  0.119198404	-9.288000E+00	  0.119198404	1.114000E+01	  0.119198404	9.928400E+01	  0.119198404	1.492700E+01
497	  0.119398803	-9.360000E+00	  0.119398803	9.909000E+00	  0.119398803	9.928800E+01	  0.119398803	1.315600E+01
498	  0.119599201	-9.425000E+00	  0.119599201	8.728000E+00	  0.119599201	9.924800E+01	  0.119599201	1.148700E+01
499	  0.119799607	-9.508000E+00	  0.119799607	7.462000E+00	  0.119799607	9.902800E+01	  0.119799607	9.693000E+00
500	  0.120000005	-9.583000E+00	  0.120000005	6.223000E+00	  0.120000005	9.877800E+01	  0.120000005	7.983000E+00
