! Anritsu VNA Master:             	Model: MS2036C/10/77
! SN:             	1601066
! /card0/usr/18may27.balun/5b.r20.3.txt
! Existing Calibration Information:
! TYPE:             	Current Settings	Active Cal Settings
! TIME:             	05/27/2018 04:03:59 PM	05/27/2018 03:52:12 PM
! INTERNAL TEMP:    	51.8 C	52.5 C
! # POINTS:         	500	500
! START FREQ:       	20.000 MHz	20.000 MHz
! STOP FREQ:        	120.000 MHz	120.000 MHz
! SOURCE POWER:     	High	High
! IFBW:             	50 Hz	50 Hz
! AVG FACTOR:       	  1 	  1 
! REF PLANE 1:      	0 mm	0 mm
! REF PLANE 2:      	0 mm	0 mm
! CAL TYPE:         	Full S11	Full S11
! CAL METHOD:       	SOLT	SOLT
! CAL LINE TYPE:    	Coax	Coax
! DUT PORT 1:       	K-Conn(M)	K-Conn(M)
! DUT PORT 2:       	K-Conn(M)	K-Conn(M)
! CAL STATUS:       	OK: Accuracy High	--
! PROP-V:       	0.700
! CABLE LOSS:       	0.000 dB/m
! REF IMPEDANCE:       	50.0
! Trace Specific Parameters:	TR1	TR2	TR3	TR4
! TRACE.#.Y (GRAPH TYPE)	LOG MAG	PHASE	REAL IMPEDANCE	IMAGINARY IMPEDANCE
! TRACE.#.X 	FREQ.GHZ	FREQ.GHZ	FREQ.GHZ	FREQ.GHZ
! S-PARAMETER	S11	S11	S11	S11
! SMOOTH/APERTURE %	0	0	0	0
! WINDOW	NSL	NSL	NSL	NSL
! GATING	OFF	OFF	OFF	OFF
! FGTD	OFF	OFF	OFF	OFF
Marker Information per Trace:	TR1	TR2	TR3	TR4
!MK1	--	--	--	"MK1 TR4:  70.100 200 MHz,Z:(32.268 ohm, 35.132 ohm)"
!MK2	--	--	--	--
!MK3	--	--	--	--
!MK4	--	--	--	--
!MK5	--	--	--	--
!MK6	--	--	--	--
!MK7	--	--	--	--
!MK8	--	--	--	--
PNT	TR1.FREQ.GHZ	TR1.LOG MAG.dB	TR2.FREQ.GHZ	TR2.PHASE.deg	TR3.FREQ.GHZ	TR3.REAL IMPEDANCE.ohm	TR4.FREQ.GHZ	TR4.IMAGINARY IMPEDANCE.ohm
1	  0.020000000	-7.266000E+00	  0.020000000	1.546580E+02	  0.020000000	2.061100E+01	  0.020000000	9.408000E+00
2	  0.020200402	-7.269000E+00	  0.020200402	1.543900E+02	  0.020200402	2.063700E+01	  0.020200402	9.508000E+00
3	  0.020400802	-7.270000E+00	  0.020400802	1.541480E+02	  0.020400802	2.065500E+01	  0.020400802	9.599000E+00
4	  0.020601204	-7.270000E+00	  0.020601204	1.539010E+02	  0.020601204	2.067200E+01	  0.020601204	9.693000E+00
5	  0.020801604	-7.267000E+00	  0.020801604	1.536190E+02	  0.020801604	2.068400E+01	  0.020801604	9.800000E+00
6	  0.021002004	-7.265000E+00	  0.021002004	1.533620E+02	  0.021002004	2.069900E+01	  0.021002004	9.898000E+00
7	  0.021202406	-7.265000E+00	  0.021202406	1.531190E+02	  0.021202406	2.071700E+01	  0.021202406	9.990000E+00
8	  0.021402806	-7.267000E+00	  0.021402806	1.528570E+02	  0.021402806	2.074100E+01	  0.021402806	1.008900E+01
9	  0.021603208	-7.273000E+00	  0.021603208	1.526350E+02	  0.021603208	2.077000E+01	  0.021603208	1.017000E+01
10	  0.021803608	-7.276000E+00	  0.021803608	1.523520E+02	  0.021803608	2.080000E+01	  0.021803608	1.027600E+01
11	  0.022004008	-7.278000E+00	  0.022004008	1.521220E+02	  0.022004008	2.082100E+01	  0.022004008	1.036200E+01
12	  0.022204408	-7.276000E+00	  0.022204408	1.518730E+02	  0.022204408	2.083600E+01	  0.022204408	1.045800E+01
13	  0.022404809	-7.274000E+00	  0.022404809	1.515940E+02	  0.022404809	2.085200E+01	  0.022404809	1.056500E+01
14	  0.022605211	-7.283000E+00	  0.022605211	1.513520E+02	  0.022605211	2.089400E+01	  0.022605211	1.065200E+01
15	  0.022805611	-7.282000E+00	  0.022805611	1.510980E+02	  0.022805611	2.091200E+01	  0.022805611	1.074900E+01
16	  0.023006011	-7.280000E+00	  0.023006011	1.508430E+02	  0.023006011	2.092600E+01	  0.023006011	1.084700E+01
17	  0.023206413	-7.279000E+00	  0.023206413	1.505590E+02	  0.023206413	2.094600E+01	  0.023206413	1.095600E+01
18	  0.023406813	-7.275000E+00	  0.023406813	1.502930E+02	  0.023406813	2.095800E+01	  0.023406813	1.105900E+01
19	  0.023607215	-7.274000E+00	  0.023607215	1.500180E+02	  0.023607215	2.097800E+01	  0.023607215	1.116400E+01
20	  0.023807615	-7.275000E+00	  0.023807615	1.497490E+02	  0.023807615	2.100300E+01	  0.023807615	1.126600E+01
21	  0.024008015	-7.275000E+00	  0.024008015	1.495000E+02	  0.024008015	2.102200E+01	  0.024008015	1.136200E+01
22	  0.024208417	-7.272000E+00	  0.024208417	1.492690E+02	  0.024208417	2.103400E+01	  0.024208417	1.145200E+01
23	  0.024408817	-7.275000E+00	  0.024408817	1.490240E+02	  0.024408817	2.106100E+01	  0.024408817	1.154300E+01
24	  0.024609219	-7.280000E+00	  0.024609219	1.488170E+02	  0.024609219	2.109200E+01	  0.024609219	1.162000E+01
25	  0.024809619	-7.278000E+00	  0.024809619	1.485870E+02	  0.024809619	2.110800E+01	  0.024809619	1.170900E+01
26	  0.025010020	-7.278000E+00	  0.025010020	1.483220E+02	  0.025010020	2.113000E+01	  0.025010020	1.181000E+01
27	  0.025210422	-7.283000E+00	  0.025210422	1.480660E+02	  0.025210422	2.116600E+01	  0.025210422	1.190500E+01
28	  0.025410822	-7.284000E+00	  0.025410822	1.478140E+02	  0.025410822	2.119000E+01	  0.025410822	1.200100E+01
29	  0.025611224	-7.283000E+00	  0.025611224	1.475300E+02	  0.025611224	2.121300E+01	  0.025611224	1.211100E+01
30	  0.025811624	-7.283000E+00	  0.025811624	1.472660E+02	  0.025811624	2.123600E+01	  0.025811624	1.221200E+01
31	  0.026012026	-7.275000E+00	  0.026012026	1.469900E+02	  0.026012026	2.124100E+01	  0.026012026	1.232300E+01
32	  0.026212426	-7.272000E+00	  0.026212426	1.467390E+02	  0.026212426	2.125700E+01	  0.026212426	1.242100E+01
33	  0.026412826	-7.270000E+00	  0.026412826	1.464810E+02	  0.026412826	2.127500E+01	  0.026412826	1.252100E+01
34	  0.026613226	-7.267000E+00	  0.026613226	1.462620E+02	  0.026613226	2.128900E+01	  0.026613226	1.260700E+01
35	  0.026813626	-7.263000E+00	  0.026813626	1.460540E+02	  0.026813626	2.129900E+01	  0.026813626	1.269000E+01
36	  0.027014028	-7.267000E+00	  0.027014028	1.458510E+02	  0.027014028	2.132600E+01	  0.027014028	1.276600E+01
37	  0.027214428	-7.266000E+00	  0.027214428	1.456750E+02	  0.027214428	2.134200E+01	  0.027214428	1.283400E+01
38	  0.027414829	-7.266000E+00	  0.027414829	1.455000E+02	  0.027414829	2.136000E+01	  0.027414829	1.290200E+01
39	  0.027615231	-7.270000E+00	  0.027615231	1.452540E+02	  0.027615231	2.139400E+01	  0.027615231	1.299400E+01
40	  0.027815631	-7.278000E+00	  0.027815631	1.450320E+02	  0.027815631	2.143400E+01	  0.027815631	1.307500E+01
41	  0.028016033	-7.280000E+00	  0.028016033	1.447610E+02	  0.028016033	2.146600E+01	  0.028016033	1.317800E+01
42	  0.028216433	-7.283000E+00	  0.028216433	1.444710E+02	  0.028216433	2.150300E+01	  0.028216433	1.328800E+01
43	  0.028416833	-7.285000E+00	  0.028416833	1.441990E+02	  0.028416833	2.153400E+01	  0.028416833	1.339200E+01
44	  0.028617235	-7.286000E+00	  0.028617235	1.439370E+02	  0.028617235	2.156400E+01	  0.028617235	1.349300E+01
45	  0.028817635	-7.288000E+00	  0.028817635	1.436460E+02	  0.028817635	2.159900E+01	  0.028817635	1.360400E+01
46	  0.029018037	-7.288000E+00	  0.029018037	1.433620E+02	  0.029018037	2.162700E+01	  0.029018037	1.371400E+01
47	  0.029218437	-7.282000E+00	  0.029218437	1.430850E+02	  0.029218437	2.164300E+01	  0.029218437	1.382500E+01
48	  0.029418837	-7.280000E+00	  0.029418837	1.428570E+02	  0.029418837	2.166100E+01	  0.029418837	1.391500E+01
49	  0.029619239	-7.276000E+00	  0.029619239	1.426140E+02	  0.029619239	2.167500E+01	  0.029619239	1.401300E+01
50	  0.029819639	-7.276000E+00	  0.029819639	1.424210E+02	  0.029819639	2.169600E+01	  0.029819639	1.408800E+01
51	  0.030020041	-7.276000E+00	  0.030020041	1.422310E+02	  0.030020041	2.171700E+01	  0.030020041	1.416100E+01
52	  0.030220442	-7.279000E+00	  0.030220442	1.420130E+02	  0.030220442	2.174700E+01	  0.030220442	1.424400E+01
53	  0.030420844	-7.285000E+00	  0.030420844	1.417670E+02	  0.030420844	2.179000E+01	  0.030420844	1.433600E+01
54	  0.030621244	-7.293000E+00	  0.030621244	1.414950E+02	  0.030621244	2.184000E+01	  0.030621244	1.443600E+01
55	  0.030821644	-7.297000E+00	  0.030821644	1.411850E+02	  0.030821644	2.188600E+01	  0.030821644	1.455300E+01
56	  0.031022044	-7.295000E+00	  0.031022044	1.408810E+02	  0.031022044	2.191300E+01	  0.031022044	1.467400E+01
57	  0.031222444	-7.283000E+00	  0.031222444	1.406440E+02	  0.031222444	2.191000E+01	  0.031222444	1.477500E+01
58	  0.031422846	-7.281000E+00	  0.031422846	1.403300E+02	  0.031422846	2.194100E+01	  0.031422846	1.489900E+01
59	  0.031623244	-7.274000E+00	  0.031623244	1.400540E+02	  0.031623244	2.195300E+01	  0.031623244	1.501300E+01
60	  0.031823646	-7.270000E+00	  0.031823646	1.398060E+02	  0.031823646	2.197000E+01	  0.031823646	1.511300E+01
61	  0.032024048	-7.264000E+00	  0.032024048	1.395720E+02	  0.032024048	2.198400E+01	  0.032024048	1.520900E+01
62	  0.032224450	-7.252000E+00	  0.032224450	1.393380E+02	  0.032224450	2.198100E+01	  0.032224450	1.531000E+01
63	  0.032424849	-7.246000E+00	  0.032424849	1.391280E+02	  0.032424849	2.198800E+01	  0.032424849	1.539800E+01
64	  0.032625251	-7.240000E+00	  0.032625251	1.389250E+02	  0.032625251	2.199600E+01	  0.032625251	1.548200E+01
65	  0.032825653	-7.238000E+00	  0.032825653	1.387210E+02	  0.032825653	2.201800E+01	  0.032825653	1.556400E+01
66	  0.033026051	-7.240000E+00	  0.033026051	1.385160E+02	  0.033026051	2.204500E+01	  0.033026051	1.564300E+01
67	  0.033226453	-7.242000E+00	  0.033226453	1.383300E+02	  0.033226453	2.207500E+01	  0.033226453	1.571500E+01
68	  0.033426855	-7.247000E+00	  0.033426855	1.380610E+02	  0.033426855	2.212100E+01	  0.033426855	1.581600E+01
69	  0.033627257	-7.253000E+00	  0.033627257	1.378190E+02	  0.033627257	2.216500E+01	  0.033627257	1.590800E+01
70	  0.033827655	-7.254000E+00	  0.033827655	1.375840E+02	  0.033827655	2.219700E+01	  0.033827655	1.599900E+01
71	  0.034028057	-7.260000E+00	  0.034028057	1.372930E+02	  0.034028057	2.225000E+01	  0.034028057	1.610900E+01
72	  0.034228459	-7.263000E+00	  0.034228459	1.370200E+02	  0.034228459	2.229100E+01	  0.034228459	1.621500E+01
73	  0.034428857	-7.270000E+00	  0.034428857	1.367830E+02	  0.034428857	2.233900E+01	  0.034428857	1.630300E+01
74	  0.034629259	-7.269000E+00	  0.034629259	1.365070E+02	  0.034629259	2.237100E+01	  0.034629259	1.641300E+01
75	  0.034829661	-7.267000E+00	  0.034829661	1.362430E+02	  0.034829661	2.240200E+01	  0.034829661	1.651900E+01
76	  0.035030060	-7.261000E+00	  0.035030060	1.359840E+02	  0.035030060	2.241800E+01	  0.035030060	1.662800E+01
77	  0.035230462	-7.255000E+00	  0.035230462	1.357300E+02	  0.035230462	2.243700E+01	  0.035230462	1.673300E+01
78	  0.035430863	-7.249000E+00	  0.035430863	1.355290E+02	  0.035430863	2.244500E+01	  0.035430863	1.681900E+01
79	  0.035631265	-7.247000E+00	  0.035631265	1.353180E+02	  0.035631265	2.246800E+01	  0.035631265	1.690500E+01
80	  0.035831664	-7.250000E+00	  0.035831664	1.351170E+02	  0.035831664	2.250400E+01	  0.035831664	1.698100E+01
81	  0.036032066	-7.256000E+00	  0.036032066	1.349120E+02	  0.036032066	2.254600E+01	  0.036032066	1.705800E+01
82	  0.036232468	-7.267000E+00	  0.036232468	1.346360E+02	  0.036232468	2.261300E+01	  0.036232468	1.715800E+01
83	  0.036432866	-7.274000E+00	  0.036432866	1.343770E+02	  0.036432866	2.266600E+01	  0.036432866	1.725500E+01
84	  0.036633268	-7.279000E+00	  0.036633268	1.340270E+02	  0.036633268	2.272700E+01	  0.036633268	1.739000E+01
85	  0.036833670	-7.281000E+00	  0.036833670	1.337580E+02	  0.036833670	2.276900E+01	  0.036833670	1.749600E+01
86	  0.037034072	-7.279000E+00	  0.037034072	1.334530E+02	  0.037034072	2.280700E+01	  0.037034072	1.762000E+01
87	  0.037234470	-7.277000E+00	  0.037234470	1.331570E+02	  0.037234470	2.284500E+01	  0.037234470	1.773900E+01
88	  0.037434869	-7.268000E+00	  0.037434869	1.328830E+02	  0.037434869	2.285900E+01	  0.037434869	1.785700E+01
89	  0.037635271	-7.259000E+00	  0.037635271	1.326170E+02	  0.037635271	2.287400E+01	  0.037635271	1.797300E+01
90	  0.037835669	-7.246000E+00	  0.037835669	1.323730E+02	  0.037835669	2.287400E+01	  0.037835669	1.808300E+01
91	  0.038036071	-7.239000E+00	  0.038036071	1.321310E+02	  0.038036071	2.289000E+01	  0.038036071	1.818700E+01
92	  0.038236473	-7.234000E+00	  0.038236473	1.319550E+02	  0.038236473	2.290200E+01	  0.038236473	1.826300E+01
93	  0.038436871	-7.233000E+00	  0.038436871	1.317810E+02	  0.038436871	2.292600E+01	  0.038436871	1.833400E+01
94	  0.038637273	-7.231000E+00	  0.038637273	1.315760E+02	  0.038637273	2.295100E+01	  0.038637273	1.841800E+01
95	  0.038837675	-7.236000E+00	  0.038837675	1.313590E+02	  0.038837675	2.299600E+01	  0.038837675	1.850200E+01
96	  0.039038073	-7.239000E+00	  0.039038073	1.311190E+02	  0.039038073	2.304000E+01	  0.039038073	1.859500E+01
97	  0.039238475	-7.243000E+00	  0.039238475	1.308740E+02	  0.039238475	2.308800E+01	  0.039238475	1.869000E+01
98	  0.039438877	-7.245000E+00	  0.039438877	1.306460E+02	  0.039438877	2.312700E+01	  0.039438877	1.878100E+01
99	  0.039639279	-7.246000E+00	  0.039639279	1.304130E+02	  0.039639279	2.316600E+01	  0.039639279	1.887300E+01
100	  0.039839678	-7.250000E+00	  0.039839678	1.301630E+02	  0.039839678	2.321400E+01	  0.039839678	1.897100E+01
101	  0.040040080	-7.248000E+00	  0.040040080	1.299350E+02	  0.040040080	2.324500E+01	  0.040040080	1.906500E+01
102	  0.040240481	-7.242000E+00	  0.040240481	1.296720E+02	  0.040240481	2.326900E+01	  0.040240481	1.917800E+01
103	  0.040440880	-7.238000E+00	  0.040440880	1.294120E+02	  0.040440880	2.329800E+01	  0.040440880	1.928800E+01
104	  0.040641282	-7.232000E+00	  0.040641282	1.291650E+02	  0.040641282	2.332200E+01	  0.040641282	1.939500E+01
105	  0.040841684	-7.226000E+00	  0.040841684	1.289710E+02	  0.040841684	2.333500E+01	  0.040841684	1.948000E+01
106	  0.041042086	-7.227000E+00	  0.041042086	1.287710E+02	  0.041042086	2.337200E+01	  0.041042086	1.956000E+01
107	  0.041242484	-7.231000E+00	  0.041242484	1.285820E+02	  0.041242484	2.341000E+01	  0.041242484	1.963400E+01
108	  0.041442886	-7.242000E+00	  0.041442886	1.284040E+02	  0.041442886	2.347000E+01	  0.041442886	1.969400E+01
109	  0.041643288	-7.251000E+00	  0.041643288	1.281370E+02	  0.041643288	2.353700E+01	  0.041643288	1.979400E+01
110	  0.041843686	-7.262000E+00	  0.041843686	1.278780E+02	  0.041843686	2.360900E+01	  0.041843686	1.988800E+01
111	  0.042044088	-7.265000E+00	  0.042044088	1.276310E+02	  0.042044088	2.365700E+01	  0.042044088	1.998500E+01
112	  0.042244490	-7.271000E+00	  0.042244490	1.273150E+02	  0.042244490	2.372800E+01	  0.042244490	2.010700E+01
113	  0.042444889	-7.275000E+00	  0.042444889	1.270340E+02	  0.042444889	2.378400E+01	  0.042444889	2.021800E+01
114	  0.042645290	-7.272000E+00	  0.042645290	1.267280E+02	  0.042645290	2.382800E+01	  0.042645290	2.034600E+01
115	  0.042845692	-7.269000E+00	  0.042845692	1.264520E+02	  0.042845692	2.386700E+01	  0.042845692	2.046300E+01
116	  0.043046094	-7.261000E+00	  0.043046094	1.261360E+02	  0.043046094	2.389900E+01	  0.043046094	2.060200E+01
117	  0.043246493	-7.252000E+00	  0.043246493	1.258950E+02	  0.043246493	2.391700E+01	  0.043246493	2.071100E+01
118	  0.043446895	-7.248000E+00	  0.043446895	1.256670E+02	  0.043446895	2.394600E+01	  0.043446895	2.080900E+01
119	  0.043647297	-7.245000E+00	  0.043647297	1.254220E+02	  0.043647297	2.397800E+01	  0.043647297	2.091400E+01
120	  0.043847695	-7.249000E+00	  0.043847695	1.251880E+02	  0.043847695	2.403200E+01	  0.043847695	2.100500E+01
121	  0.044048097	-7.252000E+00	  0.044048097	1.249630E+02	  0.044048097	2.407800E+01	  0.044048097	2.109600E+01
122	  0.044248499	-7.254000E+00	  0.044248499	1.246950E+02	  0.044248499	2.413100E+01	  0.044248499	2.120400E+01
123	  0.044448901	-7.254000E+00	  0.044448901	1.244150E+02	  0.044448901	2.418300E+01	  0.044448901	2.131900E+01
124	  0.044649299	-7.255000E+00	  0.044649299	1.241800E+02	  0.044649299	2.422700E+01	  0.044649299	2.141500E+01
125	  0.044849701	-7.255000E+00	  0.044849701	1.239210E+02	  0.044849701	2.427600E+01	  0.044849701	2.152200E+01
126	  0.045050103	-7.258000E+00	  0.045050103	1.236680E+02	  0.045050103	2.432800E+01	  0.045050103	2.162500E+01
127	  0.045250501	-7.255000E+00	  0.045250501	1.234330E+02	  0.045250501	2.436400E+01	  0.045250501	2.172500E+01
128	  0.045450903	-7.256000E+00	  0.045450903	1.231550E+02	  0.045450903	2.441800E+01	  0.045450903	2.184000E+01
129	  0.045651305	-7.247000E+00	  0.045651305	1.228840E+02	  0.045651305	2.444300E+01	  0.045651305	2.196300E+01
130	  0.045851704	-7.239000E+00	  0.045851704	1.226100E+02	  0.045851704	2.447300E+01	  0.045851704	2.208800E+01
131	  0.046052106	-7.233000E+00	  0.046052106	1.223690E+02	  0.046052106	2.450300E+01	  0.046052106	2.219500E+01
132	  0.046252504	-7.224000E+00	  0.046252504	1.221550E+02	  0.046252504	2.452000E+01	  0.046252504	2.229600E+01
133	  0.046452906	-7.226000E+00	  0.046452906	1.219720E+02	  0.046452906	2.456000E+01	  0.046452906	2.237000E+01
134	  0.046653304	-7.224000E+00	  0.046653304	1.217930E+02	  0.046653304	2.458900E+01	  0.046653304	2.244700E+01
135	  0.046853706	-7.233000E+00	  0.046853706	1.215870E+02	  0.046853706	2.465200E+01	  0.046853706	2.252300E+01
136	  0.047054108	-7.237000E+00	  0.047054108	1.213490E+02	  0.047054108	2.471000E+01	  0.047054108	2.261700E+01
137	  0.047254506	-7.243000E+00	  0.047254506	1.211310E+02	  0.047254506	2.476800E+01	  0.047254506	2.270100E+01
138	  0.047454908	-7.249000E+00	  0.047454908	1.208660E+02	  0.047454908	2.483900E+01	  0.047454908	2.280300E+01
139	  0.047655310	-7.255000E+00	  0.047655310	1.205860E+02	  0.047655310	2.491000E+01	  0.047655310	2.291400E+01
140	  0.047855709	-7.255000E+00	  0.047855709	1.203250E+02	  0.047855709	2.496200E+01	  0.047855709	2.302400E+01
141	  0.048056111	-7.252000E+00	  0.048056111	1.200480E+02	  0.048056111	2.501100E+01	  0.048056111	2.314300E+01
142	  0.048256513	-7.243000E+00	  0.048256513	1.197300E+02	  0.048256513	2.505100E+01	  0.048256513	2.328900E+01
143	  0.048456915	-7.236000E+00	  0.048456915	1.194910E+02	  0.048456915	2.507900E+01	  0.048456915	2.339900E+01
144	  0.048657313	-7.232000E+00	  0.048657313	1.192320E+02	  0.048657313	2.512100E+01	  0.048657313	2.351400E+01
145	  0.048857715	-7.224000E+00	  0.048857715	1.190250E+02	  0.048857715	2.514100E+01	  0.048857715	2.361300E+01
146	  0.049058117	-7.226000E+00	  0.049058117	1.187940E+02	  0.049058117	2.519400E+01	  0.049058117	2.370900E+01
147	  0.049258515	-7.228000E+00	  0.049258515	1.185710E+02	  0.049258515	2.524700E+01	  0.049258515	2.380000E+01
148	  0.049458917	-7.230000E+00	  0.049458917	1.183480E+02	  0.049458917	2.530000E+01	  0.049458917	2.389200E+01
149	  0.049659319	-7.232000E+00	  0.049659319	1.181050E+02	  0.049659319	2.535700E+01	  0.049659319	2.399200E+01
150	  0.049859721	-7.232000E+00	  0.049859721	1.178660E+02	  0.049859721	2.540700E+01	  0.049859721	2.409400E+01
151	  0.050060119	-7.235000E+00	  0.050060119	1.176240E+02	  0.050060119	2.546900E+01	  0.050060119	2.419200E+01
152	  0.050260521	-7.231000E+00	  0.050260521	1.173740E+02	  0.050260521	2.551200E+01	  0.050260521	2.430400E+01
153	  0.050460923	-7.234000E+00	  0.050460923	1.171320E+02	  0.050460923	2.557300E+01	  0.050460923	2.440200E+01
154	  0.050661322	-7.231000E+00	  0.050661322	1.168770E+02	  0.050661322	2.562000E+01	  0.050661322	2.451500E+01
155	  0.050861724	-7.227000E+00	  0.050861724	1.165810E+02	  0.050861724	2.567400E+01	  0.050861724	2.464700E+01
156	  0.051062126	-7.225000E+00	  0.051062126	1.163070E+02	  0.051062126	2.572800E+01	  0.051062126	2.476800E+01
157	  0.051262524	-7.216000E+00	  0.051262524	1.160840E+02	  0.051262524	2.575200E+01	  0.051262524	2.487700E+01
158	  0.051462926	-7.215000E+00	  0.051462926	1.158520E+02	  0.051462926	2.580000E+01	  0.051462926	2.497800E+01
159	  0.051663328	-7.208000E+00	  0.051663328	1.156630E+02	  0.051663328	2.582400E+01	  0.051663328	2.507000E+01
160	  0.051863730	-7.208000E+00	  0.051863730	1.154740E+02	  0.051863730	2.586700E+01	  0.051863730	2.515100E+01
161	  0.052064128	-7.207000E+00	  0.052064128	1.152710E+02	  0.052064128	2.591100E+01	  0.052064128	2.524000E+01
162	  0.052264530	-7.209000E+00	  0.052264530	1.150530E+02	  0.052264530	2.596500E+01	  0.052264530	2.533100E+01
163	  0.052464932	-7.214000E+00	  0.052464932	1.148410E+02	  0.052464932	2.603000E+01	  0.052464932	2.541300E+01
164	  0.052665330	-7.219000E+00	  0.052665330	1.145910E+02	  0.052665330	2.610300E+01	  0.052665330	2.551400E+01
165	  0.052865732	-7.223000E+00	  0.052865732	1.143550E+02	  0.052865732	2.616700E+01	  0.052865732	2.561000E+01
166	  0.053066134	-7.226000E+00	  0.053066134	1.141020E+02	  0.053066134	2.623600E+01	  0.053066134	2.571400E+01
167	  0.053266536	-7.225000E+00	  0.053266536	1.138310E+02	  0.053266536	2.629800E+01	  0.053266536	2.583200E+01
168	  0.053466935	-7.221000E+00	  0.053466935	1.135650E+02	  0.053466935	2.634900E+01	  0.053466935	2.595400E+01
169	  0.053667337	-7.217000E+00	  0.053667337	1.132830E+02	  0.053667337	2.640600E+01	  0.053667337	2.608200E+01
170	  0.053867739	-7.211000E+00	  0.053867739	1.130420E+02	  0.053867739	2.644600E+01	  0.053867739	2.619700E+01
171	  0.054068137	-7.210000E+00	  0.054068137	1.127940E+02	  0.054068137	2.650500E+01	  0.054068137	2.630500E+01
172	  0.054268539	-7.212000E+00	  0.054268539	1.126010E+02	  0.054268539	2.655600E+01	  0.054268539	2.638700E+01
173	  0.054468941	-7.208000E+00	  0.054468941	1.123850E+02	  0.054468941	2.659800E+01	  0.054468941	2.648600E+01
174	  0.054669339	-7.208000E+00	  0.054669339	1.121420E+02	  0.054669339	2.665800E+01	  0.054669339	2.659300E+01
175	  0.054869737	-7.209000E+00	  0.054869737	1.119310E+02	  0.054869737	2.671300E+01	  0.054869737	2.668300E+01
176	  0.055070139	-7.210000E+00	  0.055070139	1.117040E+02	  0.055070139	2.677300E+01	  0.055070139	2.678000E+01
177	  0.055270538	-7.212000E+00	  0.055270538	1.114450E+02	  0.055270538	2.684300E+01	  0.055270538	2.689000E+01
178	  0.055470940	-7.214000E+00	  0.055470940	1.112100E+02	  0.055470940	2.691000E+01	  0.055470940	2.698900E+01
179	  0.055671342	-7.216000E+00	  0.055671342	1.109770E+02	  0.055671342	2.697400E+01	  0.055671342	2.708800E+01
180	  0.055871744	-7.215000E+00	  0.055871744	1.107430E+02	  0.055871744	2.703200E+01	  0.055871744	2.719200E+01
181	  0.056072142	-7.211000E+00	  0.056072142	1.104350E+02	  0.056072142	2.709700E+01	  0.056072142	2.733400E+01
182	  0.056272544	-7.209000E+00	  0.056272544	1.101590E+02	  0.056272544	2.716500E+01	  0.056272544	2.745800E+01
183	  0.056472946	-7.203000E+00	  0.056472946	1.099280E+02	  0.056472946	2.720600E+01	  0.056472946	2.757100E+01
184	  0.056673344	-7.203000E+00	  0.056673344	1.096660E+02	  0.056673344	2.727500E+01	  0.056673344	2.768600E+01
185	  0.056873746	-7.202000E+00	  0.056873746	1.094380E+02	  0.056873746	2.733300E+01	  0.056873746	2.778800E+01
186	  0.057074148	-7.199000E+00	  0.057074148	1.092090E+02	  0.057074148	2.738400E+01	  0.057074148	2.789500E+01
187	  0.057274550	-7.196000E+00	  0.057274550	1.090040E+02	  0.057274550	2.743100E+01	  0.057274550	2.799000E+01
188	  0.057474948	-7.200000E+00	  0.057474948	1.088110E+02	  0.057474948	2.749500E+01	  0.057474948	2.806800E+01
189	  0.057675350	-7.200000E+00	  0.057675350	1.085730E+02	  0.057675350	2.755900E+01	  0.057675350	2.817300E+01
190	  0.057875752	-7.207000E+00	  0.057875752	1.083410E+02	  0.057875752	2.764200E+01	  0.057875752	2.826400E+01
191	  0.058076151	-7.209000E+00	  0.058076151	1.081140E+02	  0.058076151	2.771000E+01	  0.058076151	2.836100E+01
192	  0.058276553	-7.211000E+00	  0.058276553	1.078800E+02	  0.058276553	2.778000E+01	  0.058276553	2.846000E+01
193	  0.058476955	-7.210000E+00	  0.058476955	1.076340E+02	  0.058476955	2.784500E+01	  0.058476955	2.857200E+01
194	  0.058677353	-7.208000E+00	  0.058677353	1.073280E+02	  0.058677353	2.792600E+01	  0.058677353	2.871000E+01
195	  0.058877755	-7.207000E+00	  0.058877755	1.070630E+02	  0.058877755	2.799700E+01	  0.058877755	2.883000E+01
196	  0.059078157	-7.206000E+00	  0.059078157	1.068110E+02	  0.059078157	2.806500E+01	  0.059078157	2.894400E+01
197	  0.059278559	-7.205000E+00	  0.059278559	1.065770E+02	  0.059278559	2.812900E+01	  0.059278559	2.905000E+01
198	  0.059478957	-7.204000E+00	  0.059478957	1.063530E+02	  0.059478957	2.819000E+01	  0.059478957	2.915200E+01
199	  0.059679359	-7.203000E+00	  0.059679359	1.060950E+02	  0.059679359	2.826100E+01	  0.059679359	2.926900E+01
200	  0.059879761	-7.196000E+00	  0.059879761	1.058640E+02	  0.059879761	2.830800E+01	  0.059879761	2.938500E+01
201	  0.060080159	-7.198000E+00	  0.060080159	1.056620E+02	  0.060080159	2.837100E+01	  0.060080159	2.947200E+01
202	  0.060280561	-7.199000E+00	  0.060280561	1.054220E+02	  0.060280561	2.844400E+01	  0.060280561	2.957800E+01
203	  0.060480963	-7.200000E+00	  0.060480963	1.051860E+02	  0.060480963	2.851800E+01	  0.060480963	2.968200E+01
204	  0.060681365	-7.202000E+00	  0.060681365	1.049700E+02	  0.060681365	2.858900E+01	  0.060681365	2.977400E+01
205	  0.060881764	-7.203000E+00	  0.060881764	1.046880E+02	  0.060881764	2.867500E+01	  0.060881764	2.989900E+01
206	  0.061082166	-7.199000E+00	  0.061082166	1.044720E+02	  0.061082166	2.872900E+01	  0.061082166	3.000300E+01
207	  0.061282568	-7.196000E+00	  0.061282568	1.041850E+02	  0.061282568	2.880600E+01	  0.061282568	3.013800E+01
208	  0.061482966	-7.197000E+00	  0.061482966	1.038920E+02	  0.061482966	2.889700E+01	  0.061482966	3.026900E+01
209	  0.061683368	-7.195000E+00	  0.061683368	1.036420E+02	  0.061683368	2.896800E+01	  0.061683368	3.038600E+01
210	  0.061883770	-7.189000E+00	  0.061883770	1.033880E+02	  0.061883770	2.902900E+01	  0.061883770	3.051200E+01
211	  0.062084168	-7.187000E+00	  0.062084168	1.031770E+02	  0.062084168	2.908900E+01	  0.062084168	3.061100E+01
212	  0.062284570	-7.184000E+00	  0.062284570	1.029330E+02	  0.062284570	2.915400E+01	  0.062284570	3.072900E+01
213	  0.062484972	-7.167000E+00	  0.062484972	1.027490E+02	  0.062484972	2.916300E+01	  0.062484972	3.084700E+01
214	  0.062685370	-7.170000E+00	  0.062685370	1.025630E+02	  0.062685370	2.923100E+01	  0.062685370	3.092500E+01
215	  0.062885776	-7.169000E+00	  0.062885776	1.023160E+02	  0.062885776	2.930500E+01	  0.062885776	3.103900E+01
216	  0.063086174	-7.172000E+00	  0.063086174	1.020970E+02	  0.063086174	2.938300E+01	  0.063086174	3.113300E+01
217	  0.063286573	-7.174000E+00	  0.063286573	1.018920E+02	  0.063286573	2.945700E+01	  0.063286573	3.122100E+01
218	  0.063486971	-7.178000E+00	  0.063486971	1.016590E+02	  0.063486971	2.954400E+01	  0.063486971	3.131900E+01
219	  0.063687377	-7.181000E+00	  0.063687377	1.013920E+02	  0.063687377	2.963700E+01	  0.063687377	3.143600E+01
220	  0.063887775	-7.180000E+00	  0.063887775	1.011510E+02	  0.063887775	2.971400E+01	  0.063887775	3.154600E+01
221	  0.064088173	-7.182000E+00	  0.064088173	1.008790E+02	  0.064088173	2.980800E+01	  0.064088173	3.166700E+01
222	  0.064288579	-7.185000E+00	  0.064288579	1.006290E+02	  0.064288579	2.989900E+01	  0.064288579	3.177400E+01
223	  0.064488977	-7.182000E+00	  0.064488977	1.003410E+02	  0.064488977	2.998800E+01	  0.064488977	3.191100E+01
224	  0.064689375	-7.180000E+00	  0.064689375	1.000940E+02	  0.064689375	3.006300E+01	  0.064689375	3.203000E+01
225	  0.064889781	-7.179000E+00	  0.064889781	9.983900E+01	  0.064889781	3.014600E+01	  0.064889781	3.214900E+01
226	  0.065090179	-7.175000E+00	  0.065090179	9.960000E+01	  0.065090179	3.021500E+01	  0.065090179	3.226700E+01
227	  0.065290578	-7.179000E+00	  0.065290578	9.936100E+01	  0.065290578	3.031000E+01	  0.065290578	3.236700E+01
228	  0.065490983	-7.178000E+00	  0.065490983	9.911600E+01	  0.065490983	3.039100E+01	  0.065490983	3.248200E+01
229	  0.065691382	-7.177000E+00	  0.065691382	9.885900E+01	  0.065691382	3.047600E+01	  0.065691382	3.260300E+01
230	  0.065891780	-7.181000E+00	  0.065891780	9.865300E+01	  0.065891780	3.056000E+01	  0.065891780	3.268900E+01
231	  0.066092186	-7.176000E+00	  0.066092186	9.840300E+01	  0.066092186	3.063100E+01	  0.066092186	3.281500E+01
232	  0.066292584	-7.178000E+00	  0.066292584	9.816300E+01	  0.066292584	3.072200E+01	  0.066292584	3.292200E+01
233	  0.066492982	-7.172000E+00	  0.066492982	9.786200E+01	  0.066492982	3.081000E+01	  0.066492982	3.307400E+01
234	  0.066693388	-7.178000E+00	  0.066693388	9.762200E+01	  0.066693388	3.091600E+01	  0.066693388	3.317000E+01
235	  0.066893786	-7.168000E+00	  0.066893786	9.735600E+01	  0.066893786	3.098000E+01	  0.066893786	3.331700E+01
236	  0.067094192	-7.172000E+00	  0.067094192	9.707100E+01	  0.067094192	3.109600E+01	  0.067094192	3.343900E+01
237	  0.067294590	-7.170000E+00	  0.067294590	9.683600E+01	  0.067294590	3.117400E+01	  0.067294590	3.355300E+01
238	  0.067494988	-7.161000E+00	  0.067494988	9.660200E+01	  0.067494988	3.123400E+01	  0.067494988	3.368300E+01
239	  0.067695394	-7.153000E+00	  0.067695394	9.635400E+01	  0.067695394	3.130200E+01	  0.067695394	3.381700E+01
240	  0.067895792	-7.154000E+00	  0.067895792	9.614500E+01	  0.067895792	3.138000E+01	  0.067895792	3.391300E+01
241	  0.068096191	-7.145000E+00	  0.068096191	9.591700E+01	  0.068096191	3.143800E+01	  0.068096191	3.404100E+01
242	  0.068296596	-7.138000E+00	  0.068296596	9.572100E+01	  0.068296596	3.148900E+01	  0.068296596	3.415000E+01
243	  0.068496995	-7.139000E+00	  0.068496995	9.552900E+01	  0.068496995	3.156600E+01	  0.068496995	3.423600E+01
244	  0.068697393	-7.138000E+00	  0.068697393	9.529100E+01	  0.068697393	3.165200E+01	  0.068697393	3.435100E+01
245	  0.068897791	-7.133000E+00	  0.068897791	9.506900E+01	  0.068897791	3.172300E+01	  0.068897791	3.446500E+01
246	  0.069098189	-7.136000E+00	  0.069098189	9.485200E+01	  0.069098189	3.181200E+01	  0.069098189	3.456100E+01
247	  0.069298595	-7.140000E+00	  0.069298595	9.464600E+01	  0.069298595	3.190600E+01	  0.069298595	3.464600E+01
248	  0.069498993	-7.136000E+00	  0.069498993	9.439000E+01	  0.069498993	3.199300E+01	  0.069498993	3.477600E+01
249	  0.069699399	-7.139000E+00	  0.069699399	9.413400E+01	  0.069699399	3.210000E+01	  0.069699399	3.489000E+01
250	  0.069899797	-7.137000E+00	  0.069899797	9.386500E+01	  0.069899797	3.220000E+01	  0.069899797	3.502100E+01
251	  0.070100196	-7.132000E+00	  0.070100196	9.365600E+01	  0.070100196	3.226700E+01	  0.070100196	3.513200E+01
252	  0.070300601	-7.134000E+00	  0.070300601	9.344500E+01	  0.070300601	3.235800E+01	  0.070300601	3.522500E+01
253	  0.070501000	-7.133000E+00	  0.070501000	9.319500E+01	  0.070501000	3.245300E+01	  0.070501000	3.534600E+01
254	  0.070701398	-7.128000E+00	  0.070701398	9.297700E+01	  0.070701398	3.252700E+01	  0.070701398	3.546100E+01
255	  0.070901804	-7.134000E+00	  0.070901804	9.280300E+01	  0.070901804	3.261500E+01	  0.070901804	3.552800E+01
256	  0.071102202	-7.130000E+00	  0.071102202	9.257200E+01	  0.071102202	3.269800E+01	  0.071102202	3.564600E+01
257	  0.071302600	-7.130000E+00	  0.071302600	9.233000E+01	  0.071302600	3.279600E+01	  0.071302600	3.576000E+01
258	  0.071503006	-7.133000E+00	  0.071503006	9.212400E+01	  0.071503006	3.288700E+01	  0.071503006	3.585100E+01
259	  0.071703404	-7.136000E+00	  0.071703404	9.187800E+01	  0.071703404	3.300100E+01	  0.071703404	3.595800E+01
260	  0.071903802	-7.136000E+00	  0.071903802	9.162600E+01	  0.071903802	3.310400E+01	  0.071903802	3.607800E+01
261	  0.072104208	-7.139000E+00	  0.072104208	9.137700E+01	  0.072104208	3.321900E+01	  0.072104208	3.618600E+01
262	  0.072304606	-7.144000E+00	  0.072304606	9.114600E+01	  0.072304606	3.333000E+01	  0.072304606	3.628300E+01
263	  0.072505005	-7.141000E+00	  0.072505005	9.087800E+01	  0.072505005	3.343600E+01	  0.072505005	3.641600E+01
264	  0.072705410	-7.144000E+00	  0.072705410	9.062100E+01	  0.072705410	3.355200E+01	  0.072705410	3.653100E+01
265	  0.072905809	-7.143000E+00	  0.072905809	9.036400E+01	  0.072905809	3.366100E+01	  0.072905809	3.665400E+01
266	  0.073106214	-7.141000E+00	  0.073106214	9.013500E+01	  0.073106214	3.375300E+01	  0.073106214	3.676800E+01
267	  0.073306613	-7.135000E+00	  0.073306613	8.990800E+01	  0.073306613	3.383500E+01	  0.073306613	3.689200E+01
268	  0.073507011	-7.133000E+00	  0.073507011	8.970500E+01	  0.073507011	3.391600E+01	  0.073507011	3.699500E+01
269	  0.073707417	-7.133000E+00	  0.073707417	8.948200E+01	  0.073707417	3.401400E+01	  0.073707417	3.710100E+01
270	  0.073907815	-7.132000E+00	  0.073907815	8.925700E+01	  0.073907815	3.410900E+01	  0.073907815	3.721200E+01
271	  0.074108213	-7.129000E+00	  0.074108213	8.901700E+01	  0.074108213	3.420800E+01	  0.074108213	3.733300E+01
272	  0.074308619	-7.126000E+00	  0.074308619	8.879200E+01	  0.074308619	3.429800E+01	  0.074308619	3.745000E+01
273	  0.074509017	-7.126000E+00	  0.074509017	8.852500E+01	  0.074509017	3.442000E+01	  0.074509017	3.757600E+01
274	  0.074709415	-7.132000E+00	  0.074709415	8.829400E+01	  0.074709415	3.454400E+01	  0.074709415	3.766700E+01
275	  0.074909821	-7.135000E+00	  0.074909821	8.801600E+01	  0.074909821	3.467900E+01	  0.074909821	3.779200E+01
276	  0.075110219	-7.133000E+00	  0.075110219	8.777800E+01	  0.075110219	3.478100E+01	  0.075110219	3.791200E+01
277	  0.075310618	-7.129000E+00	  0.075310618	8.753300E+01	  0.075310618	3.488200E+01	  0.075310618	3.804000E+01
278	  0.075511023	-7.131000E+00	  0.075511023	8.730500E+01	  0.075511023	3.499600E+01	  0.075511023	3.814100E+01
279	  0.075711422	-7.129000E+00	  0.075711422	8.703700E+01	  0.075711422	3.511200E+01	  0.075711422	3.827800E+01
280	  0.075911827	-7.124000E+00	  0.075911827	8.678600E+01	  0.075911827	3.521700E+01	  0.075911827	3.841000E+01
281	  0.076112226	-7.119000E+00	  0.076112226	8.656800E+01	  0.076112226	3.530300E+01	  0.076112226	3.853200E+01
282	  0.076312624	-7.118000E+00	  0.076312624	8.634300E+01	  0.076312624	3.540600E+01	  0.076312624	3.864300E+01
283	  0.076513030	-7.114000E+00	  0.076513030	8.611900E+01	  0.076513030	3.550000E+01	  0.076513030	3.876400E+01
284	  0.076713428	-7.109000E+00	  0.076713428	8.589800E+01	  0.076713428	3.559200E+01	  0.076713428	3.888300E+01
285	  0.076913826	-7.110000E+00	  0.076913826	8.562200E+01	  0.076913826	3.572900E+01	  0.076913826	3.901300E+01
286	  0.077114232	-7.113000E+00	  0.077114232	8.540400E+01	  0.077114232	3.584400E+01	  0.077114232	3.910800E+01
287	  0.077314630	-7.111000E+00	  0.077314630	8.516400E+01	  0.077314630	3.595600E+01	  0.077314630	3.923000E+01
288	  0.077515028	-7.113000E+00	  0.077515028	8.492600E+01	  0.077515028	3.608100E+01	  0.077515028	3.933700E+01
289	  0.077715434	-7.111000E+00	  0.077715434	8.465900E+01	  0.077715434	3.620700E+01	  0.077715434	3.947100E+01
290	  0.077915832	-7.109000E+00	  0.077915832	8.442400E+01	  0.077915832	3.631900E+01	  0.077915832	3.958900E+01
291	  0.078116231	-7.109000E+00	  0.078116231	8.413900E+01	  0.078116231	3.646200E+01	  0.078116231	3.972700E+01
292	  0.078316636	-7.101000E+00	  0.078316636	8.394000E+01	  0.078316636	3.653600E+01	  0.078316636	3.985100E+01
293	  0.078517035	-7.104000E+00	  0.078517035	8.369800E+01	  0.078517035	3.667100E+01	  0.078517035	3.995500E+01
294	  0.078717433	-7.100000E+00	  0.078717433	8.346700E+01	  0.078717433	3.677600E+01	  0.078717433	4.008100E+01
295	  0.078917839	-7.096000E+00	  0.078917839	8.327700E+01	  0.078917839	3.686300E+01	  0.078917839	4.018400E+01
296	  0.079118237	-7.090000E+00	  0.079118237	8.307600E+01	  0.079118237	3.694800E+01	  0.079118237	4.030000E+01
297	  0.079318643	-7.089000E+00	  0.079318643	8.288800E+01	  0.079318643	3.704000E+01	  0.079318643	4.039700E+01
298	  0.079519041	-7.086000E+00	  0.079519041	8.263500E+01	  0.079519041	3.716500E+01	  0.079519041	4.052700E+01
299	  0.079719439	-7.094000E+00	  0.079719439	8.244500E+01	  0.079719439	3.729100E+01	  0.079719439	4.059100E+01
300	  0.079919845	-7.094000E+00	  0.079919845	8.221800E+01	  0.079919845	3.741200E+01	  0.079919845	4.070000E+01
301	  0.080120243	-7.101000E+00	  0.080120243	8.199700E+01	  0.080120243	3.755000E+01	  0.080120243	4.078400E+01
302	  0.080320641	-7.106000E+00	  0.080320641	8.172600E+01	  0.080320641	3.771200E+01	  0.080320641	4.089500E+01
303	  0.080521047	-7.106000E+00	  0.080521047	8.151900E+01	  0.080521047	3.782300E+01	  0.080521047	4.099500E+01
304	  0.080721445	-7.105000E+00	  0.080721445	8.125700E+01	  0.080721445	3.796300E+01	  0.080721445	4.112400E+01
305	  0.080921844	-7.108000E+00	  0.080921844	8.102700E+01	  0.080921844	3.809600E+01	  0.080921844	4.122500E+01
306	  0.081122249	-7.105000E+00	  0.081122249	8.076400E+01	  0.081122249	3.823300E+01	  0.081122249	4.136000E+01
307	  0.081322648	-7.103000E+00	  0.081322648	8.054200E+01	  0.081322648	3.834800E+01	  0.081322648	4.147600E+01
308	  0.081523046	-7.093000E+00	  0.081523046	8.031500E+01	  0.081523046	3.844400E+01	  0.081523046	4.162000E+01
309	  0.081723452	-7.092000E+00	  0.081723452	8.009300E+01	  0.081723452	3.856600E+01	  0.081723452	4.172900E+01
310	  0.081923850	-7.099000E+00	  0.081923850	7.984000E+01	  0.081923850	3.873000E+01	  0.081923850	4.182600E+01
311	  0.082124248	-7.098000E+00	  0.082124248	7.960200E+01	  0.082124248	3.886300E+01	  0.082124248	4.194300E+01
312	  0.082324654	-7.096000E+00	  0.082324654	7.935200E+01	  0.082324654	3.899800E+01	  0.082324654	4.207200E+01
313	  0.082525052	-7.096000E+00	  0.082525052	7.907700E+01	  0.082525052	3.915500E+01	  0.082525052	4.220500E+01
314	  0.082725458	-7.090000E+00	  0.082725458	7.886300E+01	  0.082725458	3.926100E+01	  0.082725458	4.232800E+01
315	  0.082925856	-7.092000E+00	  0.082925856	7.857700E+01	  0.082925856	3.943300E+01	  0.082925856	4.246000E+01
316	  0.083126254	-7.095000E+00	  0.083126254	7.836100E+01	  0.083126254	3.957100E+01	  0.083126254	4.254900E+01
317	  0.083326660	-7.094000E+00	  0.083326660	7.806000E+01	  0.083326660	3.974500E+01	  0.083326660	4.269900E+01
318	  0.083527058	-7.091000E+00	  0.083527058	7.780900E+01	  0.083527058	3.988600E+01	  0.083527058	4.282900E+01
319	  0.083727457	-7.090000E+00	  0.083727457	7.754300E+01	  0.083727457	4.004000E+01	  0.083727457	4.296300E+01
320	  0.083927862	-7.082000E+00	  0.083927862	7.730900E+01	  0.083927862	4.015500E+01	  0.083927862	4.310700E+01
321	  0.084128261	-7.078000E+00	  0.084128261	7.705200E+01	  0.084128261	4.029800E+01	  0.084128261	4.324700E+01
322	  0.084328659	-7.070000E+00	  0.084328659	7.682400E+01	  0.084328659	4.041400E+01	  0.084328659	4.338500E+01
323	  0.084529065	-7.068000E+00	  0.084529065	7.666000E+01	  0.084529065	4.050600E+01	  0.084529065	4.347500E+01
324	  0.084729463	-7.063000E+00	  0.084729463	7.642000E+01	  0.084729463	4.064000E+01	  0.084729463	4.360800E+01
325	  0.084929861	-7.061000E+00	  0.084929861	7.618000E+01	  0.084929861	4.078300E+01	  0.084929861	4.373000E+01
326	  0.085130267	-7.066000E+00	  0.085130267	7.596000E+01	  0.085130267	4.093400E+01	  0.085130267	4.381900E+01
327	  0.085330658	-7.064000E+00	  0.085330658	7.576700E+01	  0.085330658	4.105100E+01	  0.085330658	4.391700E+01
328	  0.085531056	-7.067000E+00	  0.085531056	7.550400E+01	  0.085531056	4.122500E+01	  0.085531056	4.403200E+01
329	  0.085731462	-7.071000E+00	  0.085731462	7.528300E+01	  0.085731462	4.137800E+01	  0.085731462	4.412100E+01
330	  0.085931860	-7.071000E+00	  0.085931860	7.506300E+01	  0.085931860	4.152000E+01	  0.085931860	4.422400E+01
331	  0.086132258	-7.070000E+00	  0.086132258	7.482100E+01	  0.086132258	4.167000E+01	  0.086132258	4.434600E+01
332	  0.086332664	-7.072000E+00	  0.086332664	7.457200E+01	  0.086332664	4.184100E+01	  0.086332664	4.445200E+01
333	  0.086533062	-7.067000E+00	  0.086533062	7.435400E+01	  0.086533062	4.196500E+01	  0.086533062	4.458000E+01
334	  0.086733460	-7.063000E+00	  0.086733460	7.411000E+01	  0.086733460	4.211200E+01	  0.086733460	4.471400E+01
335	  0.086933866	-7.067000E+00	  0.086933866	7.390200E+01	  0.086933866	4.226200E+01	  0.086933866	4.479600E+01
336	  0.087134264	-7.062000E+00	  0.087134264	7.366700E+01	  0.087134264	4.240200E+01	  0.087134264	4.492900E+01
337	  0.087334670	-7.056000E+00	  0.087334670	7.343800E+01	  0.087334670	4.253600E+01	  0.087334670	4.506400E+01
338	  0.087535068	-7.063000E+00	  0.087535068	7.324300E+01	  0.087535068	4.269100E+01	  0.087535068	4.512300E+01
339	  0.087735467	-7.062000E+00	  0.087735467	7.301700E+01	  0.087735467	4.283700E+01	  0.087735467	4.523800E+01
340	  0.087935872	-7.062000E+00	  0.087935872	7.278100E+01	  0.087935872	4.300000E+01	  0.087935872	4.534600E+01
341	  0.088136271	-7.057000E+00	  0.088136271	7.253300E+01	  0.088136271	4.315300E+01	  0.088136271	4.548600E+01
342	  0.088336669	-7.064000E+00	  0.088336669	7.233700E+01	  0.088336669	4.330900E+01	  0.088336669	4.554800E+01
343	  0.088537075	-7.061000E+00	  0.088537075	7.205700E+01	  0.088537075	4.349300E+01	  0.088537075	4.569400E+01
344	  0.088737473	-7.061000E+00	  0.088737473	7.183100E+01	  0.088737473	4.365100E+01	  0.088737473	4.579900E+01
345	  0.088937871	-7.061000E+00	  0.088937871	7.161000E+01	  0.088937871	4.380600E+01	  0.088937871	4.590200E+01
346	  0.089138277	-7.056000E+00	  0.089138277	7.138000E+01	  0.089138277	4.395200E+01	  0.089138277	4.603300E+01
347	  0.089338675	-7.051000E+00	  0.089338675	7.115200E+01	  0.089338675	4.409800E+01	  0.089338675	4.616400E+01
348	  0.089539073	-7.047000E+00	  0.089539073	7.093500E+01	  0.089539073	4.423800E+01	  0.089539073	4.628700E+01
349	  0.089739479	-7.040000E+00	  0.089739479	7.070800E+01	  0.089739479	4.438100E+01	  0.089739479	4.642500E+01
350	  0.089939877	-7.044000E+00	  0.089939877	7.049600E+01	  0.089939877	4.454600E+01	  0.089939877	4.650500E+01
351	  0.090140276	-7.037000E+00	  0.090140276	7.028000E+01	  0.090140276	4.468100E+01	  0.090140276	4.664000E+01
352	  0.090340681	-7.040000E+00	  0.090340681	7.008000E+01	  0.090340681	4.483600E+01	  0.090340681	4.671800E+01
353	  0.090541080	-7.042000E+00	  0.090541080	6.986600E+01	  0.090541080	4.499900E+01	  0.090541080	4.680800E+01
354	  0.090741485	-7.045000E+00	  0.090741485	6.964400E+01	  0.090741485	4.517300E+01	  0.090741485	4.689600E+01
355	  0.090941884	-7.045000E+00	  0.090941884	6.944100E+01	  0.090941884	4.532300E+01	  0.090941884	4.699000E+01
356	  0.091142282	-7.051000E+00	  0.091142282	6.921500E+01	  0.091142282	4.550900E+01	  0.091142282	4.706700E+01
357	  0.091342688	-7.052000E+00	  0.091342688	6.897000E+01	  0.091342688	4.569800E+01	  0.091342688	4.717200E+01
358	  0.091543086	-7.049000E+00	  0.091543086	6.871200E+01	  0.091543086	4.588300E+01	  0.091543086	4.730600E+01
359	  0.091743484	-7.056000E+00	  0.091743484	6.844900E+01	  0.091743484	4.610300E+01	  0.091743484	4.739200E+01
360	  0.091943890	-7.050000E+00	  0.091943890	6.822600E+01	  0.091943890	4.625500E+01	  0.091943890	4.752500E+01
361	  0.092144288	-7.054000E+00	  0.092144288	6.797600E+01	  0.092144288	4.646000E+01	  0.092144288	4.762100E+01
362	  0.092344686	-7.048000E+00	  0.092344686	6.772600E+01	  0.092344686	4.663500E+01	  0.092344686	4.776500E+01
363	  0.092545092	-7.054000E+00	  0.092545092	6.751800E+01	  0.092545092	4.681700E+01	  0.092545092	4.782700E+01
364	  0.092745490	-7.050000E+00	  0.092745490	6.727500E+01	  0.092745490	4.699400E+01	  0.092745490	4.796000E+01
365	  0.092945889	-7.056000E+00	  0.092945889	6.706700E+01	  0.092945889	4.717600E+01	  0.092945889	4.802000E+01
366	  0.093146294	-7.054000E+00	  0.093146294	6.681300E+01	  0.093146294	4.737100E+01	  0.093146294	4.814700E+01
367	  0.093346693	-7.053000E+00	  0.093346693	6.658700E+01	  0.093346693	4.754900E+01	  0.093346693	4.825300E+01
368	  0.093547091	-7.060000E+00	  0.093547091	6.629100E+01	  0.093547091	4.780900E+01	  0.093547091	4.834500E+01
369	  0.093747497	-7.061000E+00	  0.093747497	6.606600E+01	  0.093747497	4.799200E+01	  0.093747497	4.844400E+01
370	  0.093947895	-7.062000E+00	  0.093947895	6.581700E+01	  0.093947895	4.820000E+01	  0.093947895	4.854500E+01
371	  0.094148301	-7.056000E+00	  0.094148301	6.556400E+01	  0.094148301	4.838900E+01	  0.094148301	4.868900E+01
372	  0.094348699	-7.059000E+00	  0.094348699	6.530300E+01	  0.094348699	4.861200E+01	  0.094348699	4.879000E+01
373	  0.094549097	-7.054000E+00	  0.094549097	6.505700E+01	  0.094549097	4.880400E+01	  0.094549097	4.892300E+01
374	  0.094749503	-7.051000E+00	  0.094749503	6.483800E+01	  0.094749503	4.897800E+01	  0.094749503	4.903600E+01
375	  0.094949901	-7.046000E+00	  0.094949901	6.457200E+01	  0.094949901	4.918700E+01	  0.094949901	4.918000E+01
376	  0.095150299	-7.049000E+00	  0.095150299	6.435000E+01	  0.095150299	4.938300E+01	  0.095150299	4.926100E+01
377	  0.095350705	-7.044000E+00	  0.095350705	6.411900E+01	  0.095350705	4.956500E+01	  0.095350705	4.939000E+01
378	  0.095551103	-7.045000E+00	  0.095551103	6.388700E+01	  0.095551103	4.976800E+01	  0.095551103	4.948400E+01
379	  0.095751502	-7.037000E+00	  0.095751502	6.366500E+01	  0.095751502	4.993500E+01	  0.095751502	4.962700E+01
380	  0.095951907	-7.039000E+00	  0.095951907	6.345600E+01	  0.095951907	5.012200E+01	  0.095951907	4.970400E+01
381	  0.096152306	-7.042000E+00	  0.096152306	6.320600E+01	  0.096152306	5.034900E+01	  0.096152306	4.979400E+01
382	  0.096352704	-7.037000E+00	  0.096352704	6.299400E+01	  0.096352704	5.052300E+01	  0.096352704	4.991100E+01
383	  0.096553110	-7.048000E+00	  0.096553110	6.272500E+01	  0.096553110	5.078900E+01	  0.096553110	4.996500E+01
384	  0.096753508	-7.039000E+00	  0.096753508	6.248600E+01	  0.096753508	5.097700E+01	  0.096753508	5.011700E+01
385	  0.096953906	-7.041000E+00	  0.096953906	6.223100E+01	  0.096953906	5.121100E+01	  0.096953906	5.021000E+01
386	  0.097154312	-7.037000E+00	  0.097154312	6.201300E+01	  0.097154312	5.139600E+01	  0.097154312	5.032500E+01
387	  0.097354710	-7.037000E+00	  0.097354710	6.174100E+01	  0.097354710	5.164100E+01	  0.097354710	5.044200E+01
388	  0.097555116	-7.033000E+00	  0.097555116	6.151400E+01	  0.097555116	5.184000E+01	  0.097555116	5.055500E+01
389	  0.097755514	-7.031000E+00	  0.097755514	6.122300E+01	  0.097755514	5.210100E+01	  0.097755514	5.068700E+01
390	  0.097955912	-7.024000E+00	  0.097955912	6.102100E+01	  0.097955912	5.226800E+01	  0.097955912	5.081700E+01
391	  0.098156318	-7.022000E+00	  0.098156318	6.079000E+01	  0.098156318	5.247900E+01	  0.098156318	5.092000E+01
392	  0.098356716	-7.018000E+00	  0.098356716	6.055700E+01	  0.098356716	5.268400E+01	  0.098356716	5.104500E+01
393	  0.098557115	-7.018000E+00	  0.098557115	6.031300E+01	  0.098557115	5.291400E+01	  0.098557115	5.114400E+01
394	  0.098757520	-7.017000E+00	  0.098757520	6.009100E+01	  0.098757520	5.312300E+01	  0.098757520	5.123700E+01
395	  0.098957919	-7.013000E+00	  0.098957919	5.984400E+01	  0.098957919	5.334700E+01	  0.098957919	5.136200E+01
396	  0.099158317	-7.012000E+00	  0.099158317	5.964200E+01	  0.099158317	5.353900E+01	  0.099158317	5.144700E+01
397	  0.099358723	-7.011000E+00	  0.099358723	5.941700E+01	  0.099358723	5.375200E+01	  0.099358723	5.154400E+01
398	  0.099559121	-7.006000E+00	  0.099559121	5.919500E+01	  0.099559121	5.395600E+01	  0.099559121	5.166100E+01
399	  0.099759519	-7.003000E+00	  0.099759519	5.897200E+01	  0.099759519	5.416400E+01	  0.099759519	5.177300E+01
400	  0.099959925	-6.985000E+00	  0.099959925	5.877300E+01	  0.099959925	5.431400E+01	  0.099959925	5.196300E+01
401	  0.100160323	-6.991000E+00	  0.100160323	5.859100E+01	  0.100160323	5.451000E+01	  0.100160323	5.199400E+01
402	  0.100360721	-6.987000E+00	  0.100360721	5.837900E+01	  0.100360721	5.471000E+01	  0.100360721	5.210400E+01
403	  0.100561127	-6.985000E+00	  0.100561127	5.817600E+01	  0.100561127	5.490700E+01	  0.100561127	5.219500E+01
404	  0.100761525	-6.994000E+00	  0.100761525	5.802200E+01	  0.100761525	5.508500E+01	  0.100761525	5.219400E+01
405	  0.100961931	-6.989000E+00	  0.100961931	5.781500E+01	  0.100961931	5.527800E+01	  0.100961931	5.231200E+01
406	  0.101162329	-6.982000E+00	  0.101162329	5.763800E+01	  0.101162329	5.544200E+01	  0.101162329	5.242200E+01
407	  0.101362728	-6.992000E+00	  0.101362728	5.746500E+01	  0.101362728	5.564100E+01	  0.101362728	5.242200E+01
408	  0.101563133	-7.006000E+00	  0.101563133	5.722700E+01	  0.101563133	5.591800E+01	  0.101563133	5.241600E+01
409	  0.101763532	-6.997000E+00	  0.101763532	5.701500E+01	  0.101763532	5.611400E+01	  0.101763532	5.255700E+01
410	  0.101963930	-7.000000E+00	  0.101963930	5.680300E+01	  0.101963930	5.634000E+01	  0.101963930	5.261200E+01
411	  0.102164336	-7.001000E+00	  0.102164336	5.663300E+01	  0.102164336	5.651900E+01	  0.102164336	5.266700E+01
412	  0.102364734	-7.013000E+00	  0.102364734	5.639100E+01	  0.102364734	5.680000E+01	  0.102364734	5.267200E+01
413	  0.102565132	-7.010000E+00	  0.102565132	5.615700E+01	  0.102565132	5.703800E+01	  0.102565132	5.277500E+01
414	  0.102765530	-7.024000E+00	  0.102765530	5.587800E+01	  0.102765530	5.736500E+01	  0.102765530	5.277700E+01
415	  0.102965929	-7.011000E+00	  0.102965929	5.558500E+01	  0.102965929	5.764500E+01	  0.102965929	5.297000E+01
416	  0.103166327	-7.020000E+00	  0.103166327	5.540600E+01	  0.103166327	5.785800E+01	  0.103166327	5.296700E+01
417	  0.103366733	-7.013000E+00	  0.103366733	5.511900E+01	  0.103366733	5.815000E+01	  0.103366733	5.311300E+01
418	  0.103567131	-7.017000E+00	  0.103567131	5.488300E+01	  0.103567131	5.841400E+01	  0.103567131	5.316600E+01
419	  0.103767529	-7.020000E+00	  0.103767529	5.459900E+01	  0.103767529	5.872900E+01	  0.103767529	5.323700E+01
420	  0.103967935	-7.014000E+00	  0.103967935	5.431100E+01	  0.103967935	5.903300E+01	  0.103967935	5.337300E+01
421	  0.104168333	-7.020000E+00	  0.104168333	5.403700E+01	  0.104168333	5.934600E+01	  0.104168333	5.342200E+01
422	  0.104368731	-7.015000E+00	  0.104368731	5.377400E+01	  0.104368731	5.962800E+01	  0.104368731	5.354300E+01
423	  0.104569137	-7.011000E+00	  0.104569137	5.350300E+01	  0.104569137	5.992300E+01	  0.104569137	5.365800E+01
424	  0.104769535	-7.012000E+00	  0.104769535	5.324200E+01	  0.104769535	6.021800E+01	  0.104769535	5.373200E+01
425	  0.104969934	-6.998000E+00	  0.104969934	5.301100E+01	  0.104969934	6.045300E+01	  0.104969934	5.390300E+01
426	  0.105170339	-6.997000E+00	  0.105170339	5.275000E+01	  0.105170339	6.075000E+01	  0.105170339	5.398800E+01
427	  0.105370738	-6.984000E+00	  0.105370738	5.255400E+01	  0.105370738	6.094900E+01	  0.105370738	5.414600E+01
428	  0.105571143	-6.987000E+00	  0.105571143	5.222200E+01	  0.105571143	6.133800E+01	  0.105571143	5.422200E+01
429	  0.105771542	-6.975000E+00	  0.105771542	5.205600E+01	  0.105771542	6.150800E+01	  0.105771542	5.436200E+01
430	  0.105971940	-6.979000E+00	  0.105971940	5.185900E+01	  0.105971940	6.174500E+01	  0.105971940	5.439200E+01
431	  0.106172346	-6.967000E+00	  0.106172346	5.165900E+01	  0.106172346	6.195900E+01	  0.106172346	5.454000E+01
432	  0.106372744	-6.972000E+00	  0.106372744	5.142900E+01	  0.106372744	6.224000E+01	  0.106372744	5.456900E+01
433	  0.106573142	-6.971000E+00	  0.106573142	5.124700E+01	  0.106573142	6.245300E+01	  0.106573142	5.462700E+01
434	  0.106773548	-6.968000E+00	  0.106773548	5.104300E+01	  0.106773548	6.269200E+01	  0.106773548	5.470600E+01
435	  0.106973946	-6.970000E+00	  0.106973946	5.090900E+01	  0.106973946	6.285700E+01	  0.106973946	5.472400E+01
436	  0.107174344	-6.980000E+00	  0.107174344	5.070700E+01	  0.107174344	6.311800E+01	  0.107174344	5.469800E+01
437	  0.107374750	-6.978000E+00	  0.107374750	5.051800E+01	  0.107374750	6.334200E+01	  0.107374750	5.476800E+01
438	  0.107575148	-6.978000E+00	  0.107575148	5.033000E+01	  0.107575148	6.357000E+01	  0.107575148	5.481100E+01
439	  0.107775547	-6.985000E+00	  0.107775547	5.006300E+01	  0.107775547	6.390700E+01	  0.107775547	5.482600E+01
440	  0.107975952	-6.987000E+00	  0.107975952	4.981100E+01	  0.107975952	6.421900E+01	  0.107975952	5.487100E+01
441	  0.108176351	-6.991000E+00	  0.108176351	4.962400E+01	  0.108176351	6.445600E+01	  0.108176351	5.488600E+01
442	  0.108376749	-6.994000E+00	  0.108376749	4.938700E+01	  0.108376749	6.475400E+01	  0.108376749	5.491200E+01
443	  0.108577155	-6.999000E+00	  0.108577155	4.918600E+01	  0.108577155	6.501200E+01	  0.108577155	5.492200E+01
444	  0.108777553	-6.995000E+00	  0.108777553	4.893900E+01	  0.108777553	6.531400E+01	  0.108777553	5.501000E+01
445	  0.108977959	-6.995000E+00	  0.108977959	4.868300E+01	  0.108977959	6.563700E+01	  0.108977959	5.506100E+01
446	  0.109178357	-6.998000E+00	  0.109178357	4.845000E+01	  0.109178357	6.593600E+01	  0.109178357	5.508600E+01
447	  0.109378755	-7.003000E+00	  0.109378755	4.821900E+01	  0.109378755	6.623700E+01	  0.109378755	5.509200E+01
448	  0.109579161	-7.001000E+00	  0.109579161	4.791300E+01	  0.109579161	6.662500E+01	  0.109579161	5.517200E+01
449	  0.109779559	-7.003000E+00	  0.109779559	4.770100E+01	  0.109779559	6.690100E+01	  0.109779559	5.518900E+01
450	  0.109979957	-6.998000E+00	  0.109979957	4.746300E+01	  0.109979957	6.720100E+01	  0.109979957	5.527500E+01
451	  0.110180363	-6.989000E+00	  0.110180363	4.723500E+01	  0.110180363	6.748700E+01	  0.110180363	5.540000E+01
452	  0.110380761	-6.986000E+00	  0.110380761	4.697100E+01	  0.110380761	6.783000E+01	  0.110380761	5.546900E+01
453	  0.110581160	-6.988000E+00	  0.110581160	4.671600E+01	  0.110581160	6.816800E+01	  0.110581160	5.549000E+01
454	  0.110781565	-6.978000E+00	  0.110781565	4.649400E+01	  0.110781565	6.845100E+01	  0.110781565	5.561400E+01
455	  0.110981964	-6.972000E+00	  0.110981964	4.626300E+01	  0.110981964	6.875300E+01	  0.110981964	5.570400E+01
456	  0.111182362	-6.969000E+00	  0.111182362	4.605900E+01	  0.111182362	6.902400E+01	  0.111182362	5.575800E+01
457	  0.111382768	-6.963000E+00	  0.111382768	4.584700E+01	  0.111382768	6.930300E+01	  0.111382768	5.584900E+01
458	  0.111583166	-6.964000E+00	  0.111583166	4.562400E+01	  0.111583166	6.960700E+01	  0.111583166	5.586600E+01
459	  0.111783572	-6.967000E+00	  0.111783572	4.538500E+01	  0.111783572	6.993400E+01	  0.111783572	5.587600E+01
460	  0.111983970	-6.957000E+00	  0.111983970	4.521000E+01	  0.111983970	7.016600E+01	  0.111983970	5.598100E+01
461	  0.112184368	-6.959000E+00	  0.112184368	4.500200E+01	  0.112184368	7.045300E+01	  0.112184368	5.598700E+01
462	  0.112384774	-6.963000E+00	  0.112384774	4.488800E+01	  0.112384774	7.061300E+01	  0.112384774	5.596700E+01
463	  0.112585172	-6.954000E+00	  0.112585172	4.464100E+01	  0.112585172	7.094800E+01	  0.112585172	5.607500E+01
464	  0.112785570	-6.966000E+00	  0.112785570	4.447000E+01	  0.112785570	7.119400E+01	  0.112785570	5.598200E+01
465	  0.112985976	-6.974000E+00	  0.112985976	4.422900E+01	  0.112985976	7.153500E+01	  0.112985976	5.593300E+01
466	  0.113186374	-6.977000E+00	  0.113186374	4.401200E+01	  0.113186374	7.184000E+01	  0.113186374	5.592600E+01
467	  0.113386773	-6.973000E+00	  0.113386773	4.377300E+01	  0.113386773	7.217400E+01	  0.113386773	5.597700E+01
468	  0.113587178	-6.984000E+00	  0.113587178	4.350600E+01	  0.113587178	7.255600E+01	  0.113587178	5.589800E+01
469	  0.113787577	-6.988000E+00	  0.113787577	4.329100E+01	  0.113787577	7.286300E+01	  0.113787577	5.587600E+01
470	  0.113987975	-6.993000E+00	  0.113987975	4.305500E+01	  0.113987975	7.320000E+01	  0.113987975	5.583900E+01
471	  0.114188381	-6.996000E+00	  0.114188381	4.278900E+01	  0.114188381	7.358200E+01	  0.114188381	5.582000E+01
472	  0.114388779	-7.007000E+00	  0.114388779	4.250400E+01	  0.114388779	7.399300E+01	  0.114388779	5.572700E+01
473	  0.114589177	-7.005000E+00	  0.114589177	4.228000E+01	  0.114589177	7.431700E+01	  0.114589177	5.574400E+01
474	  0.114789583	-7.002000E+00	  0.114789583	4.198100E+01	  0.114789583	7.474900E+01	  0.114789583	5.578100E+01
475	  0.114989981	-7.007000E+00	  0.114989981	4.168400E+01	  0.114989981	7.518300E+01	  0.114989981	5.572900E+01
476	  0.115190387	-7.002000E+00	  0.115190387	4.145500E+01	  0.115190387	7.551900E+01	  0.115190387	5.577700E+01
477	  0.115390785	-6.999000E+00	  0.115390785	4.122200E+01	  0.115390785	7.586300E+01	  0.115390785	5.580000E+01
478	  0.115591183	-6.999000E+00	  0.115591183	4.089900E+01	  0.115591183	7.634200E+01	  0.115591183	5.579300E+01
479	  0.115791589	-7.000000E+00	  0.115791589	4.066800E+01	  0.115791589	7.668700E+01	  0.115791589	5.577400E+01
480	  0.115991987	-6.988000E+00	  0.115991987	4.041200E+01	  0.115991987	7.707400E+01	  0.115991987	5.587700E+01
481	  0.116192386	-6.986000E+00	  0.116192386	4.016700E+01	  0.116192386	7.744300E+01	  0.116192386	5.588400E+01
482	  0.116392791	-6.972000E+00	  0.116392791	3.993900E+01	  0.116392791	7.779500E+01	  0.116392791	5.599900E+01
483	  0.116593190	-6.971000E+00	  0.116593190	3.970900E+01	  0.116593190	7.814600E+01	  0.116593190	5.599200E+01
484	  0.116793588	-6.972000E+00	  0.116793588	3.950900E+01	  0.116793588	7.845200E+01	  0.116793588	5.597000E+01
485	  0.116993994	-6.966000E+00	  0.116993994	3.925400E+01	  0.116993994	7.884800E+01	  0.116993994	5.600300E+01
486	  0.117194392	-6.958000E+00	  0.117194392	3.903200E+01	  0.117194392	7.919600E+01	  0.117194392	5.606100E+01
487	  0.117394790	-6.957000E+00	  0.117394790	3.886000E+01	  0.117394790	7.946400E+01	  0.117394790	5.605700E+01
488	  0.117595196	-6.952000E+00	  0.117595196	3.867300E+01	  0.117595196	7.976000E+01	  0.117595196	5.608700E+01
489	  0.117795594	-6.945000E+00	  0.117795594	3.849200E+01	  0.117795594	8.004900E+01	  0.117795594	5.613400E+01
490	  0.117995992	-6.948000E+00	  0.117995992	3.824700E+01	  0.117995992	8.043100E+01	  0.117995992	5.606700E+01
491	  0.118196398	-6.953000E+00	  0.118196398	3.803100E+01	  0.118196398	8.076700E+01	  0.118196398	5.598300E+01
492	  0.118396796	-6.958000E+00	  0.118396796	3.787300E+01	  0.118396796	8.101100E+01	  0.118396796	5.590300E+01
493	  0.118597202	-6.954000E+00	  0.118597202	3.765800E+01	  0.118597202	8.135500E+01	  0.118597202	5.590600E+01
494	  0.118797600	-6.955000E+00	  0.118797600	3.747400E+01	  0.118797600	8.164700E+01	  0.118797600	5.586600E+01
495	  0.118997999	-6.958000E+00	  0.118997999	3.725200E+01	  0.118997999	8.199600E+01	  0.118997999	5.579000E+01
496	  0.119198404	-6.956000E+00	  0.119198404	3.701000E+01	  0.119198404	8.238700E+01	  0.119198404	5.576700E+01
497	  0.119398803	-6.961000E+00	  0.119398803	3.672300E+01	  0.119398803	8.284100E+01	  0.119398803	5.565800E+01
498	  0.119599201	-6.971000E+00	  0.119599201	3.651500E+01	  0.119599201	8.316100E+01	  0.119599201	5.549900E+01
499	  0.119799607	-6.972000E+00	  0.119799607	3.627800E+01	  0.119799607	8.354300E+01	  0.119799607	5.543700E+01
500	  0.120000005	-6.974000E+00	  0.120000005	3.603900E+01	  0.120000005	8.392600E+01	  0.120000005	5.534700E+01
