! Anritsu VNA Master:             	Model: MS2036C/10/77
! SN:             	1601066
! /bd0/18may10/256.ns.m7.txt
! Existing Calibration Information:
! TYPE:             	Current Settings	Active Cal Settings
! TIME:             	05/10/2018 11:15:18 AM	05/10/2018 11:07:23 AM
! INTERNAL TEMP:    	52.5 C	51.3 C
! # POINTS:         	494	494
! START FREQ:       	20.000 MHz	20.000 MHz
! STOP FREQ:        	118.797 594 MHz	118.797 594 MHz
! SOURCE POWER:     	High	High
! IFBW:             	50 Hz	50 Hz
! AVG FACTOR:       	  1 	  1 
! REF PLANE 1:      	0 mm	0 mm
! REF PLANE 2:      	0 mm	0 mm
! CAL TYPE:         	Full S22	Full S22
! CAL METHOD:       	SOLT	SOLT
! CAL LINE TYPE:    	Coax	Coax
! DUT PORT 1:       	K-Conn(M)	K-Conn(M)
! DUT PORT 2:       	K-Conn(M)	K-Conn(M)
! CAL STATUS:       	OK: Accuracy High	--
! PROP-V:       	0.700
! CABLE LOSS:       	0.000 dB/m
! REF IMPEDANCE:       	50.0
! Trace Specific Parameters:	TR1	TR2	TR3	TR4
! TRACE.#.Y (GRAPH TYPE)	LOG MAG	PHASE	REAL IMPEDANCE	IMAGINARY IMPEDANCE
! TRACE.#.X 	FREQ.GHZ	FREQ.GHZ	FREQ.GHZ	FREQ.GHZ
! S-PARAMETER	S22	S22	S22	S22
! SMOOTH/APERTURE %	0	0	0	0
! WINDOW	NSL	NSL	NSL	NSL
! GATING	OFF	OFF	OFF	OFF
! FGTD	OFF	OFF	OFF	OFF
Marker Information per Trace:	TR1	TR2	TR3	TR4
!MK1	--	"MK1 TR2:  20.000 MHz,PH:-126.84°"	--	--
!MK2	--	--	"MK2 TR3:  70.100 200 MHz,Z:(16.776 ohm, -1.501 ohm)"	--
!MK3	--	--	--	--
!MK4	--	--	--	--
!MK5	--	--	--	--
!MK6	--	--	--	--
!MK7	--	--	--	--
!MK8	--	--	--	--
PNT	TR1.FREQ.GHZ	TR1.LOG MAG.dB	TR2.FREQ.GHZ	TR2.PHASE.deg	TR3.FREQ.GHZ	TR3.REAL IMPEDANCE.ohm	TR4.FREQ.GHZ	TR4.IMAGINARY IMPEDANCE.ohm
1	  0.020000000	-6.070000E-01	  0.020000000	-1.268390E+02	  0.020000000	2.183000E+00	  0.020000000	-2.497800E+01
2	  0.020200402	-6.100000E-01	  0.020200402	-1.283000E+02	  0.020200402	2.166000E+00	  0.020200402	-2.418700E+01
3	  0.020400802	-6.150000E-01	  0.020400802	-1.297860E+02	  0.020400802	2.157000E+00	  0.020400802	-2.339300E+01
4	  0.020601204	-6.200000E-01	  0.020601204	-1.312970E+02	  0.020601204	2.150000E+00	  0.020601204	-2.259500E+01
5	  0.020801604	-6.240000E-01	  0.020801604	-1.328340E+02	  0.020801604	2.139000E+00	  0.020801604	-2.179300E+01
6	  0.021002004	-6.280000E-01	  0.021002004	-1.343760E+02	  0.021002004	2.127000E+00	  0.021002004	-2.099700E+01
7	  0.021202406	-6.330000E-01	  0.021202406	-1.359380E+02	  0.021202406	2.120000E+00	  0.021202406	-2.020100E+01
8	  0.021402806	-6.340000E-01	  0.021402806	-1.374670E+02	  0.021402806	2.102000E+00	  0.021402806	-1.943000E+01
9	  0.021603208	-6.390000E-01	  0.021603208	-1.390140E+02	  0.021603208	2.097000E+00	  0.021603208	-1.865800E+01
10	  0.021803608	-6.450000E-01	  0.021803608	-1.405520E+02	  0.021803608	2.095000E+00	  0.021803608	-1.789700E+01
11	  0.022004008	-6.500000E-01	  0.022004008	-1.421040E+02	  0.022004008	2.092000E+00	  0.022004008	-1.713800E+01
12	  0.022204408	-6.580000E-01	  0.022204408	-1.436860E+02	  0.022204408	2.097000E+00	  0.022204408	-1.637100E+01
13	  0.022404809	-6.640000E-01	  0.022404809	-1.452980E+02	  0.022404809	2.097000E+00	  0.022404809	-1.559600E+01
14	  0.022605211	-6.710000E-01	  0.022605211	-1.468900E+02	  0.022605211	2.100000E+00	  0.022605211	-1.483800E+01
15	  0.022805611	-6.800000E-01	  0.022805611	-1.484950E+02	  0.022805611	2.114000E+00	  0.022805611	-1.408000E+01
16	  0.023006011	-6.840000E-01	  0.023006011	-1.500940E+02	  0.023006011	2.107000E+00	  0.023006011	-1.333100E+01
17	  0.023206413	-6.890000E-01	  0.023206413	-1.517020E+02	  0.023206413	2.107000E+00	  0.023206413	-1.258300E+01
18	  0.023406813	-6.940000E-01	  0.023406813	-1.533090E+02	  0.023406813	2.110000E+00	  0.023406813	-1.184100E+01
19	  0.023607215	-7.030000E-01	  0.023607215	-1.549280E+02	  0.023607215	2.124000E+00	  0.023607215	-1.109800E+01
20	  0.023807615	-7.160000E-01	  0.023807615	-1.565570E+02	  0.023807615	2.148000E+00	  0.023807615	-1.035500E+01
21	  0.024008015	-7.260000E-01	  0.024008015	-1.582070E+02	  0.024008015	2.166000E+00	  0.024008015	-9.607000E+00
22	  0.024208417	-7.340000E-01	  0.024208417	-1.598820E+02	  0.024208417	2.177000E+00	  0.024208417	-8.852000E+00
23	  0.024408817	-7.420000E-01	  0.024408817	-1.615500E+02	  0.024408817	2.192000E+00	  0.024408817	-8.105000E+00
24	  0.024609219	-7.520000E-01	  0.024609219	-1.632240E+02	  0.024609219	2.210000E+00	  0.024609219	-7.358000E+00
25	  0.024809619	-7.620000E-01	  0.024809619	-1.648950E+02	  0.024809619	2.233000E+00	  0.024809619	-6.616000E+00
26	  0.025010020	-7.760000E-01	  0.025010020	-1.665760E+02	  0.025010020	2.263000E+00	  0.025010020	-5.872000E+00
27	  0.025210422	-7.890000E-01	  0.025210422	-1.682610E+02	  0.025210422	2.293000E+00	  0.025210422	-5.129000E+00
28	  0.025410822	-8.010000E-01	  0.025410822	-1.699610E+02	  0.025410822	2.323000E+00	  0.025410822	-4.382000E+00
29	  0.025611224	-8.150000E-01	  0.025611224	-1.716720E+02	  0.025611224	2.357000E+00	  0.025611224	-3.631000E+00
30	  0.025811624	-8.300000E-01	  0.025811624	-1.734070E+02	  0.025811624	2.395000E+00	  0.025811624	-2.873000E+00
31	  0.026012026	-8.430000E-01	  0.026012026	-1.751390E+02	  0.026012026	2.431000E+00	  0.026012026	-2.117000E+00
32	  0.026212426	-8.570000E-01	  0.026212426	-1.768880E+02	  0.026212426	2.469000E+00	  0.026212426	-1.354000E+00
33	  0.026412826	-8.740000E-01	  0.026412826	-1.786540E+02	  0.026412826	2.515000E+00	  0.026412826	-5.850000E-01
34	  0.026613226	-8.910000E-01	  0.026613226	1.795890E+02	  0.026613226	2.564000E+00	  0.026613226	1.780000E-01
35	  0.026813626	-9.090000E-01	  0.026813626	1.778010E+02	  0.026813626	2.616000E+00	  0.026813626	9.560000E-01
36	  0.027014028	-9.280000E-01	  0.027014028	1.760190E+02	  0.027014028	2.673000E+00	  0.027014028	1.732000E+00
37	  0.027214428	-9.460000E-01	  0.027214428	1.742300E+02	  0.027214428	2.729000E+00	  0.027214428	2.512000E+00
38	  0.027414829	-9.650000E-01	  0.027414829	1.724250E+02	  0.027414829	2.788000E+00	  0.027414829	3.299000E+00
39	  0.027615231	-9.850000E-01	  0.027615231	1.706050E+02	  0.027615231	2.852000E+00	  0.027615231	4.095000E+00
40	  0.027815631	-1.006000E+00	  0.027815631	1.687680E+02	  0.027815631	2.921000E+00	  0.027815631	4.899000E+00
41	  0.028016033	-1.028000E+00	  0.028016033	1.669310E+02	  0.028016033	2.996000E+00	  0.028016033	5.706000E+00
42	  0.028216433	-1.051000E+00	  0.028216433	1.650670E+02	  0.028216433	3.073000E+00	  0.028216433	6.528000E+00
43	  0.028416833	-1.074000E+00	  0.028416833	1.632040E+02	  0.028416833	3.155000E+00	  0.028416833	7.352000E+00
44	  0.028617235	-1.098000E+00	  0.028617235	1.613450E+02	  0.028617235	3.240000E+00	  0.028617235	8.178000E+00
45	  0.028817635	-1.121000E+00	  0.028817635	1.594840E+02	  0.028817635	3.327000E+00	  0.028817635	9.009000E+00
46	  0.029018037	-1.147000E+00	  0.029018037	1.576060E+02	  0.029018037	3.427000E+00	  0.029018037	9.852000E+00
47	  0.029218437	-1.174000E+00	  0.029218437	1.557330E+02	  0.029218437	3.531000E+00	  0.029218437	1.069800E+01
48	  0.029418837	-1.203000E+00	  0.029418837	1.538190E+02	  0.029418837	3.644000E+00	  0.029418837	1.156700E+01
49	  0.029619239	-1.232000E+00	  0.029619239	1.519220E+02	  0.029619239	3.760000E+00	  0.029619239	1.243500E+01
50	  0.029819639	-1.260000E+00	  0.029819639	1.500100E+02	  0.029819639	3.879000E+00	  0.029819639	1.331700E+01
51	  0.030020041	-1.289000E+00	  0.030020041	1.480880E+02	  0.030020041	4.006000E+00	  0.030020041	1.421000E+01
52	  0.030220442	-1.318000E+00	  0.030220442	1.461700E+02	  0.030220442	4.136000E+00	  0.030220442	1.511000E+01
53	  0.030420844	-1.350000E+00	  0.030420844	1.442670E+02	  0.030420844	4.279000E+00	  0.030420844	1.600900E+01
54	  0.030621244	-1.383000E+00	  0.030621244	1.423520E+02	  0.030621244	4.433000E+00	  0.030621244	1.692400E+01
55	  0.030821642	-1.418000E+00	  0.030821642	1.404270E+02	  0.030821642	4.595000E+00	  0.030821642	1.785200E+01
56	  0.031022044	-1.454000E+00	  0.031022044	1.384810E+02	  0.031022044	4.770000E+00	  0.031022044	1.880100E+01
57	  0.031222444	-1.484000E+00	  0.031222444	1.365420E+02	  0.031222444	4.934000E+00	  0.031222444	1.975800E+01
58	  0.031422846	-1.520000E+00	  0.031422846	1.345780E+02	  0.031422846	5.123000E+00	  0.031422846	2.073900E+01
59	  0.031623244	-1.557000E+00	  0.031623244	1.326130E+02	  0.031623244	5.324000E+00	  0.031623244	2.173200E+01
60	  0.031823646	-1.596000E+00	  0.031823646	1.306420E+02	  0.031823646	5.539000E+00	  0.031823646	2.274100E+01
61	  0.032024048	-1.634000E+00	  0.032024048	1.286640E+02	  0.032024048	5.763000E+00	  0.032024048	2.376800E+01
62	  0.032224450	-1.673000E+00	  0.032224450	1.266810E+02	  0.032224450	5.998000E+00	  0.032224450	2.481300E+01
63	  0.032424849	-1.713000E+00	  0.032424849	1.247060E+02	  0.032424849	6.247000E+00	  0.032424849	2.586900E+01
64	  0.032625251	-1.753000E+00	  0.032625251	1.226830E+02	  0.032625251	6.514000E+00	  0.032625251	2.696800E+01
65	  0.032825653	-1.796000E+00	  0.032825653	1.206490E+02	  0.032825653	6.802000E+00	  0.032825653	2.809100E+01
66	  0.033026051	-1.834000E+00	  0.033026051	1.186060E+02	  0.033026051	7.087000E+00	  0.033026051	2.924100E+01
67	  0.033226453	-1.874000E+00	  0.033226453	1.165740E+02	  0.033226453	7.395000E+00	  0.033226453	3.040400E+01
68	  0.033426855	-1.920000E+00	  0.033426855	1.145420E+02	  0.033426855	7.741000E+00	  0.033426855	3.158600E+01
69	  0.033627257	-1.961000E+00	  0.033627257	1.125100E+02	  0.033627257	8.086000E+00	  0.033627257	3.279400E+01
70	  0.033827655	-2.007000E+00	  0.033827655	1.104640E+02	  0.033827655	8.471000E+00	  0.033827655	3.403200E+01
71	  0.034028057	-2.051000E+00	  0.034028057	1.084120E+02	  0.034028057	8.870000E+00	  0.034028057	3.530000E+01
72	  0.034228459	-2.097000E+00	  0.034228459	1.063220E+02	  0.034228459	9.306000E+00	  0.034228459	3.661900E+01
73	  0.034428857	-2.146000E+00	  0.034428857	1.042470E+02	  0.034428857	9.778000E+00	  0.034428857	3.795500E+01
74	  0.034629259	-2.194000E+00	  0.034629259	1.021600E+02	  0.034629259	1.027200E+01	  0.034629259	3.933100E+01
75	  0.034829661	-2.241000E+00	  0.034829661	1.000640E+02	  0.034829661	1.079800E+01	  0.034829661	4.074500E+01
76	  0.035030060	-2.293000E+00	  0.035030060	9.797700E+01	  0.035030060	1.137800E+01	  0.035030060	4.218200E+01
77	  0.035230462	-2.345000E+00	  0.035230462	9.587900E+01	  0.035230462	1.199700E+01	  0.035230462	4.366200E+01
78	  0.035430863	-2.397000E+00	  0.035430863	9.380700E+01	  0.035430863	1.265000E+01	  0.035430863	4.516000E+01
79	  0.035631265	-2.451000E+00	  0.035631265	9.170400E+01	  0.035631265	1.336600E+01	  0.035631265	4.671500E+01
80	  0.035831664	-2.501000E+00	  0.035831664	8.962500E+01	  0.035831664	1.410100E+01	  0.035831664	4.829800E+01
81	  0.036032066	-2.557000E+00	  0.036032066	8.750400E+01	  0.036032066	1.493500E+01	  0.036032066	4.994500E+01
82	  0.036232468	-2.610000E+00	  0.036232468	8.543500E+01	  0.036232468	1.579500E+01	  0.036232468	5.159900E+01
83	  0.036432866	-2.666000E+00	  0.036432866	8.334300E+01	  0.036432866	1.673600E+01	  0.036432866	5.331000E+01
84	  0.036633268	-2.720000E+00	  0.036633268	8.125000E+01	  0.036633268	1.773900E+01	  0.036633268	5.507100E+01
85	  0.036833670	-2.778000E+00	  0.036833670	7.916700E+01	  0.036833670	1.883900E+01	  0.036833670	5.686000E+01
86	  0.037034072	-2.835000E+00	  0.037034072	7.707100E+01	  0.037034072	2.001300E+01	  0.037034072	5.871300E+01
87	  0.037234470	-2.893000E+00	  0.037234470	7.497500E+01	  0.037234470	2.129600E+01	  0.037234470	6.060600E+01
88	  0.037434869	-2.952000E+00	  0.037434869	7.287100E+01	  0.037434869	2.268000E+01	  0.037434869	6.255800E+01
89	  0.037635271	-3.019000E+00	  0.037635271	7.075200E+01	  0.037635271	2.424300E+01	  0.037635271	6.454300E+01
90	  0.037835669	-3.097000E+00	  0.037835669	6.869400E+01	  0.037835669	2.598000E+01	  0.037835669	6.645900E+01
91	  0.038036071	-3.165000E+00	  0.038036071	6.671200E+01	  0.038036071	2.772800E+01	  0.038036071	6.836300E+01
92	  0.038236473	-3.223000E+00	  0.038236473	6.470900E+01	  0.038236473	2.955000E+01	  0.038236473	7.036800E+01
93	  0.038436871	-3.275000E+00	  0.038436871	6.269100E+01	  0.038436871	3.148700E+01	  0.038436871	7.245300E+01
94	  0.038637273	-3.330000E+00	  0.038637273	6.065600E+01	  0.038637273	3.361500E+01	  0.038637273	7.458500E+01
95	  0.038837675	-3.383000E+00	  0.038837675	5.858800E+01	  0.038837675	3.594800E+01	  0.038837675	7.679400E+01
96	  0.039038073	-3.434000E+00	  0.039038073	5.657700E+01	  0.039038073	3.840200E+01	  0.039038073	7.897500E+01
97	  0.039238475	-3.490000E+00	  0.039238475	5.450800E+01	  0.039238475	4.117100E+01	  0.039238475	8.121700E+01
98	  0.039438877	-3.543000E+00	  0.039438877	5.248800E+01	  0.039438877	4.409800E+01	  0.039438877	8.342000E+01
99	  0.039639279	-3.594000E+00	  0.039639279	5.043700E+01	  0.039639279	4.731400E+01	  0.039639279	8.566700E+01
100	  0.039839678	-3.647000E+00	  0.039839678	4.837400E+01	  0.039839678	5.084000E+01	  0.039839678	8.789800E+01
101	  0.040040080	-3.698000E+00	  0.040040080	4.631400E+01	  0.040040080	5.467000E+01	  0.040040080	9.008800E+01
102	  0.040240481	-3.748000E+00	  0.040240481	4.425900E+01	  0.040240481	5.881300E+01	  0.040240481	9.221900E+01
103	  0.040440880	-3.799000E+00	  0.040440880	4.222000E+01	  0.040440880	6.329900E+01	  0.040440880	9.421000E+01
104	  0.040641282	-3.847000E+00	  0.040641282	4.018700E+01	  0.040641282	6.814100E+01	  0.040641282	9.608000E+01
105	  0.040841684	-3.898000E+00	  0.040841684	3.815200E+01	  0.040841684	7.341500E+01	  0.040841684	9.772000E+01
106	  0.041042086	-3.947000E+00	  0.041042086	3.612900E+01	  0.041042086	7.907400E+01	  0.041042086	9.912800E+01
107	  0.041242484	-4.000000E+00	  0.041242484	3.408100E+01	  0.041242484	8.527100E+01	  0.041242484	1.001670E+02
108	  0.041442886	-4.045000E+00	  0.041442886	3.205100E+01	  0.041442886	9.183100E+01	  0.041442886	1.009350E+02
109	  0.041643288	-4.094000E+00	  0.041643288	3.000200E+01	  0.041643288	9.892600E+01	  0.041643288	1.011560E+02
110	  0.041843686	-4.139000E+00	  0.041843686	2.796200E+01	  0.041843686	1.064230E+02	  0.041843686	1.008590E+02
111	  0.042044088	-4.185000E+00	  0.042044088	2.591000E+01	  0.042044088	1.143810E+02	  0.042044088	9.980300E+01
112	  0.042244490	-4.232000E+00	  0.042244490	2.388800E+01	  0.042244490	1.225610E+02	  0.042244490	9.793700E+01
113	  0.042444889	-4.277000E+00	  0.042444889	2.187800E+01	  0.042444889	1.309320E+02	  0.042444889	9.517800E+01
114	  0.042645290	-4.322000E+00	  0.042645290	1.986600E+01	  0.042645290	1.394250E+02	  0.042645290	9.137900E+01
115	  0.042845692	-4.367000E+00	  0.042845692	1.785600E+01	  0.042845692	1.478670E+02	  0.042845692	8.647400E+01
116	  0.043046094	-4.408000E+00	  0.043046094	1.585800E+01	  0.043046094	1.560840E+02	  0.043046094	8.052800E+01
117	  0.043246493	-4.454000E+00	  0.043246493	1.381800E+01	  0.043246493	1.639380E+02	  0.043246493	7.309900E+01
118	  0.043446895	-4.494000E+00	  0.043446895	1.183200E+01	  0.043446895	1.710070E+02	  0.043446895	6.483600E+01
119	  0.043647297	-4.533000E+00	  0.043647297	9.835000E+00	  0.043647297	1.772130E+02	  0.043647297	5.544100E+01
120	  0.043847695	-4.578000E+00	  0.043847695	7.842000E+00	  0.043847695	1.821170E+02	  0.043847695	4.503100E+01
121	  0.044048097	-4.617000E+00	  0.044048097	5.864000E+00	  0.044048097	1.857920E+02	  0.044048097	3.407700E+01
122	  0.044248499	-4.657000E+00	  0.044248499	3.898000E+00	  0.044248499	1.879780E+02	  0.044248499	2.272900E+01
123	  0.044448901	-4.694000E+00	  0.044448901	1.932000E+00	  0.044448901	1.887710E+02	  0.044448901	1.122000E+01
124	  0.044649299	-4.735000E+00	  0.044649299	-2.700000E-02	  0.044649299	1.879520E+02	  0.044649299	-1.590000E-01
125	  0.044849701	-4.776000E+00	  0.044849701	-1.976000E+00	  0.044849701	1.857050E+02	  0.044849701	-1.108300E+01
126	  0.045050103	-4.812000E+00	  0.045050103	-3.923000E+00	  0.045050103	1.823710E+02	  0.045050103	-2.140900E+01
127	  0.045250501	-4.851000E+00	  0.045250501	-5.859000E+00	  0.045250501	1.778570E+02	  0.045250501	-3.087600E+01
128	  0.045450903	-4.888000E+00	  0.045450903	-7.777000E+00	  0.045450903	1.725770E+02	  0.045450903	-3.937900E+01
129	  0.045651305	-4.923000E+00	  0.045651305	-9.716000E+00	  0.045651305	1.666300E+02	  0.045651305	-4.705200E+01
130	  0.045851704	-4.956000E+00	  0.045851704	-1.162100E+01	  0.045851704	1.603180E+02	  0.045851704	-5.363300E+01
131	  0.046052102	-4.993000E+00	  0.046052102	-1.352400E+01	  0.046052102	1.536220E+02	  0.046052102	-5.917600E+01
132	  0.046252504	-5.028000E+00	  0.046252504	-1.540400E+01	  0.046252504	1.468930E+02	  0.046252504	-6.377200E+01
133	  0.046452906	-5.062000E+00	  0.046452906	-1.727000E+01	  0.046452906	1.402150E+02	  0.046452906	-6.752900E+01
134	  0.046653304	-5.099000E+00	  0.046653304	-1.916800E+01	  0.046653304	1.334730E+02	  0.046653304	-7.053300E+01
135	  0.046853706	-5.135000E+00	  0.046853706	-2.102400E+01	  0.046853706	1.270360E+02	  0.046853706	-7.277700E+01
136	  0.047054108	-5.169000E+00	  0.047054108	-2.289000E+01	  0.047054108	1.207990E+02	  0.047054108	-7.448000E+01
137	  0.047254506	-5.205000E+00	  0.047254506	-2.475400E+01	  0.047254506	1.148060E+02	  0.047254506	-7.560700E+01
138	  0.047454908	-5.238000E+00	  0.047454908	-2.656600E+01	  0.047454908	1.092610E+02	  0.047454908	-7.631400E+01
139	  0.047655310	-5.272000E+00	  0.047655310	-2.836300E+01	  0.047655310	1.040250E+02	  0.047655310	-7.661800E+01
140	  0.047855709	-5.306000E+00	  0.047855709	-3.016200E+01	  0.047855709	9.906500E+01	  0.047855709	-7.662200E+01
141	  0.048056111	-5.340000E+00	  0.048056111	-3.194000E+01	  0.048056111	9.443100E+01	  0.048056111	-7.634500E+01
142	  0.048256513	-5.370000E+00	  0.048256513	-3.371600E+01	  0.048256513	9.007000E+01	  0.048256513	-7.592400E+01
143	  0.048456915	-5.400000E+00	  0.048456915	-3.547700E+01	  0.048456915	8.599400E+01	  0.048456915	-7.533000E+01
144	  0.048657313	-5.427000E+00	  0.048657313	-3.725900E+01	  0.048657313	8.210800E+01	  0.048657313	-7.460100E+01
145	  0.048857715	-5.458000E+00	  0.048857715	-3.900800E+01	  0.048857715	7.852700E+01	  0.048857715	-7.370600E+01
146	  0.049058117	-5.483000E+00	  0.049058117	-4.077200E+01	  0.049058117	7.511900E+01	  0.049058117	-7.277800E+01
147	  0.049258515	-5.510000E+00	  0.049258515	-4.250600E+01	  0.049258515	7.197500E+01	  0.049258515	-7.174400E+01
148	  0.049458917	-5.537000E+00	  0.049458917	-4.421900E+01	  0.049458917	6.905400E+01	  0.049458917	-7.065500E+01
149	  0.049659319	-5.564000E+00	  0.049659319	-4.591800E+01	  0.049659319	6.632700E+01	  0.049659319	-6.952400E+01
150	  0.049859721	-5.590000E+00	  0.049859721	-4.762000E+01	  0.049859721	6.375600E+01	  0.049859721	-6.835400E+01
151	  0.050060119	-5.615000E+00	  0.050060119	-4.931700E+01	  0.050060119	6.133500E+01	  0.050060119	-6.717300E+01
152	  0.050260521	-5.638000E+00	  0.050260521	-5.099000E+01	  0.050260521	5.908200E+01	  0.050260521	-6.599200E+01
153	  0.050460923	-5.658000E+00	  0.050460923	-5.268100E+01	  0.050460923	5.692400E+01	  0.050460923	-6.480400E+01
154	  0.050661322	-5.678000E+00	  0.050661322	-5.436700E+01	  0.050661322	5.489200E+01	  0.050661322	-6.361100E+01
155	  0.050861724	-5.696000E+00	  0.050861724	-5.599700E+01	  0.050861724	5.302900E+01	  0.050861724	-6.246100E+01
156	  0.051062126	-5.720000E+00	  0.051062126	-5.762400E+01	  0.051062126	5.129800E+01	  0.051062126	-6.125500E+01
157	  0.051262524	-5.737000E+00	  0.051262524	-5.926700E+01	  0.051262524	4.961100E+01	  0.051262524	-6.009500E+01
158	  0.051462926	-5.757000E+00	  0.051462926	-6.085900E+01	  0.051462926	4.808000E+01	  0.051462926	-5.894400E+01
159	  0.051663328	-5.773000E+00	  0.051663328	-6.246800E+01	  0.051663328	4.659600E+01	  0.051663328	-5.781200E+01
160	  0.051863730	-5.791000E+00	  0.051863730	-6.407000E+01	  0.051863730	4.520400E+01	  0.051863730	-5.667700E+01
161	  0.052064128	-5.801000E+00	  0.052064128	-6.564300E+01	  0.052064128	4.387200E+01	  0.052064128	-5.561200E+01
162	  0.052264530	-5.814000E+00	  0.052264530	-6.724000E+01	  0.052264530	4.260100E+01	  0.052264530	-5.451800E+01
163	  0.052464932	-5.828000E+00	  0.052464932	-6.877000E+01	  0.052464932	4.144600E+01	  0.052464932	-5.347400E+01
164	  0.052665330	-5.843000E+00	  0.052665330	-7.031900E+01	  0.052665330	4.033900E+01	  0.052665330	-5.241600E+01
165	  0.052865732	-5.858000E+00	  0.052865732	-7.182700E+01	  0.052865732	3.931400E+01	  0.052865732	-5.139500E+01
166	  0.053066134	-5.873000E+00	  0.053066134	-7.334600E+01	  0.053066134	3.832600E+01	  0.053066134	-5.037800E+01
167	  0.053266536	-5.886000E+00	  0.053266536	-7.484500E+01	  0.053266536	3.739400E+01	  0.053266536	-4.938900E+01
168	  0.053466935	-5.901000E+00	  0.053466935	-7.635100E+01	  0.053466935	3.650500E+01	  0.053466935	-4.839900E+01
169	  0.053667337	-5.911000E+00	  0.053667337	-7.785100E+01	  0.053667337	3.564100E+01	  0.053667337	-4.744400E+01
170	  0.053867739	-5.920000E+00	  0.053867739	-7.932500E+01	  0.053867739	3.482600E+01	  0.053867739	-4.651800E+01
171	  0.054068137	-5.934000E+00	  0.054068137	-8.081200E+01	  0.054068137	3.405700E+01	  0.054068137	-4.557600E+01
172	  0.054268539	-5.943000E+00	  0.054268539	-8.226400E+01	  0.054268539	3.332100E+01	  0.054268539	-4.468300E+01
173	  0.054468941	-5.956000E+00	  0.054468941	-8.369900E+01	  0.054468941	3.264100E+01	  0.054468941	-4.379500E+01
174	  0.054669335	-5.968000E+00	  0.054669335	-8.512500E+01	  0.054669335	3.198800E+01	  0.054669335	-4.292800E+01
175	  0.054869737	-5.979000E+00	  0.054869737	-8.654200E+01	  0.054869737	3.136700E+01	  0.054869737	-4.207400E+01
176	  0.055070139	-5.992000E+00	  0.055070139	-8.797800E+01	  0.055070139	3.076700E+01	  0.055070139	-4.121700E+01
177	  0.055270538	-6.003000E+00	  0.055270538	-8.936800E+01	  0.055270538	3.020200E+01	  0.055270538	-4.040200E+01
178	  0.055470940	-6.012000E+00	  0.055470940	-9.078200E+01	  0.055470940	2.964400E+01	  0.055470940	-3.958600E+01
179	  0.055671342	-6.020000E+00	  0.055671342	-9.217300E+01	  0.055671342	2.911400E+01	  0.055671342	-3.879500E+01
180	  0.055871744	-6.026000E+00	  0.055871744	-9.358800E+01	  0.055871744	2.859000E+01	  0.055871744	-3.800300E+01
181	  0.056072142	-6.035000E+00	  0.056072142	-9.498900E+01	  0.056072142	2.810000E+01	  0.056072142	-3.722100E+01
182	  0.056272544	-6.043000E+00	  0.056272544	-9.635400E+01	  0.056272544	2.764100E+01	  0.056272544	-3.646600E+01
183	  0.056472946	-6.054000E+00	  0.056472946	-9.771800E+01	  0.056472946	2.720600E+01	  0.056472946	-3.571700E+01
184	  0.056673344	-6.059000E+00	  0.056673344	-9.906000E+01	  0.056673344	2.677700E+01	  0.056673344	-3.499700E+01
185	  0.056873746	-6.065000E+00	  0.056873746	-1.003970E+02	  0.056873746	2.636700E+01	  0.056873746	-3.428600E+01
186	  0.057074148	-6.071000E+00	  0.057074148	-1.017850E+02	  0.057074148	2.596000E+01	  0.057074148	-3.355400E+01
187	  0.057274550	-6.074000E+00	  0.057274550	-1.031240E+02	  0.057274550	2.556900E+01	  0.057274550	-3.286200E+01
188	  0.057474948	-6.083000E+00	  0.057474948	-1.044700E+02	  0.057474948	2.521300E+01	  0.057474948	-3.216000E+01
189	  0.057675350	-6.085000E+00	  0.057675350	-1.057920E+02	  0.057675350	2.485200E+01	  0.057675350	-3.149000E+01
190	  0.057875752	-6.089000E+00	  0.057875752	-1.071230E+02	  0.057875752	2.450800E+01	  0.057875752	-3.081900E+01
191	  0.058076151	-6.091000E+00	  0.058076151	-1.084150E+02	  0.058076151	2.417800E+01	  0.058076151	-3.017600E+01
192	  0.058276553	-6.094000E+00	  0.058276553	-1.097080E+02	  0.058276553	2.386400E+01	  0.058276553	-2.953600E+01
193	  0.058476955	-6.101000E+00	  0.058476955	-1.110060E+02	  0.058476955	2.357300E+01	  0.058476955	-2.889300E+01
194	  0.058677353	-6.101000E+00	  0.058677353	-1.123020E+02	  0.058677353	2.327100E+01	  0.058677353	-2.826600E+01
195	  0.058877755	-6.103000E+00	  0.058877755	-1.135890E+02	  0.058877755	2.298700E+01	  0.058877755	-2.764600E+01
196	  0.059078157	-6.099000E+00	  0.059078157	-1.148360E+02	  0.059078157	2.270100E+01	  0.059078157	-2.705900E+01
197	  0.059278559	-6.099000E+00	  0.059278559	-1.161270E+02	  0.059278559	2.243100E+01	  0.059278559	-2.644800E+01
198	  0.059478957	-6.101000E+00	  0.059478957	-1.173560E+02	  0.059478957	2.218500E+01	  0.059478957	-2.587000E+01
199	  0.059679359	-6.102000E+00	  0.059679359	-1.186030E+02	  0.059679359	2.194300E+01	  0.059679359	-2.528800E+01
200	  0.059879761	-6.105000E+00	  0.059879761	-1.198130E+02	  0.059879761	2.172200E+01	  0.059879761	-2.472500E+01
201	  0.060080159	-6.104000E+00	  0.060080159	-1.210490E+02	  0.060080159	2.148900E+01	  0.060080159	-2.415900E+01
202	  0.060280561	-6.104000E+00	  0.060280561	-1.222590E+02	  0.060280561	2.127500E+01	  0.060280561	-2.360700E+01
203	  0.060480963	-6.105000E+00	  0.060480963	-1.234750E+02	  0.060480963	2.106800E+01	  0.060480963	-2.305500E+01
204	  0.060681365	-6.103000E+00	  0.060681365	-1.246690E+02	  0.060681365	2.086400E+01	  0.060681365	-2.251900E+01
205	  0.060881764	-6.100000E+00	  0.060881764	-1.258840E+02	  0.060881764	2.065800E+01	  0.060881764	-2.197900E+01
206	  0.061082166	-6.101000E+00	  0.061082166	-1.270820E+02	  0.061082166	2.047400E+01	  0.061082166	-2.144500E+01
207	  0.061282568	-6.100000E+00	  0.061282568	-1.282680E+02	  0.061282568	2.029200E+01	  0.061282568	-2.092100E+01
208	  0.061482966	-6.100000E+00	  0.061482966	-1.294360E+02	  0.061482966	2.012300E+01	  0.061482966	-2.040800E+01
209	  0.061683368	-6.100000E+00	  0.061683368	-1.306090E+02	  0.061683368	1.995800E+01	  0.061683368	-1.989500E+01
210	  0.061883770	-6.102000E+00	  0.061883770	-1.317680E+02	  0.061883770	1.980500E+01	  0.061883770	-1.939000E+01
211	  0.062084168	-6.103000E+00	  0.062084168	-1.329180E+02	  0.062084168	1.965600E+01	  0.062084168	-1.889200E+01
212	  0.062284570	-6.099000E+00	  0.062284570	-1.340760E+02	  0.062284570	1.949800E+01	  0.062284570	-1.839700E+01
213	  0.062484972	-6.095000E+00	  0.062484972	-1.352050E+02	  0.062484972	1.934700E+01	  0.062484972	-1.791700E+01
214	  0.062685370	-6.097000E+00	  0.062685370	-1.363590E+02	  0.062685370	1.921600E+01	  0.062685370	-1.742400E+01
215	  0.062885776	-6.094000E+00	  0.062885776	-1.374960E+02	  0.062885776	1.907700E+01	  0.062885776	-1.694400E+01
216	  0.063086174	-6.093000E+00	  0.063086174	-1.386330E+02	  0.063086174	1.894800E+01	  0.063086174	-1.646500E+01
217	  0.063286573	-6.095000E+00	  0.063286573	-1.397840E+02	  0.063286573	1.883100E+01	  0.063286573	-1.598000E+01
218	  0.063486971	-6.092000E+00	  0.063486971	-1.409000E+02	  0.063486971	1.870700E+01	  0.063486971	-1.551500E+01
219	  0.063687377	-6.093000E+00	  0.063687377	-1.419970E+02	  0.063687377	1.860000E+01	  0.063687377	-1.505800E+01
220	  0.063887775	-6.090000E+00	  0.063887775	-1.431240E+02	  0.063887775	1.848400E+01	  0.063887775	-1.459200E+01
221	  0.064088173	-6.086000E+00	  0.064088173	-1.442610E+02	  0.064088173	1.836900E+01	  0.064088173	-1.412500E+01
222	  0.064288579	-6.089000E+00	  0.064288579	-1.453990E+02	  0.064288579	1.827500E+01	  0.064288579	-1.365600E+01
223	  0.064488977	-6.087000E+00	  0.064488977	-1.465070E+02	  0.064488977	1.817600E+01	  0.064488977	-1.320200E+01
224	  0.064689375	-6.088000E+00	  0.064689375	-1.476170E+02	  0.064689375	1.808600E+01	  0.064689375	-1.274900E+01
225	  0.064889781	-6.089000E+00	  0.064889781	-1.487420E+02	  0.064889781	1.800100E+01	  0.064889781	-1.229000E+01
226	  0.065090179	-6.089000E+00	  0.065090179	-1.498250E+02	  0.065090179	1.791800E+01	  0.065090179	-1.185200E+01
227	  0.065290578	-6.087000E+00	  0.065290578	-1.509200E+02	  0.065290578	1.783300E+01	  0.065290578	-1.141000E+01
228	  0.065490983	-6.083000E+00	  0.065490983	-1.520050E+02	  0.065490983	1.774800E+01	  0.065490983	-1.097400E+01
229	  0.065691382	-6.083000E+00	  0.065691382	-1.531110E+02	  0.065691382	1.767300E+01	  0.065691382	-1.053000E+01
230	  0.065891780	-6.083000E+00	  0.065891780	-1.542080E+02	  0.065891780	1.760400E+01	  0.065891780	-1.009100E+01
231	  0.066092186	-6.082000E+00	  0.066092186	-1.552890E+02	  0.066092186	1.753500E+01	  0.066092186	-9.659000E+00
232	  0.066292584	-6.075000E+00	  0.066292584	-1.563450E+02	  0.066292584	1.745700E+01	  0.066292584	-9.241000E+00
233	  0.066492982	-6.076000E+00	  0.066492982	-1.574360E+02	  0.066492982	1.740100E+01	  0.066492982	-8.807000E+00
234	  0.066693388	-6.075000E+00	  0.066693388	-1.585210E+02	  0.066693388	1.734100E+01	  0.066693388	-8.377000E+00
235	  0.066893786	-6.070000E+00	  0.066893786	-1.595470E+02	  0.066893786	1.727600E+01	  0.066893786	-7.973000E+00
236	  0.067094192	-6.070000E+00	  0.067094192	-1.606330E+02	  0.067094192	1.722700E+01	  0.067094192	-7.544000E+00
237	  0.067294590	-6.070000E+00	  0.067294590	-1.616830E+02	  0.067294590	1.718000E+01	  0.067294590	-7.130000E+00
238	  0.067494988	-6.068000E+00	  0.067494988	-1.627220E+02	  0.067494988	1.713300E+01	  0.067494988	-6.722000E+00
239	  0.067695394	-6.065000E+00	  0.067695394	-1.637990E+02	  0.067695394	1.708300E+01	  0.067695394	-6.300000E+00
240	  0.067895792	-6.064000E+00	  0.067895792	-1.648320E+02	  0.067895792	1.704300E+01	  0.067895792	-5.895000E+00
241	  0.068096191	-6.066000E+00	  0.068096191	-1.658900E+02	  0.068096191	1.701200E+01	  0.068096191	-5.480000E+00
242	  0.068296596	-6.062000E+00	  0.068296596	-1.669490E+02	  0.068296596	1.696700E+01	  0.068296596	-5.067000E+00
243	  0.068496995	-6.068000E+00	  0.068496995	-1.679710E+02	  0.068496995	1.695300E+01	  0.068496995	-4.667000E+00
244	  0.068697393	-6.062000E+00	  0.068697393	-1.689890E+02	  0.068697393	1.691100E+01	  0.068697393	-4.272000E+00
245	  0.068897791	-6.059000E+00	  0.068897791	-1.700280E+02	  0.068897791	1.688000E+01	  0.068897791	-3.867000E+00
246	  0.069098189	-6.059000E+00	  0.069098189	-1.710550E+02	  0.069098189	1.685800E+01	  0.069098189	-3.468000E+00
247	  0.069298595	-6.056000E+00	  0.069298595	-1.720520E+02	  0.069298595	1.683100E+01	  0.069298595	-3.081000E+00
248	  0.069498993	-6.057000E+00	  0.069498993	-1.731190E+02	  0.069498993	1.681300E+01	  0.069498993	-2.666000E+00
249	  0.069699399	-6.058000E+00	  0.069699399	-1.741260E+02	  0.069699399	1.680100E+01	  0.069699399	-2.276000E+00
250	  0.069899797	-6.057000E+00	  0.069899797	-1.751460E+02	  0.069899797	1.678700E+01	  0.069899797	-1.880000E+00
251	  0.070100196	-6.056000E+00	  0.070100196	-1.761240E+02	  0.070100196	1.677600E+01	  0.070100196	-1.501000E+00
252	  0.070300601	-6.059000E+00	  0.070300601	-1.771390E+02	  0.070300601	1.677400E+01	  0.070300601	-1.107000E+00
253	  0.070501000	-6.057000E+00	  0.070501000	-1.781340E+02	  0.070501000	1.676500E+01	  0.070501000	-7.220000E-01
254	  0.070701398	-6.058000E+00	  0.070701398	-1.791190E+02	  0.070701398	1.676300E+01	  0.070701398	-3.410000E-01
255	  0.070901804	-6.059000E+00	  0.070901804	1.798810E+02	  0.070901804	1.676600E+01	  0.070901804	4.600000E-02
256	  0.071102202	-6.060000E+00	  0.071102202	1.788580E+02	  0.071102202	1.677000E+01	  0.071102202	4.410000E-01
257	  0.071302600	-6.065000E+00	  0.071302600	1.778830E+02	  0.071302600	1.678500E+01	  0.071302600	8.190000E-01
258	  0.071503006	-6.068000E+00	  0.071503006	1.768880E+02	  0.071503006	1.680000E+01	  0.071503006	1.204000E+00
259	  0.071703404	-6.068000E+00	  0.071703404	1.759150E+02	  0.071703404	1.680900E+01	  0.071703404	1.581000E+00
260	  0.071903802	-6.071000E+00	  0.071903802	1.749220E+02	  0.071903802	1.682600E+01	  0.071903802	1.966000E+00
261	  0.072104208	-6.073000E+00	  0.072104208	1.739590E+02	  0.072104208	1.684400E+01	  0.072104208	2.339000E+00
262	  0.072304606	-6.076000E+00	  0.072304606	1.729730E+02	  0.072304606	1.686600E+01	  0.072304606	2.721000E+00
263	  0.072505005	-6.080000E+00	  0.072505005	1.720130E+02	  0.072505005	1.689300E+01	  0.072505005	3.093000E+00
264	  0.072705410	-6.083000E+00	  0.072705410	1.710180E+02	  0.072705410	1.691900E+01	  0.072705410	3.479000E+00
265	  0.072905809	-6.088000E+00	  0.072905809	1.700560E+02	  0.072905809	1.695300E+01	  0.072905809	3.852000E+00
266	  0.073106214	-6.098000E+00	  0.073106214	1.690750E+02	  0.073106214	1.700100E+01	  0.073106214	4.232000E+00
267	  0.073306613	-6.101000E+00	  0.073306613	1.681200E+02	  0.073306613	1.703500E+01	  0.073306613	4.603000E+00
268	  0.073507011	-6.107000E+00	  0.073507011	1.671550E+02	  0.073507011	1.707700E+01	  0.073507011	4.978000E+00
269	  0.073707417	-6.114000E+00	  0.073707417	1.661740E+02	  0.073707417	1.712700E+01	  0.073707417	5.359000E+00
270	  0.073907815	-6.118000E+00	  0.073907815	1.652390E+02	  0.073907815	1.716700E+01	  0.073907815	5.723000E+00
271	  0.074108213	-6.126000E+00	  0.074108213	1.642930E+02	  0.074108213	1.722200E+01	  0.074108213	6.091000E+00
272	  0.074308619	-6.135000E+00	  0.074308619	1.633430E+02	  0.074308619	1.728000E+01	  0.074308619	6.461000E+00
273	  0.074509017	-6.141000E+00	  0.074509017	1.623560E+02	  0.074509017	1.733600E+01	  0.074509017	6.846000E+00
274	  0.074709415	-6.147000E+00	  0.074709415	1.614350E+02	  0.074709415	1.739100E+01	  0.074709415	7.205000E+00
275	  0.074909821	-6.158000E+00	  0.074909821	1.604740E+02	  0.074909821	1.746200E+01	  0.074909821	7.580000E+00
276	  0.075110219	-6.168000E+00	  0.075110219	1.595170E+02	  0.075110219	1.753300E+01	  0.075110219	7.953000E+00
277	  0.075310618	-6.176000E+00	  0.075310618	1.586090E+02	  0.075310618	1.760000E+01	  0.075310618	8.308000E+00
278	  0.075511023	-6.186000E+00	  0.075511023	1.576520E+02	  0.075511023	1.767600E+01	  0.075511023	8.682000E+00
279	  0.075711422	-6.190000E+00	  0.075711422	1.567460E+02	  0.075711422	1.773600E+01	  0.075711422	9.039000E+00
280	  0.075911827	-6.201000E+00	  0.075911827	1.558240E+02	  0.075911827	1.781800E+01	  0.075911827	9.400000E+00
281	  0.076112226	-6.210000E+00	  0.076112226	1.548660E+02	  0.076112226	1.789700E+01	  0.076112226	9.777000E+00
282	  0.076312624	-6.222000E+00	  0.076312624	1.539390E+02	  0.076312624	1.798700E+01	  0.076312624	1.014000E+01
283	  0.076513030	-6.235000E+00	  0.076513030	1.530250E+02	  0.076513030	1.808100E+01	  0.076513030	1.049900E+01
284	  0.076713428	-6.245000E+00	  0.076713428	1.520830E+02	  0.076713428	1.817100E+01	  0.076713428	1.087000E+01
285	  0.076913826	-6.254000E+00	  0.076913826	1.511630E+02	  0.076913826	1.826000E+01	  0.076913826	1.123300E+01
286	  0.077114232	-6.266000E+00	  0.077114232	1.502830E+02	  0.077114232	1.835600E+01	  0.077114232	1.158000E+01
287	  0.077314630	-6.283000E+00	  0.077314630	1.493760E+02	  0.077314630	1.846900E+01	  0.077314630	1.193600E+01
288	  0.077515028	-6.291000E+00	  0.077515028	1.484500E+02	  0.077515028	1.856300E+01	  0.077515028	1.230400E+01
289	  0.077715434	-6.306000E+00	  0.077715434	1.475680E+02	  0.077715434	1.867400E+01	  0.077715434	1.265100E+01
290	  0.077915832	-6.318000E+00	  0.077915832	1.466900E+02	  0.077915832	1.878000E+01	  0.077915832	1.299900E+01
291	  0.078116231	-6.334000E+00	  0.078116231	1.457970E+02	  0.078116231	1.889900E+01	  0.078116231	1.335200E+01
292	  0.078316636	-6.345000E+00	  0.078316636	1.448970E+02	  0.078316636	1.901000E+01	  0.078316636	1.371000E+01
293	  0.078517035	-6.360000E+00	  0.078517035	1.439900E+02	  0.078517035	1.913300E+01	  0.078517035	1.407000E+01
294	  0.078717433	-6.377000E+00	  0.078717433	1.431270E+02	  0.078717433	1.926200E+01	  0.078717433	1.441000E+01
295	  0.078917839	-6.390000E+00	  0.078917839	1.422670E+02	  0.078917839	1.938100E+01	  0.078917839	1.475300E+01
296	  0.079118237	-6.408000E+00	  0.079118237	1.413980E+02	  0.079118237	1.951700E+01	  0.079118237	1.509700E+01
297	  0.079318643	-6.425000E+00	  0.079318643	1.405290E+02	  0.079318643	1.965500E+01	  0.079318643	1.544100E+01
298	  0.079519041	-6.441000E+00	  0.079519041	1.396740E+02	  0.079519041	1.978900E+01	  0.079519041	1.578200E+01
299	  0.079719439	-6.460000E+00	  0.079719439	1.388350E+02	  0.079719439	1.993300E+01	  0.079719439	1.611400E+01
300	  0.079919845	-6.479000E+00	  0.079919845	1.379520E+02	  0.079919845	2.008600E+01	  0.079919845	1.646400E+01
301	  0.080120243	-6.493000E+00	  0.080120243	1.371070E+02	  0.080120243	2.022400E+01	  0.080120243	1.680200E+01
302	  0.080320641	-6.513000E+00	  0.080320641	1.362600E+02	  0.080320641	2.037900E+01	  0.080320641	1.713800E+01
303	  0.080521047	-6.533000E+00	  0.080521047	1.354430E+02	  0.080521047	2.053600E+01	  0.080521047	1.746100E+01
304	  0.080721445	-6.554000E+00	  0.080721445	1.345760E+02	  0.080721445	2.070300E+01	  0.080721445	1.780400E+01
305	  0.080921844	-6.570000E+00	  0.080921844	1.337890E+02	  0.080921844	2.085000E+01	  0.080921844	1.811900E+01
306	  0.081122249	-6.591000E+00	  0.081122249	1.329800E+02	  0.081122249	2.101700E+01	  0.081122249	1.843800E+01
307	  0.081322648	-6.613000E+00	  0.081322648	1.321520E+02	  0.081322648	2.119200E+01	  0.081322648	1.876500E+01
308	  0.081523046	-6.631000E+00	  0.081523046	1.313190E+02	  0.081523046	2.135600E+01	  0.081523046	1.909900E+01
309	  0.081723452	-6.652000E+00	  0.081723452	1.305040E+02	  0.081723452	2.153200E+01	  0.081723452	1.942200E+01
310	  0.081923850	-6.668000E+00	  0.081923850	1.296880E+02	  0.081923850	2.169700E+01	  0.081923850	1.975100E+01
311	  0.082124248	-6.691000E+00	  0.082124248	1.288850E+02	  0.082124248	2.188300E+01	  0.082124248	2.006700E+01
312	  0.082324654	-6.710000E+00	  0.082324654	1.281090E+02	  0.082324654	2.205700E+01	  0.082324654	2.037600E+01
313	  0.082525052	-6.731000E+00	  0.082525052	1.273440E+02	  0.082525052	2.223700E+01	  0.082525052	2.067900E+01
314	  0.082725458	-6.751000E+00	  0.082725458	1.265310E+02	  0.082725458	2.242600E+01	  0.082725458	2.100200E+01
315	  0.082925856	-6.774000E+00	  0.082925856	1.257650E+02	  0.082925856	2.261800E+01	  0.082925856	2.130400E+01
316	  0.083126254	-6.796000E+00	  0.083126254	1.249770E+02	  0.083126254	2.281400E+01	  0.083126254	2.161500E+01
317	  0.083326660	-6.816000E+00	  0.083326660	1.241950E+02	  0.083326660	2.300700E+01	  0.083326660	2.192600E+01
318	  0.083527058	-6.842000E+00	  0.083527058	1.234150E+02	  0.083527058	2.321900E+01	  0.083527058	2.223000E+01
319	  0.083727457	-6.865000E+00	  0.083727457	1.226400E+02	  0.083727457	2.342600E+01	  0.083727457	2.253400E+01
320	  0.083927862	-6.890000E+00	  0.083927862	1.218660E+02	  0.083927862	2.363900E+01	  0.083927862	2.283700E+01
321	  0.084128261	-6.912000E+00	  0.084128261	1.211260E+02	  0.084128261	2.384200E+01	  0.084128261	2.312700E+01
322	  0.084328659	-6.939000E+00	  0.084328659	1.203500E+02	  0.084328659	2.407200E+01	  0.084328659	2.342600E+01
323	  0.084529065	-6.959000E+00	  0.084529065	1.196060E+02	  0.084529065	2.427600E+01	  0.084529065	2.372100E+01
324	  0.084729463	-6.986000E+00	  0.084729463	1.188330E+02	  0.084729463	2.450900E+01	  0.084729463	2.401900E+01
325	  0.084929854	-7.011000E+00	  0.084929854	1.180760E+02	  0.084929854	2.473900E+01	  0.084929854	2.431100E+01
326	  0.085130259	-7.033000E+00	  0.085130259	1.172840E+02	  0.085130259	2.497000E+01	  0.085130259	2.462400E+01
327	  0.085330658	-7.060000E+00	  0.085330658	1.165750E+02	  0.085330658	2.520000E+01	  0.085330658	2.489300E+01
328	  0.085531056	-7.088000E+00	  0.085531056	1.157830E+02	  0.085531056	2.545500E+01	  0.085531056	2.519600E+01
329	  0.085731462	-7.111000E+00	  0.085731462	1.150580E+02	  0.085731462	2.568500E+01	  0.085731462	2.547700E+01
330	  0.085931860	-7.136000E+00	  0.085931860	1.143290E+02	  0.085931860	2.592600E+01	  0.085931860	2.575500E+01
331	  0.086132258	-7.160000E+00	  0.086132258	1.135880E+02	  0.086132258	2.616800E+01	  0.086132258	2.604100E+01
332	  0.086332664	-7.190000E+00	  0.086332664	1.128670E+02	  0.086332664	2.642800E+01	  0.086332664	2.630600E+01
333	  0.086533062	-7.215000E+00	  0.086533062	1.121240E+02	  0.086533062	2.668200E+01	  0.086533062	2.658900E+01
334	  0.086733460	-7.238000E+00	  0.086733460	1.113880E+02	  0.086733460	2.693300E+01	  0.086733460	2.687200E+01
335	  0.086933866	-7.268000E+00	  0.086933866	1.106660E+02	  0.086933866	2.720300E+01	  0.086933866	2.713600E+01
336	  0.087134264	-7.295000E+00	  0.087134264	1.099280E+02	  0.087134264	2.747300E+01	  0.087134264	2.741100E+01
337	  0.087334670	-7.322000E+00	  0.087334670	1.092170E+02	  0.087334670	2.773900E+01	  0.087334670	2.767400E+01
338	  0.087535068	-7.348000E+00	  0.087535068	1.085080E+02	  0.087535068	2.800600E+01	  0.087535068	2.793600E+01
339	  0.087735467	-7.380000E+00	  0.087735467	1.078090E+02	  0.087735467	2.829100E+01	  0.087735467	2.818200E+01
340	  0.087935872	-7.411000E+00	  0.087935872	1.071120E+02	  0.087935872	2.857500E+01	  0.087935872	2.842800E+01
341	  0.088136271	-7.439000E+00	  0.088136271	1.064140E+02	  0.088136271	2.885400E+01	  0.088136271	2.867900E+01
342	  0.088336669	-7.468000E+00	  0.088336669	1.057240E+02	  0.088336669	2.913900E+01	  0.088336669	2.892200E+01
343	  0.088537075	-7.497000E+00	  0.088537075	1.050530E+02	  0.088537075	2.942200E+01	  0.088537075	2.915600E+01
344	  0.088737473	-7.532000E+00	  0.088737473	1.043790E+02	  0.088737473	2.972600E+01	  0.088737473	2.937900E+01
345	  0.088937871	-7.559000E+00	  0.088937871	1.037280E+02	  0.088937871	3.000200E+01	  0.088937871	2.960600E+01
346	  0.089138277	-7.589000E+00	  0.089138277	1.031020E+02	  0.089138277	3.028200E+01	  0.089138277	2.981600E+01
347	  0.089338675	-7.619000E+00	  0.089338675	1.024900E+02	  0.089338675	3.056400E+01	  0.089338675	3.001500E+01
348	  0.089539073	-7.654000E+00	  0.089539073	1.018480E+02	  0.089539073	3.087100E+01	  0.089539073	3.021600E+01
349	  0.089739479	-7.685000E+00	  0.089739479	1.012640E+02	  0.089739479	3.114900E+01	  0.089739479	3.040000E+01
350	  0.089939877	-7.714000E+00	  0.089939877	1.006680E+02	  0.089939877	3.142800E+01	  0.089939877	3.059200E+01
351	  0.090140276	-7.740000E+00	  0.090140276	1.000980E+02	  0.090140276	3.169500E+01	  0.090140276	3.077700E+01
352	  0.090340681	-7.775000E+00	  0.090340681	9.949100E+01	  0.090340681	3.200200E+01	  0.090340681	3.095600E+01
353	  0.090541080	-7.799000E+00	  0.090541080	9.890400E+01	  0.090541080	3.227300E+01	  0.090541080	3.115100E+01
354	  0.090741485	-7.834000E+00	  0.090741485	9.834700E+01	  0.090741485	3.256800E+01	  0.090741485	3.130400E+01
355	  0.090941884	-7.856000E+00	  0.090941884	9.776200E+01	  0.090941884	3.284000E+01	  0.090941884	3.149800E+01
356	  0.091142282	-7.891000E+00	  0.091142282	9.722700E+01	  0.091142282	3.313100E+01	  0.091142282	3.163900E+01
357	  0.091342688	-7.919000E+00	  0.091342688	9.667700E+01	  0.091342688	3.341100E+01	  0.091342688	3.180100E+01
358	  0.091543086	-7.944000E+00	  0.091543086	9.611800E+01	  0.091543086	3.368900E+01	  0.091543086	3.197300E+01
359	  0.091743484	-7.974000E+00	  0.091743484	9.553900E+01	  0.091743484	3.399000E+01	  0.091743484	3.213900E+01
360	  0.091943890	-7.993000E+00	  0.091943890	9.499000E+01	  0.091943890	3.425200E+01	  0.091943890	3.231900E+01
361	  0.092144288	-8.025000E+00	  0.092144288	9.439400E+01	  0.092144288	3.457100E+01	  0.092144288	3.248300E+01
362	  0.092344686	-8.042000E+00	  0.092344686	9.383900E+01	  0.092344686	3.483700E+01	  0.092344686	3.266700E+01
363	  0.092545092	-8.074000E+00	  0.092545092	9.331700E+01	  0.092545092	3.513100E+01	  0.092545092	3.279600E+01
364	  0.092745490	-8.095000E+00	  0.092745490	9.273800E+01	  0.092745490	3.542100E+01	  0.092745490	3.297800E+01
365	  0.092945889	-8.120000E+00	  0.092945889	9.218100E+01	  0.092945889	3.571800E+01	  0.092945889	3.313500E+01
366	  0.093146294	-8.142000E+00	  0.093146294	9.164300E+01	  0.093146294	3.600000E+01	  0.093146294	3.329300E+01
367	  0.093346693	-8.166000E+00	  0.093346693	9.107000E+01	  0.093346693	3.630600E+01	  0.093346693	3.345600E+01
368	  0.093547091	-8.186000E+00	  0.093547091	9.050100E+01	  0.093547091	3.660100E+01	  0.093547091	3.362800E+01
369	  0.093747497	-8.211000E+00	  0.093747497	8.993000E+01	  0.093747497	3.691400E+01	  0.093747497	3.378500E+01
370	  0.093947895	-8.231000E+00	  0.093947895	8.935100E+01	  0.093947895	3.721900E+01	  0.093947895	3.395800E+01
371	  0.094148301	-8.255000E+00	  0.094148301	8.882000E+01	  0.094148301	3.751900E+01	  0.094148301	3.409500E+01
372	  0.094348699	-8.280000E+00	  0.094348699	8.824600E+01	  0.094348699	3.784000E+01	  0.094348699	3.424800E+01
373	  0.094549097	-8.303000E+00	  0.094549097	8.770100E+01	  0.094549097	3.814800E+01	  0.094549097	3.439000E+01
374	  0.094749503	-8.331000E+00	  0.094749503	8.715200E+01	  0.094749503	3.847200E+01	  0.094749503	3.451800E+01
375	  0.094949901	-8.350000E+00	  0.094949901	8.662800E+01	  0.094949901	3.876600E+01	  0.094949901	3.466000E+01
376	  0.095150299	-8.380000E+00	  0.095150299	8.607200E+01	  0.095150299	3.910300E+01	  0.095150299	3.478100E+01
377	  0.095350705	-8.399000E+00	  0.095350705	8.554200E+01	  0.095350705	3.940400E+01	  0.095350705	3.492100E+01
378	  0.095551103	-8.426000E+00	  0.095551103	8.498800E+01	  0.095551103	3.973900E+01	  0.095551103	3.504400E+01
379	  0.095751502	-8.451000E+00	  0.095751502	8.449600E+01	  0.095751502	4.004200E+01	  0.095751502	3.514600E+01
380	  0.095951907	-8.474000E+00	  0.095951907	8.398900E+01	  0.095951907	4.034600E+01	  0.095951907	3.526100E+01
381	  0.096152306	-8.501000E+00	  0.096152306	8.348600E+01	  0.096152306	4.066400E+01	  0.096152306	3.535600E+01
382	  0.096352704	-8.523000E+00	  0.096352704	8.300200E+01	  0.096352704	4.096100E+01	  0.096352704	3.545900E+01
383	  0.096553110	-8.545000E+00	  0.096553110	8.252300E+01	  0.096553110	4.125800E+01	  0.096553110	3.555700E+01
384	  0.096753508	-8.569000E+00	  0.096753508	8.203600E+01	  0.096753508	4.156400E+01	  0.096753508	3.565200E+01
385	  0.096953906	-8.590000E+00	  0.096953906	8.156000E+01	  0.096953906	4.186200E+01	  0.096953906	3.574800E+01
386	  0.097154312	-8.616000E+00	  0.097154312	8.110900E+01	  0.097154312	4.215800E+01	  0.097154312	3.581800E+01
387	  0.097354710	-8.638000E+00	  0.097354710	8.065900E+01	  0.097354710	4.244900E+01	  0.097354710	3.589500E+01
388	  0.097555116	-8.666000E+00	  0.097555116	8.022000E+01	  0.097555116	4.274600E+01	  0.097555116	3.594900E+01
389	  0.097755514	-8.685000E+00	  0.097755514	7.978800E+01	  0.097755514	4.302100E+01	  0.097755514	3.602900E+01
390	  0.097955912	-8.710000E+00	  0.097955912	7.934100E+01	  0.097955912	4.331900E+01	  0.097955912	3.609200E+01
391	  0.098156318	-8.732000E+00	  0.098156318	7.892900E+01	  0.098156318	4.359400E+01	  0.098156318	3.615000E+01
392	  0.098356716	-8.749000E+00	  0.098356716	7.850400E+01	  0.098356716	4.386700E+01	  0.098356716	3.622700E+01
393	  0.098557115	-8.773000E+00	  0.098557115	7.812600E+01	  0.098557115	4.412900E+01	  0.098557115	3.626300E+01
394	  0.098757520	-8.792000E+00	  0.098757520	7.764300E+01	  0.098757520	4.444000E+01	  0.098757520	3.634900E+01
395	  0.098957919	-8.809000E+00	  0.098957919	7.725000E+01	  0.098957919	4.469900E+01	  0.098957919	3.641200E+01
396	  0.099158317	-8.827000E+00	  0.099158317	7.681900E+01	  0.099158317	4.498100E+01	  0.099158317	3.648300E+01
397	  0.099358723	-8.842000E+00	  0.099358723	7.642700E+01	  0.099358723	4.523700E+01	  0.099358723	3.654900E+01
398	  0.099559121	-8.855000E+00	  0.099559121	7.601700E+01	  0.099559121	4.550200E+01	  0.099559121	3.662600E+01
399	  0.099759519	-8.870000E+00	  0.099759519	7.565000E+01	  0.099759519	4.574600E+01	  0.099759519	3.668200E+01
400	  0.099959925	-8.881000E+00	  0.099959925	7.523700E+01	  0.099959925	4.601100E+01	  0.099959925	3.676500E+01
401	  0.100160323	-8.897000E+00	  0.100160323	7.482100E+01	  0.100160323	4.629000E+01	  0.100160323	3.682600E+01
402	  0.100360721	-8.906000E+00	  0.100360721	7.442300E+01	  0.100360721	4.654700E+01	  0.100360721	3.690800E+01
403	  0.100561127	-8.922000E+00	  0.100561127	7.397600E+01	  0.100561127	4.684600E+01	  0.100561127	3.697700E+01
404	  0.100761525	-8.921000E+00	  0.100761525	7.362100E+01	  0.100761525	4.705900E+01	  0.100761525	3.708500E+01
405	  0.100961931	-8.929000E+00	  0.100961931	7.324900E+01	  0.100961931	4.730200E+01	  0.100961931	3.716100E+01
406	  0.101162329	-8.928000E+00	  0.101162329	7.283900E+01	  0.101162329	4.755400E+01	  0.101162329	3.728000E+01
407	  0.101362728	-8.926000E+00	  0.101362728	7.243200E+01	  0.101362728	4.780300E+01	  0.101362728	3.740300E+01
408	  0.101563133	-8.936000E+00	  0.101563133	7.205100E+01	  0.101563133	4.805900E+01	  0.101563133	3.747000E+01
409	  0.101763532	-8.938000E+00	  0.101763532	7.166700E+01	  0.101763532	4.830500E+01	  0.101763532	3.756800E+01
410	  0.101963930	-8.943000E+00	  0.101963930	7.126700E+01	  0.101963930	4.856800E+01	  0.101963930	3.765700E+01
411	  0.102164328	-8.933000E+00	  0.102164328	7.088600E+01	  0.102164328	4.879500E+01	  0.102164328	3.780300E+01
412	  0.102364726	-8.933000E+00	  0.102364726	7.049000E+01	  0.102364726	4.905200E+01	  0.102364726	3.790600E+01
413	  0.102565125	-8.920000E+00	  0.102565125	7.004100E+01	  0.102565125	4.932100E+01	  0.102565125	3.808400E+01
414	  0.102765530	-8.916000E+00	  0.102765530	6.964400E+01	  0.102765530	4.957600E+01	  0.102765530	3.820500E+01
415	  0.102965929	-8.915000E+00	  0.102965929	6.924700E+01	  0.102965929	4.983700E+01	  0.102965929	3.831500E+01
416	  0.103166327	-8.908000E+00	  0.103166327	6.885400E+01	  0.103166327	5.008900E+01	  0.103166327	3.844500E+01
417	  0.103366733	-8.897000E+00	  0.103366733	6.844600E+01	  0.103366733	5.034700E+01	  0.103366733	3.859700E+01
418	  0.103567131	-8.888000E+00	  0.103567131	6.802800E+01	  0.103567131	5.061600E+01	  0.103567131	3.874200E+01
419	  0.103767529	-8.874000E+00	  0.103767529	6.754700E+01	  0.103767529	5.092400E+01	  0.103767529	3.892600E+01
420	  0.103967935	-8.858000E+00	  0.103967935	6.713800E+01	  0.103967935	5.118300E+01	  0.103967935	3.910100E+01
421	  0.104168333	-8.846000E+00	  0.104168333	6.672200E+01	  0.104168333	5.145500E+01	  0.104168333	3.925800E+01
422	  0.104368731	-8.829000E+00	  0.104368731	6.628800E+01	  0.104368731	5.173500E+01	  0.104368731	3.944500E+01
423	  0.104569137	-8.818000E+00	  0.104569137	6.585700E+01	  0.104569137	5.202700E+01	  0.104569137	3.959800E+01
424	  0.104769535	-8.793000E+00	  0.104769535	6.537100E+01	  0.104769535	5.233900E+01	  0.104769535	3.983300E+01
425	  0.104969934	-8.784000E+00	  0.104969934	6.487200E+01	  0.104969934	5.269000E+01	  0.104969934	3.999400E+01
426	  0.105170339	-8.765000E+00	  0.105170339	6.442500E+01	  0.105170339	5.299200E+01	  0.105170339	4.018700E+01
427	  0.105370738	-8.739000E+00	  0.105370738	6.393600E+01	  0.105370738	5.331900E+01	  0.105370738	4.042700E+01
428	  0.105571143	-8.724000E+00	  0.105571143	6.345300E+01	  0.105571143	5.366200E+01	  0.105571143	4.061200E+01
429	  0.105771542	-8.701000E+00	  0.105771542	6.291300E+01	  0.105771542	5.404200E+01	  0.105771542	4.084700E+01
430	  0.105971940	-8.677000E+00	  0.105971940	6.237300E+01	  0.105971940	5.442700E+01	  0.105971940	4.108300E+01
431	  0.106172346	-8.659000E+00	  0.106172346	6.187200E+01	  0.106172346	5.479500E+01	  0.106172346	4.128500E+01
432	  0.106372744	-8.641000E+00	  0.106372744	6.130600E+01	  0.106372744	5.522000E+01	  0.106372744	4.149700E+01
433	  0.106573142	-8.617000E+00	  0.106573142	6.073600E+01	  0.106573142	5.564700E+01	  0.106573142	4.173900E+01
434	  0.106773548	-8.592000E+00	  0.106773548	6.011300E+01	  0.106773548	5.612400E+01	  0.106773548	4.199500E+01
435	  0.106973946	-8.571000E+00	  0.106973946	5.953000E+01	  0.106973946	5.658100E+01	  0.106973946	4.222000E+01
436	  0.107174344	-8.550000E+00	  0.107174344	5.892600E+01	  0.107174344	5.706100E+01	  0.107174344	4.245100E+01
437	  0.107374750	-8.531000E+00	  0.107374750	5.832900E+01	  0.107374750	5.754700E+01	  0.107374750	4.266300E+01
438	  0.107575148	-8.507000E+00	  0.107575148	5.765400E+01	  0.107575148	5.810300E+01	  0.107575148	4.291700E+01
439	  0.107775547	-8.486000E+00	  0.107775547	5.699900E+01	  0.107775547	5.865500E+01	  0.107775547	4.314700E+01
440	  0.107975952	-8.459000E+00	  0.107975952	5.637100E+01	  0.107975952	5.918600E+01	  0.107975952	4.340300E+01
441	  0.108176351	-8.446000E+00	  0.108176351	5.571900E+01	  0.108176351	5.976100E+01	  0.108176351	4.358000E+01
442	  0.108376749	-8.420000E+00	  0.108376749	5.504700E+01	  0.108376749	6.035300E+01	  0.108376749	4.382800E+01
443	  0.108577155	-8.401000E+00	  0.108577155	5.436500E+01	  0.108577155	6.097100E+01	  0.108577155	4.403700E+01
444	  0.108777553	-8.396000E+00	  0.108777553	5.364500E+01	  0.108777553	6.164600E+01	  0.108777553	4.415000E+01
445	  0.108977959	-8.380000E+00	  0.108977959	5.290000E+01	  0.108977959	6.234800E+01	  0.108977959	4.433400E+01
446	  0.109178357	-8.373000E+00	  0.109178357	5.219400E+01	  0.109178357	6.303000E+01	  0.109178357	4.444600E+01
447	  0.109378755	-8.355000E+00	  0.109378755	5.152200E+01	  0.109378755	6.368200E+01	  0.109378755	4.461500E+01
448	  0.109579161	-8.342000E+00	  0.109579161	5.075600E+01	  0.109579161	6.444200E+01	  0.109579161	4.475300E+01
449	  0.109779559	-8.340000E+00	  0.109779559	4.999800E+01	  0.109779559	6.520900E+01	  0.109779559	4.481000E+01
450	  0.109979957	-8.329000E+00	  0.109979957	4.929600E+01	  0.109979957	6.592700E+01	  0.109979957	4.491000E+01
451	  0.110180363	-8.328000E+00	  0.110180363	4.856900E+01	  0.110180363	6.668200E+01	  0.110180363	4.493500E+01
452	  0.110380761	-8.321000E+00	  0.110380761	4.787600E+01	  0.110380761	6.741100E+01	  0.110380761	4.498300E+01
453	  0.110581160	-8.323000E+00	  0.110581160	4.713500E+01	  0.110581160	6.820000E+01	  0.110581160	4.496100E+01
454	  0.110781565	-8.320000E+00	  0.110781565	4.641500E+01	  0.110781565	6.897600E+01	  0.110781565	4.496200E+01
455	  0.110981964	-8.317000E+00	  0.110981964	4.570300E+01	  0.110981964	6.975300E+01	  0.110981964	4.494600E+01
456	  0.111182362	-8.314000E+00	  0.111182362	4.499600E+01	  0.111182362	7.053100E+01	  0.111182362	4.491500E+01
457	  0.111382768	-8.308000E+00	  0.111382768	4.422300E+01	  0.111382768	7.139500E+01	  0.111382768	4.489000E+01
458	  0.111583166	-8.309000E+00	  0.111583166	4.354900E+01	  0.111583166	7.215100E+01	  0.111583166	4.480700E+01
459	  0.111783572	-8.307000E+00	  0.111783572	4.274800E+01	  0.111783572	7.306200E+01	  0.111783572	4.471600E+01
460	  0.111983970	-8.310000E+00	  0.111983970	4.199200E+01	  0.111983970	7.392400E+01	  0.111983970	4.457100E+01
461	  0.112184368	-8.301000E+00	  0.112184368	4.122300E+01	  0.112184368	7.482400E+01	  0.112184368	4.449800E+01
462	  0.112384774	-8.301000E+00	  0.112384774	4.048800E+01	  0.112384774	7.568200E+01	  0.112384774	4.434600E+01
463	  0.112585172	-8.303000E+00	  0.112585172	3.964300E+01	  0.112585172	7.667300E+01	  0.112585172	4.413100E+01
464	  0.112785570	-8.304000E+00	  0.112785570	3.884700E+01	  0.112785570	7.761500E+01	  0.112785570	4.391900E+01
465	  0.112985976	-8.303000E+00	  0.112985976	3.802100E+01	  0.112985976	7.860300E+01	  0.112985976	4.367900E+01
466	  0.113186374	-8.297000E+00	  0.113186374	3.719400E+01	  0.113186374	7.961100E+01	  0.113186374	4.345800E+01
467	  0.113386773	-8.299000E+00	  0.113386773	3.633700E+01	  0.113386773	8.064500E+01	  0.113386773	4.314000E+01
468	  0.113587178	-8.311000E+00	  0.113587178	3.543400E+01	  0.113587178	8.171200E+01	  0.113587178	4.268900E+01
469	  0.113787577	-8.312000E+00	  0.113787577	3.460800E+01	  0.113787577	8.271800E+01	  0.113787577	4.232800E+01
470	  0.113987975	-8.319000E+00	  0.113987975	3.371400E+01	  0.113987975	8.378900E+01	  0.113987975	4.185500E+01
471	  0.114188381	-8.320000E+00	  0.114188381	3.279200E+01	  0.114188381	8.491700E+01	  0.114188381	4.138700E+01
472	  0.114388779	-8.326000E+00	  0.114388779	3.186200E+01	  0.114388779	8.603500E+01	  0.114388779	4.082900E+01
473	  0.114589177	-8.335000E+00	  0.114589177	3.095500E+01	  0.114589177	8.711100E+01	  0.114589177	4.022500E+01
474	  0.114789583	-8.344000E+00	  0.114789583	2.999900E+01	  0.114789583	8.823800E+01	  0.114789583	3.954900E+01
475	  0.114989981	-8.354000E+00	  0.114989981	2.903600E+01	  0.114989981	8.936800E+01	  0.114989981	3.882800E+01
476	  0.115190387	-8.368000E+00	  0.115190387	2.804900E+01	  0.115190387	9.049000E+01	  0.115190387	3.800600E+01
477	  0.115390785	-8.383000E+00	  0.115390785	2.708100E+01	  0.115390785	9.157200E+01	  0.115390785	3.715100E+01
478	  0.115591183	-8.399000E+00	  0.115591183	2.610400E+01	  0.115591183	9.263900E+01	  0.115591183	3.623400E+01
479	  0.115791589	-8.418000E+00	  0.115791589	2.509600E+01	  0.115791589	9.370000E+01	  0.115791589	3.522200E+01
480	  0.115991987	-8.443000E+00	  0.115991987	2.409600E+01	  0.115991987	9.469400E+01	  0.115991987	3.413500E+01
481	  0.116192386	-8.466000E+00	  0.116192386	2.309300E+01	  0.116192386	9.566900E+01	  0.116192386	3.301500E+01
482	  0.116392791	-8.491000E+00	  0.116392791	2.205600E+01	  0.116392791	9.663300E+01	  0.116392791	3.180300E+01
483	  0.116593190	-8.520000E+00	  0.116593190	2.099000E+01	  0.116593190	9.756300E+01	  0.116593190	3.049700E+01
484	  0.116793588	-8.549000E+00	  0.116793588	1.996900E+01	  0.116793588	9.839800E+01	  0.116793588	2.919400E+01
485	  0.116993994	-8.587000E+00	  0.116993994	1.890400E+01	  0.116993994	9.916100E+01	  0.116993994	2.775000E+01
486	  0.117194392	-8.623000E+00	  0.117194392	1.785800E+01	  0.117194392	9.986400E+01	  0.117194392	2.630700E+01
487	  0.117394790	-8.659000E+00	  0.117394790	1.675400E+01	  0.117394790	1.005630E+02	  0.117394790	2.476400E+01
488	  0.117595196	-8.697000E+00	  0.117595196	1.567800E+01	  0.117595196	1.011650E+02	  0.117595196	2.322300E+01
489	  0.117795594	-8.741000E+00	  0.117795594	1.455800E+01	  0.117795594	1.016830E+02	  0.117795594	2.156800E+01
490	  0.117995992	-8.785000E+00	  0.117995992	1.344500E+01	  0.117995992	1.021240E+02	  0.117995992	1.990400E+01
491	  0.118196398	-8.840000E+00	  0.118196398	1.231900E+01	  0.118196398	1.024110E+02	  0.118196398	1.816600E+01
492	  0.118396796	-8.887000E+00	  0.118396796	1.113500E+01	  0.118396796	1.027220E+02	  0.118396796	1.637600E+01
493	  0.118597202	-8.946000E+00	  0.118597202	9.953000E+00	  0.118597202	1.028460E+02	  0.118597202	1.454600E+01
494	  0.118797600	-9.000000E+00	  0.118797600	8.773000E+00	  0.118797600	1.029400E+02	  0.118797600	1.274700E+01
