! Anritsu VNA Master:             	Model: MS2036C/10/77
! SN:             	1601066
! /bd0/18may10/256.ns.m3.txt
! Existing Calibration Information:
! TYPE:             	Current Settings	Active Cal Settings
! TIME:             	05/10/2018 10:58:38 AM	05/10/2018 10:50:07 AM
! INTERNAL TEMP:    	50.3 C	49.0 C
! # POINTS:         	494	494
! START FREQ:       	20.000 MHz	20.000 MHz
! STOP FREQ:        	118.797 594 MHz	118.797 594 MHz
! SOURCE POWER:     	High	High
! IFBW:             	50 Hz	50 Hz
! AVG FACTOR:       	  1 	  1 
! REF PLANE 1:      	0 mm	0 mm
! REF PLANE 2:      	0 mm	0 mm
! CAL TYPE:         	Full S22	Full S22
! CAL METHOD:       	SOLT	SOLT
! CAL LINE TYPE:    	Coax	Coax
! DUT PORT 1:       	K-Conn(M)	K-Conn(M)
! DUT PORT 2:       	K-Conn(M)	K-Conn(M)
! CAL STATUS:       	OK: Accuracy High	--
! PROP-V:       	0.700
! CABLE LOSS:       	0.000 dB/m
! REF IMPEDANCE:       	50.0
! Trace Specific Parameters:	TR1	TR2	TR3	TR4
! TRACE.#.Y (GRAPH TYPE)	LOG MAG	PHASE	REAL IMPEDANCE	IMAGINARY IMPEDANCE
! TRACE.#.X 	FREQ.GHZ	FREQ.GHZ	FREQ.GHZ	FREQ.GHZ
! S-PARAMETER	S22	S22	S22	S22
! SMOOTH/APERTURE %	0	0	0	0
! WINDOW	NSL	NSL	NSL	NSL
! GATING	OFF	OFF	OFF	OFF
! FGTD	OFF	OFF	OFF	OFF
Marker Information per Trace:	TR1	TR2	TR3	TR4
!MK1	--	"MK1 TR2:  20.000 MHz,PH:-126.66°"	--	--
!MK2	--	--	"MK2 TR3:  70.100 200 MHz,Z:(16.704 ohm, -1.430 ohm)"	--
!MK3	--	--	--	--
!MK4	--	--	--	--
!MK5	--	--	--	--
!MK6	--	--	--	--
!MK7	--	--	--	--
!MK8	--	--	--	--
PNT	TR1.FREQ.GHZ	TR1.LOG MAG.dB	TR2.FREQ.GHZ	TR2.PHASE.deg	TR3.FREQ.GHZ	TR3.REAL IMPEDANCE.ohm	TR4.FREQ.GHZ	TR4.IMAGINARY IMPEDANCE.ohm
1	  0.020000000	-6.180000E-01	  0.020000000	-1.266590E+02	  0.020000000	2.227000E+00	  0.020000000	-2.507500E+01
2	  0.020200402	-6.200000E-01	  0.020200402	-1.281100E+02	  0.020200402	2.208000E+00	  0.020200402	-2.428800E+01
3	  0.020400802	-6.240000E-01	  0.020400802	-1.295820E+02	  0.020400802	2.193000E+00	  0.020400802	-2.350000E+01
4	  0.020601204	-6.290000E-01	  0.020601204	-1.310850E+02	  0.020601204	2.186000E+00	  0.020601204	-2.270500E+01
5	  0.020801604	-6.320000E-01	  0.020801604	-1.326170E+02	  0.020801604	2.169000E+00	  0.020801604	-2.190400E+01
6	  0.021002004	-6.370000E-01	  0.021002004	-1.341710E+02	  0.021002004	2.161000E+00	  0.021002004	-2.110100E+01
7	  0.021202406	-6.420000E-01	  0.021202406	-1.357200E+02	  0.021202406	2.152000E+00	  0.021202406	-2.031000E+01
8	  0.021402806	-6.430000E-01	  0.021402806	-1.372680E+02	  0.021402806	2.133000E+00	  0.021402806	-1.952900E+01
9	  0.021603208	-6.490000E-01	  0.021603208	-1.388300E+02	  0.021603208	2.131000E+00	  0.021603208	-1.874800E+01
10	  0.021803608	-6.540000E-01	  0.021803608	-1.403700E+02	  0.021803608	2.126000E+00	  0.021803608	-1.798700E+01
11	  0.022004008	-6.610000E-01	  0.022004008	-1.419620E+02	  0.022004008	2.127000E+00	  0.022004008	-1.720600E+01
12	  0.022204408	-6.690000E-01	  0.022204408	-1.435700E+02	  0.022204408	2.133000E+00	  0.022204408	-1.642600E+01
13	  0.022404809	-6.740000E-01	  0.022404809	-1.451870E+02	  0.022404809	2.131000E+00	  0.022404809	-1.564900E+01
14	  0.022605211	-6.800000E-01	  0.022605211	-1.468200E+02	  0.022605211	2.131000E+00	  0.022605211	-1.487100E+01
15	  0.022805611	-6.850000E-01	  0.022805611	-1.484660E+02	  0.022805611	2.130000E+00	  0.022805611	-1.409300E+01
16	  0.023006011	-6.910000E-01	  0.023006011	-1.500950E+02	  0.023006011	2.131000E+00	  0.023006011	-1.333000E+01
17	  0.023206413	-6.950000E-01	  0.023206413	-1.517280E+02	  0.023206413	2.127000E+00	  0.023206413	-1.257000E+01
18	  0.023406813	-7.020000E-01	  0.023406813	-1.533480E+02	  0.023406813	2.135000E+00	  0.023406813	-1.182200E+01
19	  0.023607215	-7.110000E-01	  0.023607215	-1.549770E+02	  0.023607215	2.147000E+00	  0.023607215	-1.107500E+01
20	  0.023807615	-7.230000E-01	  0.023807615	-1.566190E+02	  0.023807615	2.169000E+00	  0.023807615	-1.032600E+01
21	  0.024008015	-7.310000E-01	  0.024008015	-1.582880E+02	  0.024008015	2.182000E+00	  0.024008015	-9.570000E+00
22	  0.024208417	-7.400000E-01	  0.024208417	-1.599610E+02	  0.024208417	2.194000E+00	  0.024208417	-8.817000E+00
23	  0.024408817	-7.460000E-01	  0.024408817	-1.616270E+02	  0.024408817	2.203000E+00	  0.024408817	-8.070000E+00
24	  0.024609219	-7.550000E-01	  0.024609219	-1.633010E+02	  0.024609219	2.218000E+00	  0.024609219	-7.324000E+00
25	  0.024809619	-7.640000E-01	  0.024809619	-1.649590E+02	  0.024809619	2.238000E+00	  0.024809619	-6.587000E+00
26	  0.025010020	-7.760000E-01	  0.025010020	-1.666180E+02	  0.025010020	2.265000E+00	  0.025010020	-5.853000E+00
27	  0.025210422	-7.880000E-01	  0.025210422	-1.682770E+02	  0.025210422	2.291000E+00	  0.025210422	-5.122000E+00
28	  0.025410822	-8.000000E-01	  0.025410822	-1.699540E+02	  0.025410822	2.320000E+00	  0.025410822	-4.385000E+00
29	  0.025611224	-8.130000E-01	  0.025611224	-1.716440E+02	  0.025611224	2.351000E+00	  0.025611224	-3.644000E+00
30	  0.025811624	-8.260000E-01	  0.025811624	-1.733380E+02	  0.025811624	2.385000E+00	  0.025811624	-2.903000E+00
31	  0.026012026	-8.390000E-01	  0.026012026	-1.750390E+02	  0.026012026	2.420000E+00	  0.026012026	-2.160000E+00
32	  0.026212426	-8.540000E-01	  0.026212426	-1.767560E+02	  0.026212426	2.459000E+00	  0.026212426	-1.412000E+00
33	  0.026412826	-8.710000E-01	  0.026412826	-1.784770E+02	  0.026412826	2.506000E+00	  0.026412826	-6.620000E-01
34	  0.026613226	-8.870000E-01	  0.026613226	1.797870E+02	  0.026613226	2.551000E+00	  0.026613226	9.200000E-02
35	  0.026813626	-9.040000E-01	  0.026813626	1.780390E+02	  0.026813626	2.600000E+00	  0.026813626	8.530000E-01
36	  0.027014028	-9.230000E-01	  0.027014028	1.762850E+02	  0.027014028	2.658000E+00	  0.027014028	1.616000E+00
37	  0.027214428	-9.410000E-01	  0.027214428	1.745110E+02	  0.027214428	2.713000E+00	  0.027214428	2.389000E+00
38	  0.027414829	-9.620000E-01	  0.027414829	1.727220E+02	  0.027414829	2.778000E+00	  0.027414829	3.169000E+00
39	  0.027615231	-9.830000E-01	  0.027615231	1.709090E+02	  0.027615231	2.846000E+00	  0.027615231	3.962000E+00
40	  0.027815631	-1.006000E+00	  0.027815631	1.690930E+02	  0.027815631	2.919000E+00	  0.027815631	4.757000E+00
41	  0.028016033	-1.028000E+00	  0.028016033	1.672490E+02	  0.028016033	2.993000E+00	  0.028016033	5.566000E+00
42	  0.028216433	-1.053000E+00	  0.028216433	1.653780E+02	  0.028216433	3.077000E+00	  0.028216433	6.390000E+00
43	  0.028416833	-1.076000E+00	  0.028416833	1.635150E+02	  0.028416833	3.160000E+00	  0.028416833	7.214000E+00
44	  0.028617235	-1.101000E+00	  0.028617235	1.616430E+02	  0.028617235	3.249000E+00	  0.028617235	8.045000E+00
45	  0.028817635	-1.127000E+00	  0.028817635	1.597460E+02	  0.028817635	3.343000E+00	  0.028817635	8.891000E+00
46	  0.029018037	-1.154000E+00	  0.029018037	1.578550E+02	  0.029018037	3.444000E+00	  0.029018037	9.739000E+00
47	  0.029218437	-1.182000E+00	  0.029218437	1.559550E+02	  0.029218437	3.552000E+00	  0.029218437	1.059600E+01
48	  0.029418837	-1.210000E+00	  0.029418837	1.540240E+02	  0.029418837	3.662000E+00	  0.029418837	1.147300E+01
49	  0.029619239	-1.240000E+00	  0.029619239	1.520870E+02	  0.029619239	3.783000E+00	  0.029619239	1.235800E+01
50	  0.029819639	-1.270000E+00	  0.029819639	1.501500E+02	  0.029819639	3.907000E+00	  0.029819639	1.325100E+01
51	  0.030020041	-1.298000E+00	  0.030020041	1.481980E+02	  0.030020041	4.032000E+00	  0.030020041	1.415700E+01
52	  0.030220442	-1.328000E+00	  0.030220442	1.462630E+02	  0.030220442	4.165000E+00	  0.030220442	1.506400E+01
53	  0.030420844	-1.359000E+00	  0.030420844	1.443360E+02	  0.030420844	4.305000E+00	  0.030420844	1.597500E+01
54	  0.030621244	-1.390000E+00	  0.030621244	1.424100E+02	  0.030621244	4.453000E+00	  0.030621244	1.689500E+01
55	  0.030821642	-1.426000E+00	  0.030821642	1.404740E+02	  0.030821642	4.620000E+00	  0.030821642	1.782800E+01
56	  0.031022044	-1.459000E+00	  0.031022044	1.385330E+02	  0.031022044	4.785000E+00	  0.031022044	1.877400E+01
57	  0.031222444	-1.492000E+00	  0.031222444	1.366020E+02	  0.031222444	4.958000E+00	  0.031222444	1.972600E+01
58	  0.031422846	-1.526000E+00	  0.031422846	1.346370E+02	  0.031422846	5.139000E+00	  0.031422846	2.070800E+01
59	  0.031623244	-1.563000E+00	  0.031623244	1.326840E+02	  0.031623244	5.340000E+00	  0.031623244	2.169400E+01
60	  0.031823646	-1.598000E+00	  0.031823646	1.307270E+02	  0.031823646	5.543000E+00	  0.031823646	2.269600E+01
61	  0.032024048	-1.634000E+00	  0.032024048	1.287930E+02	  0.032024048	5.756000E+00	  0.032024048	2.370000E+01
62	  0.032224450	-1.674000E+00	  0.032224450	1.268390E+02	  0.032224450	5.991000E+00	  0.032224450	2.472800E+01
63	  0.032424849	-1.714000E+00	  0.032424849	1.248750E+02	  0.032424849	6.241000E+00	  0.032424849	2.577700E+01
64	  0.032625251	-1.752000E+00	  0.032625251	1.228910E+02	  0.032625251	6.494000E+00	  0.032625251	2.685300E+01
65	  0.032825653	-1.792000E+00	  0.032825653	1.209080E+02	  0.032825653	6.770000E+00	  0.032825653	2.794600E+01
66	  0.033026051	-1.832000E+00	  0.033026051	1.188780E+02	  0.033026051	7.058000E+00	  0.033026051	2.908500E+01
67	  0.033226453	-1.873000E+00	  0.033226453	1.168980E+02	  0.033226453	7.363000E+00	  0.033226453	3.021500E+01
68	  0.033426855	-1.915000E+00	  0.033426855	1.148730E+02	  0.033426855	7.694000E+00	  0.033426855	3.139100E+01
69	  0.033627257	-1.961000E+00	  0.033627257	1.128720E+02	  0.033627257	8.050000E+00	  0.033627257	3.257300E+01
70	  0.033827655	-2.006000E+00	  0.033827655	1.108530E+02	  0.033827655	8.428000E+00	  0.033827655	3.379000E+01
71	  0.034028057	-2.051000E+00	  0.034028057	1.087860E+02	  0.034028057	8.827000E+00	  0.034028057	3.506200E+01
72	  0.034228459	-2.100000E+00	  0.034228459	1.067390E+02	  0.034228459	9.269000E+00	  0.034228459	3.634400E+01
73	  0.034428857	-2.149000E+00	  0.034428857	1.046540E+02	  0.034428857	9.736000E+00	  0.034428857	3.768100E+01
74	  0.034629259	-2.198000E+00	  0.034629259	1.025500E+02	  0.034629259	1.023500E+01	  0.034629259	3.905900E+01
75	  0.034829661	-2.249000E+00	  0.034829661	1.004620E+02	  0.034829661	1.077500E+01	  0.034829661	4.045700E+01
76	  0.035030060	-2.301000E+00	  0.035030060	9.837100E+01	  0.035030060	1.135100E+01	  0.035030060	4.188900E+01
77	  0.035230462	-2.355000E+00	  0.035230462	9.624800E+01	  0.035230462	1.197900E+01	  0.035230462	4.337700E+01
78	  0.035430863	-2.407000E+00	  0.035430863	9.413000E+01	  0.035430863	1.263600E+01	  0.035430863	4.490000E+01
79	  0.035631265	-2.462000E+00	  0.035631265	9.202600E+01	  0.035631265	1.335300E+01	  0.035631265	4.644700E+01
80	  0.035831664	-2.517000E+00	  0.035831664	8.989700E+01	  0.035831664	1.412500E+01	  0.035831664	4.805200E+01
81	  0.036032066	-2.571000E+00	  0.036032066	8.778600E+01	  0.036032066	1.493500E+01	  0.036032066	4.968900E+01
82	  0.036232468	-2.622000E+00	  0.036232468	8.565400E+01	  0.036232468	1.580000E+01	  0.036232468	5.138900E+01
83	  0.036432866	-2.679000E+00	  0.036432866	8.356200E+01	  0.036432866	1.674500E+01	  0.036432866	5.309000E+01
84	  0.036633268	-2.734000E+00	  0.036633268	8.144100E+01	  0.036633268	1.775700E+01	  0.036633268	5.486700E+01
85	  0.036833670	-2.792000E+00	  0.036833670	7.933700E+01	  0.036833670	1.885600E+01	  0.036833670	5.666900E+01
86	  0.037034072	-2.847000E+00	  0.037034072	7.722800E+01	  0.037034072	2.002900E+01	  0.037034072	5.852700E+01
87	  0.037234470	-2.903000E+00	  0.037234470	7.512400E+01	  0.037234470	2.129200E+01	  0.037234470	6.042900E+01
88	  0.037434869	-2.960000E+00	  0.037434869	7.299900E+01	  0.037434869	2.267500E+01	  0.037434869	6.239900E+01
89	  0.037635271	-3.025000E+00	  0.037635271	7.090000E+01	  0.037635271	2.420900E+01	  0.037635271	6.436200E+01
90	  0.037835669	-3.100000E+00	  0.037835669	6.883000E+01	  0.037835669	2.592000E+01	  0.037835669	6.630000E+01
91	  0.038036071	-3.167000E+00	  0.038036071	6.686600E+01	  0.038036071	2.764400E+01	  0.038036071	6.818100E+01
92	  0.038236473	-3.225000E+00	  0.038236473	6.489500E+01	  0.038236473	2.942700E+01	  0.038236473	7.014600E+01
93	  0.038436871	-3.273000E+00	  0.038436871	6.287900E+01	  0.038436871	3.132000E+01	  0.038436871	7.224300E+01
94	  0.038637273	-3.328000E+00	  0.038637273	6.086100E+01	  0.038637273	3.342600E+01	  0.038637273	7.434500E+01
95	  0.038837675	-3.383000E+00	  0.038837675	5.883000E+01	  0.038837675	3.571300E+01	  0.038837675	7.649600E+01
96	  0.039038073	-3.433000E+00	  0.039038073	5.683700E+01	  0.039038073	3.811300E+01	  0.039038073	7.865800E+01
97	  0.039238475	-3.487000E+00	  0.039238475	5.479700E+01	  0.039238475	4.081400E+01	  0.039238475	8.086300E+01
98	  0.039438877	-3.539000E+00	  0.039438877	5.279300E+01	  0.039438877	4.368200E+01	  0.039438877	8.304800E+01
99	  0.039639279	-3.596000E+00	  0.039639279	5.075600E+01	  0.039639279	4.688100E+01	  0.039639279	8.522900E+01
100	  0.039839678	-3.648000E+00	  0.039839678	4.872300E+01	  0.039839678	5.031100E+01	  0.039839678	8.742200E+01
101	  0.040040080	-3.701000E+00	  0.040040080	4.666200E+01	  0.040040080	5.409500E+01	  0.040040080	8.960000E+01
102	  0.040240481	-3.755000E+00	  0.040240481	4.461000E+01	  0.040240481	5.821300E+01	  0.040240481	9.167400E+01
103	  0.040440880	-3.808000E+00	  0.040440880	4.258700E+01	  0.040440880	6.261500E+01	  0.040440880	9.362000E+01
104	  0.040641282	-3.859000E+00	  0.040641282	4.053700E+01	  0.040641282	6.743900E+01	  0.040641282	9.547800E+01
105	  0.040841684	-3.908000E+00	  0.040841684	3.850800E+01	  0.040841684	7.261000E+01	  0.040841684	9.714300E+01
106	  0.041042086	-3.962000E+00	  0.041042086	3.646500E+01	  0.041042086	7.826200E+01	  0.041042086	9.851800E+01
107	  0.041242484	-4.015000E+00	  0.041242484	3.441400E+01	  0.041242484	8.437500E+01	  0.041242484	9.957600E+01
108	  0.041442886	-4.067000E+00	  0.041442886	3.233600E+01	  0.041442886	9.102000E+01	  0.041442886	1.002680E+02
109	  0.041643288	-4.114000E+00	  0.041643288	3.026900E+01	  0.041643288	9.806900E+01	  0.041643288	1.005480E+02
110	  0.041843686	-4.160000E+00	  0.041843686	2.818800E+01	  0.041843686	1.056160E+02	  0.041843686	1.002840E+02
111	  0.042044088	-4.205000E+00	  0.042044088	2.611400E+01	  0.042044088	1.135600E+02	  0.042044088	9.931700E+01
112	  0.042244490	-4.251000E+00	  0.042244490	2.407700E+01	  0.042244490	1.217090E+02	  0.042244490	9.749100E+01
113	  0.042444889	-4.295000E+00	  0.042444889	2.203300E+01	  0.042444889	1.301460E+02	  0.042444889	9.481300E+01
114	  0.042645290	-4.340000E+00	  0.042645290	1.999000E+01	  0.042645290	1.386980E+02	  0.042645290	9.103900E+01
115	  0.042845692	-4.383000E+00	  0.042845692	1.797200E+01	  0.042845692	1.471370E+02	  0.042845692	8.625200E+01
116	  0.043046094	-4.426000E+00	  0.043046094	1.592400E+01	  0.043046094	1.554930E+02	  0.043046094	8.020600E+01
117	  0.043246493	-4.464000E+00	  0.043246493	1.389000E+01	  0.043246493	1.634160E+02	  0.043246493	7.306100E+01
118	  0.043446895	-4.505000E+00	  0.043446895	1.187500E+01	  0.043446895	1.705590E+02	  0.043446895	6.473000E+01
119	  0.043647297	-4.543000E+00	  0.043647297	9.872000E+00	  0.043647297	1.768130E+02	  0.043647297	5.539800E+01
120	  0.043847695	-4.584000E+00	  0.043847695	7.895000E+00	  0.043847695	1.817610E+02	  0.043847695	4.517900E+01
121	  0.044048097	-4.620000E+00	  0.044048097	5.918000E+00	  0.044048097	1.855690E+02	  0.044048097	3.432700E+01
122	  0.044248499	-4.661000E+00	  0.044248499	3.945000E+00	  0.044248499	1.877810E+02	  0.044248499	2.295600E+01
123	  0.044448901	-4.696000E+00	  0.044448901	2.006000E+00	  0.044448901	1.886450E+02	  0.044448901	1.164100E+01
124	  0.044649299	-4.732000E+00	  0.044649299	6.000000E-02	  0.044649299	1.880430E+02	  0.044649299	3.440000E-01
125	  0.044849701	-4.770000E+00	  0.044849701	-1.868000E+00	  0.044849701	1.859780E+02	  0.044849701	-1.050400E+01
126	  0.045050103	-4.810000E+00	  0.045050103	-3.797000E+00	  0.045050103	1.826020E+02	  0.045050103	-2.075700E+01
127	  0.045250501	-4.843000E+00	  0.045250501	-5.714000E+00	  0.045250501	1.784070E+02	  0.045250501	-3.026300E+01
128	  0.045450903	-4.877000E+00	  0.045450903	-7.623000E+00	  0.045450903	1.732660E+02	  0.045450903	-3.885600E+01
129	  0.045651305	-4.913000E+00	  0.045651305	-9.526000E+00	  0.045651305	1.674070E+02	  0.045651305	-4.645900E+01
130	  0.045851704	-4.950000E+00	  0.045851704	-1.141200E+01	  0.045851704	1.610810E+02	  0.045851704	-5.300200E+01
131	  0.046052102	-4.985000E+00	  0.046052102	-1.328100E+01	  0.046052102	1.545550E+02	  0.046052102	-5.858500E+01
132	  0.046252504	-5.022000E+00	  0.046252504	-1.515500E+01	  0.046252504	1.478150E+02	  0.046252504	-6.324300E+01
133	  0.046452906	-5.061000E+00	  0.046452906	-1.701600E+01	  0.046452906	1.410760E+02	  0.046452906	-6.699600E+01
134	  0.046653304	-5.099000E+00	  0.046653304	-1.890400E+01	  0.046653304	1.343330E+02	  0.046653304	-7.003700E+01
135	  0.046853706	-5.138000E+00	  0.046853706	-2.075800E+01	  0.046853706	1.278640E+02	  0.046853706	-7.232000E+01
136	  0.047054108	-5.173000E+00	  0.047054108	-2.261700E+01	  0.047054108	1.216220E+02	  0.047054108	-7.406300E+01
137	  0.047254506	-5.212000E+00	  0.047254506	-2.447800E+01	  0.047254506	1.156030E+02	  0.047254506	-7.522700E+01
138	  0.047454908	-5.247000E+00	  0.047454908	-2.632100E+01	  0.047454908	1.099370E+02	  0.047454908	-7.598900E+01
139	  0.047655310	-5.280000E+00	  0.047655310	-2.815600E+01	  0.047655310	1.045780E+02	  0.047655310	-7.637800E+01
140	  0.047855709	-5.316000E+00	  0.047855709	-2.995900E+01	  0.047855709	9.958500E+01	  0.047855709	-7.639700E+01
141	  0.048056111	-5.346000E+00	  0.048056111	-3.174700E+01	  0.048056111	9.491400E+01	  0.048056111	-7.622200E+01
142	  0.048256513	-5.380000E+00	  0.048256513	-3.353900E+01	  0.048256513	9.049400E+01	  0.048256513	-7.577600E+01
143	  0.048456915	-5.411000E+00	  0.048456915	-3.534900E+01	  0.048456915	8.629500E+01	  0.048456915	-7.516900E+01
144	  0.048657313	-5.439000E+00	  0.048657313	-3.714600E+01	  0.048657313	8.236800E+01	  0.048657313	-7.445800E+01
145	  0.048857715	-5.469000E+00	  0.048857715	-3.892600E+01	  0.048857715	7.871600E+01	  0.048857715	-7.358100E+01
146	  0.049058117	-5.493000E+00	  0.049058117	-4.069000E+01	  0.049058117	7.530100E+01	  0.049058117	-7.267800E+01
147	  0.049258515	-5.518000E+00	  0.049258515	-4.243800E+01	  0.049258515	7.212000E+01	  0.049258515	-7.168100E+01
148	  0.049458917	-5.542000E+00	  0.049458917	-4.416300E+01	  0.049458917	6.916400E+01	  0.049458917	-7.062800E+01
149	  0.049659319	-5.567000E+00	  0.049659319	-4.588200E+01	  0.049659319	6.639800E+01	  0.049659319	-6.950400E+01
150	  0.049859721	-5.594000E+00	  0.049859721	-4.757600E+01	  0.049859721	6.383600E+01	  0.049859721	-6.833600E+01
151	  0.050060119	-5.613000E+00	  0.050060119	-4.925800E+01	  0.050060119	6.141300E+01	  0.050060119	-6.722100E+01
152	  0.050260521	-5.637000E+00	  0.050260521	-5.094700E+01	  0.050260521	5.913700E+01	  0.050260521	-6.602700E+01
153	  0.050460923	-5.656000E+00	  0.050460923	-5.263800E+01	  0.050460923	5.697000E+01	  0.050460923	-6.485000E+01
154	  0.050661322	-5.671000E+00	  0.050661322	-5.430100E+01	  0.050661322	5.494500E+01	  0.050661322	-6.370600E+01
155	  0.050861724	-5.689000E+00	  0.050861724	-5.593900E+01	  0.050861724	5.306900E+01	  0.050861724	-6.254700E+01
156	  0.051062126	-5.712000E+00	  0.051062126	-5.757400E+01	  0.051062126	5.131800E+01	  0.051062126	-6.134700E+01
157	  0.051262524	-5.730000E+00	  0.051262524	-5.918200E+01	  0.051262524	4.967200E+01	  0.051262524	-6.019600E+01
158	  0.051462926	-5.750000E+00	  0.051462926	-6.079200E+01	  0.051462926	4.811600E+01	  0.051462926	-5.903400E+01
159	  0.051663328	-5.765000E+00	  0.051663328	-6.237700E+01	  0.051663328	4.664900E+01	  0.051663328	-5.791900E+01
160	  0.051863730	-5.782000E+00	  0.051863730	-6.397400E+01	  0.051863730	4.525300E+01	  0.051863730	-5.678800E+01
161	  0.052064128	-5.796000E+00	  0.052064128	-6.554300E+01	  0.052064128	4.393700E+01	  0.052064128	-5.570400E+01
162	  0.052264530	-5.812000E+00	  0.052264530	-6.711200E+01	  0.052264530	4.269700E+01	  0.052264530	-5.461000E+01
163	  0.052464932	-5.827000E+00	  0.052464932	-6.867800E+01	  0.052464932	4.151300E+01	  0.052464932	-5.353800E+01
164	  0.052665330	-5.844000E+00	  0.052665330	-7.020300E+01	  0.052665330	4.042900E+01	  0.052665330	-5.248500E+01
165	  0.052865732	-5.855000E+00	  0.052865732	-7.176300E+01	  0.052865732	3.934700E+01	  0.052865732	-5.144800E+01
166	  0.053066134	-5.874000E+00	  0.053066134	-7.327800E+01	  0.053066134	3.837900E+01	  0.053066134	-5.041300E+01
167	  0.053266536	-5.888000E+00	  0.053266536	-7.479100E+01	  0.053266536	3.743600E+01	  0.053266536	-4.941500E+01
168	  0.053466935	-5.901000E+00	  0.053466935	-7.632600E+01	  0.053466935	3.652100E+01	  0.053466935	-4.841500E+01
169	  0.053667337	-5.914000E+00	  0.053667337	-7.781300E+01	  0.053667337	3.567500E+01	  0.053667337	-4.745600E+01
170	  0.053867739	-5.923000E+00	  0.053867739	-7.932100E+01	  0.053867739	3.483900E+01	  0.053867739	-4.651000E+01
171	  0.054068137	-5.933000E+00	  0.054068137	-8.078900E+01	  0.054068137	3.406300E+01	  0.054068137	-4.559600E+01
172	  0.054268539	-5.946000E+00	  0.054268539	-8.226500E+01	  0.054268539	3.333200E+01	  0.054268539	-4.467200E+01
173	  0.054468941	-5.951000E+00	  0.054468941	-8.373800E+01	  0.054468941	3.260300E+01	  0.054468941	-4.378800E+01
174	  0.054669335	-5.965000E+00	  0.054669335	-8.519000E+01	  0.054669335	3.194600E+01	  0.054669335	-4.289900E+01
175	  0.054869737	-5.974000E+00	  0.054869737	-8.662900E+01	  0.054869737	3.130800E+01	  0.054869737	-4.204000E+01
176	  0.055070139	-5.982000E+00	  0.055070139	-8.806500E+01	  0.055070139	3.069100E+01	  0.055070139	-4.119600E+01
177	  0.055270538	-5.992000E+00	  0.055270538	-8.946700E+01	  0.055270538	3.011900E+01	  0.055270538	-4.037700E+01
178	  0.055470940	-5.998000E+00	  0.055470940	-9.087000E+01	  0.055470940	2.955900E+01	  0.055470940	-3.957300E+01
179	  0.055671342	-6.001000E+00	  0.055671342	-9.230300E+01	  0.055671342	2.899600E+01	  0.055671342	-3.877100E+01
180	  0.055871744	-6.003000E+00	  0.055871744	-9.374900E+01	  0.055871744	2.844700E+01	  0.055871744	-3.797200E+01
181	  0.056072142	-6.014000E+00	  0.056072142	-9.513600E+01	  0.056072142	2.797100E+01	  0.056072142	-3.719200E+01
182	  0.056272544	-6.018000E+00	  0.056272544	-9.651600E+01	  0.056272544	2.749400E+01	  0.056272544	-3.643900E+01
183	  0.056472946	-6.025000E+00	  0.056472946	-9.785400E+01	  0.056472946	2.706000E+01	  0.056472946	-3.570800E+01
184	  0.056673344	-6.030000E+00	  0.056673344	-9.918100E+01	  0.056673344	2.663800E+01	  0.056673344	-3.499600E+01
185	  0.056873746	-6.034000E+00	  0.056873746	-1.005100E+02	  0.056873746	2.622700E+01	  0.056873746	-3.429100E+01
186	  0.057074148	-6.040000E+00	  0.057074148	-1.018520E+02	  0.057074148	2.583500E+01	  0.057074148	-3.358200E+01
187	  0.057274550	-6.046000E+00	  0.057274550	-1.031720E+02	  0.057274550	2.546200E+01	  0.057274550	-3.289100E+01
188	  0.057474948	-6.050000E+00	  0.057474948	-1.045130E+02	  0.057474948	2.509000E+01	  0.057474948	-3.220000E+01
189	  0.057675350	-6.057000E+00	  0.057675350	-1.058180E+02	  0.057675350	2.475000E+01	  0.057675350	-3.152900E+01
190	  0.057875752	-6.062000E+00	  0.057875752	-1.071310E+02	  0.057875752	2.441800E+01	  0.057875752	-3.086100E+01
191	  0.058076151	-6.065000E+00	  0.058076151	-1.084140E+02	  0.058076151	2.409400E+01	  0.058076151	-3.022100E+01
192	  0.058276553	-6.070000E+00	  0.058276553	-1.097110E+02	  0.058276553	2.378600E+01	  0.058276553	-2.957400E+01
193	  0.058476955	-6.075000E+00	  0.058476955	-1.109750E+02	  0.058476955	2.349700E+01	  0.058476955	-2.894900E+01
194	  0.058677353	-6.077000E+00	  0.058677353	-1.122820E+02	  0.058677353	2.319900E+01	  0.058677353	-2.831200E+01
195	  0.058877755	-6.083000E+00	  0.058877755	-1.135580E+02	  0.058877755	2.292900E+01	  0.058877755	-2.769100E+01
196	  0.059078157	-6.084000E+00	  0.059078157	-1.148260E+02	  0.059078157	2.265800E+01	  0.059078157	-2.708500E+01
197	  0.059278559	-6.086000E+00	  0.059278559	-1.160940E+02	  0.059278559	2.239800E+01	  0.059278559	-2.648200E+01
198	  0.059478957	-6.091000E+00	  0.059478957	-1.173750E+02	  0.059478957	2.215000E+01	  0.059478957	-2.587500E+01
199	  0.059679359	-6.093000E+00	  0.059679359	-1.186250E+02	  0.059679359	2.191000E+01	  0.059679359	-2.528900E+01
200	  0.059879761	-6.094000E+00	  0.059879761	-1.198630E+02	  0.059879761	2.168000E+01	  0.059879761	-2.471500E+01
201	  0.060080159	-6.098000E+00	  0.060080159	-1.211100E+02	  0.060080159	2.146300E+01	  0.060080159	-2.413700E+01
202	  0.060280561	-6.099000E+00	  0.060280561	-1.223510E+02	  0.060280561	2.124400E+01	  0.060280561	-2.357100E+01
203	  0.060480963	-6.101000E+00	  0.060480963	-1.235870E+02	  0.060480963	2.103700E+01	  0.060480963	-2.300900E+01
204	  0.060681365	-6.101000E+00	  0.060681365	-1.248120E+02	  0.060681365	2.083300E+01	  0.060681365	-2.245700E+01
205	  0.060881764	-6.098000E+00	  0.060881764	-1.260440E+02	  0.060881764	2.062700E+01	  0.060881764	-2.191000E+01
206	  0.061082166	-6.099000E+00	  0.061082166	-1.272610E+02	  0.061082166	2.044100E+01	  0.061082166	-2.136800E+01
207	  0.061282568	-6.097000E+00	  0.061282568	-1.284790E+02	  0.061282568	2.025200E+01	  0.061282568	-2.083200E+01
208	  0.061482966	-6.093000E+00	  0.061482966	-1.296710E+02	  0.061482966	2.006700E+01	  0.061482966	-2.031200E+01
209	  0.061683368	-6.094000E+00	  0.061683368	-1.308590E+02	  0.061683368	1.990600E+01	  0.061683368	-1.979100E+01
210	  0.061883770	-6.090000E+00	  0.061883770	-1.320180E+02	  0.061883770	1.973900E+01	  0.061883770	-1.929200E+01
211	  0.062084168	-6.088000E+00	  0.062084168	-1.331800E+02	  0.062084168	1.958000E+01	  0.062084168	-1.879100E+01
212	  0.062284570	-6.083000E+00	  0.062284570	-1.343850E+02	  0.062284570	1.941400E+01	  0.062284570	-1.827800E+01
213	  0.062484972	-6.075000E+00	  0.062484972	-1.354740E+02	  0.062484972	1.925900E+01	  0.062484972	-1.781800E+01
214	  0.062685370	-6.069000E+00	  0.062685370	-1.366610E+02	  0.062685370	1.910300E+01	  0.062685370	-1.731600E+01
215	  0.062885776	-6.068000E+00	  0.062885776	-1.377830E+02	  0.062885776	1.897300E+01	  0.062885776	-1.684200E+01
216	  0.063086174	-6.068000E+00	  0.063086174	-1.389100E+02	  0.063086174	1.884800E+01	  0.063086174	-1.636600E+01
217	  0.063286573	-6.065000E+00	  0.063286573	-1.400420E+02	  0.063286573	1.872000E+01	  0.063286573	-1.589300E+01
218	  0.063486971	-6.063000E+00	  0.063486971	-1.411480E+02	  0.063486971	1.860200E+01	  0.063486971	-1.543100E+01
219	  0.063687377	-6.061000E+00	  0.063687377	-1.422280E+02	  0.063687377	1.849100E+01	  0.063687377	-1.498300E+01
220	  0.063887775	-6.054000E+00	  0.063887775	-1.433700E+02	  0.063887775	1.836200E+01	  0.063887775	-1.451300E+01
221	  0.064088173	-6.055000E+00	  0.064088173	-1.444770E+02	  0.064088173	1.826500E+01	  0.064088173	-1.405500E+01
222	  0.064288579	-6.057000E+00	  0.064288579	-1.455810E+02	  0.064288579	1.817400E+01	  0.064288579	-1.359900E+01
223	  0.064488977	-6.057000E+00	  0.064488977	-1.466680E+02	  0.064488977	1.808200E+01	  0.064488977	-1.315300E+01
224	  0.064689375	-6.056000E+00	  0.064689375	-1.477740E+02	  0.064689375	1.798800E+01	  0.064689375	-1.270200E+01
225	  0.064889781	-6.054000E+00	  0.064889781	-1.488560E+02	  0.064889781	1.789900E+01	  0.064889781	-1.226200E+01
226	  0.065090179	-6.054000E+00	  0.065090179	-1.499430E+02	  0.065090179	1.781600E+01	  0.065090179	-1.182100E+01
227	  0.065290578	-6.058000E+00	  0.065290578	-1.510390E+02	  0.065290578	1.774900E+01	  0.065290578	-1.137500E+01
228	  0.065490983	-6.057000E+00	  0.065490983	-1.521360E+02	  0.065490983	1.766900E+01	  0.065490983	-1.093300E+01
229	  0.065691382	-6.058000E+00	  0.065691382	-1.532280E+02	  0.065691382	1.760000E+01	  0.065691382	-1.049400E+01
230	  0.065891780	-6.058000E+00	  0.065891780	-1.543010E+02	  0.065891780	1.753200E+01	  0.065891780	-1.006400E+01
231	  0.066092186	-6.058000E+00	  0.066092186	-1.553750E+02	  0.066092186	1.746900E+01	  0.066092186	-9.634000E+00
232	  0.066292584	-6.057000E+00	  0.066292584	-1.564850E+02	  0.066292584	1.740200E+01	  0.066292584	-9.192000E+00
233	  0.066492982	-6.057000E+00	  0.066492982	-1.575740E+02	  0.066492982	1.734200E+01	  0.066492982	-8.759000E+00
234	  0.066693388	-6.059000E+00	  0.066693388	-1.586380E+02	  0.066693388	1.729300E+01	  0.066693388	-8.336000E+00
235	  0.066893786	-6.058000E+00	  0.066893786	-1.597030E+02	  0.066893786	1.723900E+01	  0.066893786	-7.915000E+00
236	  0.067094192	-6.056000E+00	  0.067094192	-1.608100E+02	  0.067094192	1.718200E+01	  0.067094192	-7.478000E+00
237	  0.067294590	-6.055000E+00	  0.067294590	-1.618480E+02	  0.067294590	1.713300E+01	  0.067294590	-7.069000E+00
238	  0.067494988	-6.054000E+00	  0.067494988	-1.629220E+02	  0.067494988	1.708700E+01	  0.067494988	-6.647000E+00
239	  0.067695394	-6.052000E+00	  0.067695394	-1.639890E+02	  0.067695394	1.704100E+01	  0.067695394	-6.229000E+00
240	  0.067895792	-6.051000E+00	  0.067895792	-1.650500E+02	  0.067895792	1.700100E+01	  0.067895792	-5.813000E+00
241	  0.068096191	-6.046000E+00	  0.068096191	-1.661080E+02	  0.068096191	1.695200E+01	  0.068096191	-5.400000E+00
242	  0.068296596	-6.046000E+00	  0.068296596	-1.671570E+02	  0.068296596	1.692000E+01	  0.068296596	-4.989000E+00
243	  0.068496995	-6.047000E+00	  0.068496995	-1.682020E+02	  0.068496995	1.689200E+01	  0.068496995	-4.581000E+00
244	  0.068697393	-6.040000E+00	  0.068697393	-1.692420E+02	  0.068697393	1.684800E+01	  0.068697393	-4.177000E+00
245	  0.068897791	-6.037000E+00	  0.068897791	-1.702610E+02	  0.068897791	1.681800E+01	  0.068897791	-3.780000E+00
246	  0.069098189	-6.036000E+00	  0.069098189	-1.712630E+02	  0.069098189	1.679200E+01	  0.069098189	-3.390000E+00
247	  0.069298595	-6.032000E+00	  0.069298595	-1.723020E+02	  0.069298595	1.676300E+01	  0.069298595	-2.987000E+00
248	  0.069498993	-6.031000E+00	  0.069498993	-1.733370E+02	  0.069498993	1.674300E+01	  0.069498993	-2.585000E+00
249	  0.069699399	-6.032000E+00	  0.069699399	-1.743300E+02	  0.069699399	1.673300E+01	  0.069699399	-2.199000E+00
250	  0.069899797	-6.028000E+00	  0.069899797	-1.753330E+02	  0.069899797	1.671200E+01	  0.069899797	-1.810000E+00
251	  0.070100196	-6.029000E+00	  0.070100196	-1.763120E+02	  0.070100196	1.670300E+01	  0.070100196	-1.430000E+00
252	  0.070300601	-6.031000E+00	  0.070300601	-1.773190E+02	  0.070300601	1.670300E+01	  0.070300601	-1.039000E+00
253	  0.070501000	-6.028000E+00	  0.070501000	-1.782850E+02	  0.070501000	1.669000E+01	  0.070501000	-6.640000E-01
254	  0.070701398	-6.025000E+00	  0.070701398	-1.792750E+02	  0.070701398	1.668000E+01	  0.070701398	-2.810000E-01
255	  0.070901804	-6.031000E+00	  0.070901804	1.797370E+02	  0.070901804	1.669500E+01	  0.070901804	1.010000E-01
256	  0.071102202	-6.033000E+00	  0.071102202	1.787460E+02	  0.071102202	1.670000E+01	  0.071102202	4.850000E-01
257	  0.071302600	-6.038000E+00	  0.071302600	1.777780E+02	  0.071302600	1.671700E+01	  0.071302600	8.610000E-01
258	  0.071503006	-6.039000E+00	  0.071503006	1.767910E+02	  0.071503006	1.672600E+01	  0.071503006	1.243000E+00
259	  0.071703404	-6.046000E+00	  0.071703404	1.758260E+02	  0.071703404	1.675200E+01	  0.071703404	1.617000E+00
260	  0.071903802	-6.049000E+00	  0.071903802	1.748350E+02	  0.071903802	1.677100E+01	  0.071903802	2.001000E+00
261	  0.072104208	-6.053000E+00	  0.072104208	1.738530E+02	  0.072104208	1.679400E+01	  0.072104208	2.382000E+00
262	  0.072304606	-6.055000E+00	  0.072304606	1.728840E+02	  0.072304606	1.681300E+01	  0.072304606	2.758000E+00
263	  0.072505005	-6.063000E+00	  0.072505005	1.719190E+02	  0.072505005	1.684900E+01	  0.072505005	3.132000E+00
264	  0.072705410	-6.067000E+00	  0.072705410	1.709080E+02	  0.072705410	1.688100E+01	  0.072705410	3.524000E+00
265	  0.072905809	-6.074000E+00	  0.072905809	1.699470E+02	  0.072905809	1.692000E+01	  0.072905809	3.897000E+00
266	  0.073106214	-6.084000E+00	  0.073106214	1.689690E+02	  0.073106214	1.697000E+01	  0.073106214	4.276000E+00
267	  0.073306613	-6.090000E+00	  0.073306613	1.679740E+02	  0.073306613	1.701000E+01	  0.073306613	4.662000E+00
268	  0.073507011	-6.094000E+00	  0.073507011	1.670110E+02	  0.073507011	1.704800E+01	  0.073507011	5.037000E+00
269	  0.073707417	-6.101000E+00	  0.073707417	1.660120E+02	  0.073707417	1.709600E+01	  0.073707417	5.426000E+00
270	  0.073907815	-6.104000E+00	  0.073907815	1.650490E+02	  0.073907815	1.713700E+01	  0.073907815	5.801000E+00
271	  0.074108213	-6.111000E+00	  0.074108213	1.640780E+02	  0.074108213	1.719100E+01	  0.074108213	6.179000E+00
272	  0.074308619	-6.119000E+00	  0.074308619	1.630840E+02	  0.074308619	1.725000E+01	  0.074308619	6.567000E+00
273	  0.074509017	-6.122000E+00	  0.074509017	1.621570E+02	  0.074509017	1.729600E+01	  0.074509017	6.929000E+00
274	  0.074709415	-6.129000E+00	  0.074709415	1.611960E+02	  0.074709415	1.735500E+01	  0.074709415	7.305000E+00
275	  0.074909821	-6.136000E+00	  0.074909821	1.602250E+02	  0.074909821	1.741600E+01	  0.074909821	7.685000E+00
276	  0.075110219	-6.147000E+00	  0.075110219	1.593050E+02	  0.075110219	1.748800E+01	  0.075110219	8.044000E+00
277	  0.075310618	-6.150000E+00	  0.075310618	1.583460E+02	  0.075310618	1.754400E+01	  0.075310618	8.421000E+00
278	  0.075511023	-6.159000E+00	  0.075511023	1.574380E+02	  0.075511023	1.761600E+01	  0.075511023	8.777000E+00
279	  0.075711422	-6.160000E+00	  0.075711422	1.565320E+02	  0.075711422	1.767000E+01	  0.075711422	9.135000E+00
280	  0.075911827	-6.167000E+00	  0.075911827	1.556180E+02	  0.075911827	1.774100E+01	  0.075911827	9.495000E+00
281	  0.076112226	-6.181000E+00	  0.076112226	1.546990E+02	  0.076112226	1.783200E+01	  0.076112226	9.855000E+00
282	  0.076312624	-6.187000E+00	  0.076312624	1.537860E+02	  0.076312624	1.790400E+01	  0.076312624	1.021600E+01
283	  0.076513030	-6.199000E+00	  0.076513030	1.528770E+02	  0.076513030	1.799600E+01	  0.076513030	1.057300E+01
284	  0.076713428	-6.209000E+00	  0.076713428	1.519850E+02	  0.076713428	1.808200E+01	  0.076713428	1.092600E+01
285	  0.076913826	-6.221000E+00	  0.076913826	1.510880E+02	  0.076913826	1.817800E+01	  0.076913826	1.127900E+01
286	  0.077114232	-6.233000E+00	  0.077114232	1.502120E+02	  0.077114232	1.827300E+01	  0.077114232	1.162500E+01
287	  0.077314630	-6.246000E+00	  0.077314630	1.493750E+02	  0.077314630	1.837000E+01	  0.077314630	1.195500E+01
288	  0.077515028	-6.258000E+00	  0.077515028	1.484640E+02	  0.077515028	1.847400E+01	  0.077515028	1.231600E+01
289	  0.077715434	-6.272000E+00	  0.077715434	1.476030E+02	  0.077715434	1.858100E+01	  0.077715434	1.265500E+01
290	  0.077915832	-6.289000E+00	  0.077915832	1.467170E+02	  0.077915832	1.870000E+01	  0.077915832	1.300500E+01
291	  0.078116231	-6.302000E+00	  0.078116231	1.458530E+02	  0.078116231	1.881000E+01	  0.078116231	1.334700E+01
292	  0.078316636	-6.316000E+00	  0.078316636	1.449480E+02	  0.078316636	1.892700E+01	  0.078316636	1.370700E+01
293	  0.078517035	-6.335000E+00	  0.078517035	1.440840E+02	  0.078517035	1.905800E+01	  0.078517035	1.404700E+01
294	  0.078717433	-6.355000E+00	  0.078717433	1.432030E+02	  0.078717433	1.919400E+01	  0.078717433	1.439400E+01
295	  0.078917839	-6.373000E+00	  0.078917839	1.423460E+02	  0.078917839	1.932600E+01	  0.078917839	1.473200E+01
296	  0.079118237	-6.387000E+00	  0.079118237	1.414790E+02	  0.079118237	1.945300E+01	  0.079118237	1.507800E+01
297	  0.079318643	-6.408000E+00	  0.079318643	1.406230E+02	  0.079318643	1.960000E+01	  0.079318643	1.541400E+01
298	  0.079519041	-6.428000E+00	  0.079519041	1.397730E+02	  0.079519041	1.974300E+01	  0.079519041	1.575000E+01
299	  0.079719439	-6.442000E+00	  0.079719439	1.388690E+02	  0.079719439	1.988000E+01	  0.079719439	1.611300E+01
300	  0.079919845	-6.462000E+00	  0.079919845	1.379970E+02	  0.079919845	2.003500E+01	  0.079919845	1.645800E+01
301	  0.080120243	-6.480000E+00	  0.080120243	1.371170E+02	  0.080120243	2.018700E+01	  0.080120243	1.680800E+01
302	  0.080320641	-6.495000E+00	  0.080320641	1.362600E+02	  0.080320641	2.033100E+01	  0.080320641	1.715200E+01
303	  0.080521047	-6.515000E+00	  0.080521047	1.354150E+02	  0.080521047	2.048900E+01	  0.080521047	1.748700E+01
304	  0.080721445	-6.530000E+00	  0.080721445	1.345490E+02	  0.080721445	2.064200E+01	  0.080721445	1.783600E+01
305	  0.080921844	-6.547000E+00	  0.080921844	1.337320E+02	  0.080921844	2.079500E+01	  0.080921844	1.816300E+01
306	  0.081122249	-6.568000E+00	  0.081122249	1.329200E+02	  0.081122249	2.096000E+01	  0.081122249	1.848500E+01
307	  0.081322648	-6.582000E+00	  0.081322648	1.320670E+02	  0.081322648	2.111600E+01	  0.081322648	1.883000E+01
308	  0.081523046	-6.597000E+00	  0.081523046	1.312510E+02	  0.081523046	2.127200E+01	  0.081523046	1.916000E+01
309	  0.081723452	-6.612000E+00	  0.081723452	1.304040E+02	  0.081723452	2.143600E+01	  0.081723452	1.950200E+01
310	  0.081923850	-6.625000E+00	  0.081923850	1.296060E+02	  0.081923850	2.159100E+01	  0.081923850	1.982700E+01
311	  0.082124248	-6.646000E+00	  0.082124248	1.288060E+02	  0.082124248	2.176900E+01	  0.082124248	2.014600E+01
312	  0.082324654	-6.659000E+00	  0.082324654	1.280150E+02	  0.082324654	2.192900E+01	  0.082324654	2.046800E+01
313	  0.082525052	-6.675000E+00	  0.082525052	1.272430E+02	  0.082525052	2.209700E+01	  0.082525052	2.078100E+01
314	  0.082725458	-6.696000E+00	  0.082725458	1.264990E+02	  0.082725458	2.227600E+01	  0.082725458	2.107600E+01
315	  0.082925856	-6.717000E+00	  0.082925856	1.257280E+02	  0.082925856	2.246200E+01	  0.082925856	2.138300E+01
316	  0.083126254	-6.735000E+00	  0.083126254	1.249290E+02	  0.083126254	2.264900E+01	  0.083126254	2.170500E+01
317	  0.083326660	-6.754000E+00	  0.083326660	1.241920E+02	  0.083326660	2.283000E+01	  0.083326660	2.200000E+01
318	  0.083527058	-6.769000E+00	  0.083527058	1.234270E+02	  0.083527058	2.301000E+01	  0.083527058	2.231100E+01
319	  0.083727457	-6.798000E+00	  0.083727457	1.226810E+02	  0.083727457	2.322700E+01	  0.083727457	2.259800E+01
320	  0.083927862	-6.816000E+00	  0.083927862	1.219150E+02	  0.083927862	2.342000E+01	  0.083927862	2.290700E+01
321	  0.084128261	-6.839000E+00	  0.084128261	1.211790E+02	  0.084128261	2.362500E+01	  0.084128261	2.319700E+01
322	  0.084328659	-6.866000E+00	  0.084328659	1.204650E+02	  0.084328659	2.384100E+01	  0.084328659	2.347100E+01
323	  0.084529065	-6.891000E+00	  0.084529065	1.197250E+02	  0.084529065	2.405900E+01	  0.084529065	2.375900E+01
324	  0.084729463	-6.913000E+00	  0.084729463	1.189470E+02	  0.084729463	2.427800E+01	  0.084729463	2.406800E+01
325	  0.084929854	-6.941000E+00	  0.084929854	1.182040E+02	  0.084929854	2.451000E+01	  0.084929854	2.435400E+01
326	  0.085130259	-6.967000E+00	  0.085130259	1.174490E+02	  0.085130259	2.474600E+01	  0.085130259	2.464500E+01
327	  0.085330658	-6.992000E+00	  0.085330658	1.166860E+02	  0.085330658	2.498100E+01	  0.085330658	2.494300E+01
328	  0.085531056	-7.018000E+00	  0.085531056	1.159320E+02	  0.085531056	2.522300E+01	  0.085531056	2.523300E+01
329	  0.085731462	-7.044000E+00	  0.085731462	1.151730E+02	  0.085731462	2.546600E+01	  0.085731462	2.552700E+01
330	  0.085931860	-7.072000E+00	  0.085931860	1.144170E+02	  0.085931860	2.572100E+01	  0.085931860	2.581400E+01
331	  0.086132258	-7.103000E+00	  0.086132258	1.136870E+02	  0.086132258	2.598100E+01	  0.086132258	2.608600E+01
332	  0.086332664	-7.128000E+00	  0.086332664	1.129170E+02	  0.086332664	2.623900E+01	  0.086332664	2.638300E+01
333	  0.086533062	-7.156000E+00	  0.086533062	1.121510E+02	  0.086533062	2.650500E+01	  0.086533062	2.667400E+01
334	  0.086733460	-7.185000E+00	  0.086733460	1.113770E+02	  0.086733460	2.678100E+01	  0.086733460	2.696600E+01
335	  0.086933866	-7.208000E+00	  0.086933866	1.106170E+02	  0.086933866	2.704300E+01	  0.086933866	2.725900E+01
336	  0.087134264	-7.237000E+00	  0.087134264	1.098670E+02	  0.087134264	2.732000E+01	  0.087134264	2.753900E+01
337	  0.087334670	-7.263000E+00	  0.087334670	1.091160E+02	  0.087334670	2.759400E+01	  0.087334670	2.782300E+01
338	  0.087535068	-7.291000E+00	  0.087535068	1.083880E+02	  0.087535068	2.787500E+01	  0.087535068	2.809100E+01
339	  0.087735467	-7.319000E+00	  0.087735467	1.076340E+02	  0.087735467	2.816300E+01	  0.087735467	2.837100E+01
340	  0.087935872	-7.353000E+00	  0.087935872	1.069050E+02	  0.087935872	2.846600E+01	  0.087935872	2.862800E+01
341	  0.088136271	-7.377000E+00	  0.088136271	1.061550E+02	  0.088136271	2.875200E+01	  0.088136271	2.891000E+01
342	  0.088336669	-7.401000E+00	  0.088336669	1.054480E+02	  0.088336669	2.902700E+01	  0.088336669	2.917300E+01
343	  0.088537075	-7.429000E+00	  0.088537075	1.047310E+02	  0.088537075	2.932400E+01	  0.088537075	2.943100E+01
344	  0.088737473	-7.454000E+00	  0.088737473	1.040270E+02	  0.088737473	2.961000E+01	  0.088737473	2.968900E+01
345	  0.088937871	-7.486000E+00	  0.088937871	1.033420E+02	  0.088937871	2.991200E+01	  0.088937871	2.992400E+01
346	  0.089138277	-7.509000E+00	  0.089138277	1.027480E+02	  0.089138277	3.016700E+01	  0.089138277	3.013400E+01
347	  0.089338675	-7.539000E+00	  0.089338675	1.020830E+02	  0.089338675	3.046600E+01	  0.089338675	3.036100E+01
348	  0.089539073	-7.570000E+00	  0.089539073	1.014930E+02	  0.089539073	3.074700E+01	  0.089539073	3.055100E+01
349	  0.089739479	-7.596000E+00	  0.089739479	1.008550E+02	  0.089739479	3.103300E+01	  0.089739479	3.077000E+01
350	  0.089939877	-7.632000E+00	  0.089939877	1.002740E+02	  0.089939877	3.133000E+01	  0.089939877	3.094300E+01
351	  0.090140276	-7.650000E+00	  0.090140276	9.966900E+01	  0.090140276	3.158600E+01	  0.090140276	3.116500E+01
352	  0.090340681	-7.686000E+00	  0.090340681	9.910400E+01	  0.090340681	3.188400E+01	  0.090340681	3.132600E+01
353	  0.090541080	-7.711000E+00	  0.090541080	9.853000E+01	  0.090541080	3.215900E+01	  0.090541080	3.151300E+01
354	  0.090741485	-7.745000E+00	  0.090741485	9.800000E+01	  0.090741485	3.244300E+01	  0.090741485	3.166000E+01
355	  0.090941884	-7.770000E+00	  0.090941884	9.741600E+01	  0.090941884	3.272400E+01	  0.090941884	3.185100E+01
356	  0.091142282	-7.805000E+00	  0.091142282	9.689300E+01	  0.091142282	3.301400E+01	  0.091142282	3.198900E+01
357	  0.091342688	-7.837000E+00	  0.091342688	9.632100E+01	  0.091342688	3.331600E+01	  0.091342688	3.215300E+01
358	  0.091543086	-7.859000E+00	  0.091543086	9.574000E+01	  0.091543086	3.359500E+01	  0.091543086	3.234400E+01
359	  0.091743484	-7.902000E+00	  0.091743484	9.521500E+01	  0.091743484	3.391500E+01	  0.091743484	3.245600E+01
360	  0.091943890	-7.922000E+00	  0.091943890	9.465900E+01	  0.091943890	3.418600E+01	  0.091943890	3.263800E+01
361	  0.092144288	-7.958000E+00	  0.092144288	9.407800E+01	  0.092144288	3.451300E+01	  0.092144288	3.278800E+01
362	  0.092344686	-7.977000E+00	  0.092344686	9.349700E+01	  0.092344686	3.479700E+01	  0.092344686	3.297800E+01
363	  0.092545092	-8.012000E+00	  0.092545092	9.296200E+01	  0.092545092	3.510700E+01	  0.092545092	3.310700E+01
364	  0.092745490	-8.038000E+00	  0.092745490	9.236000E+01	  0.092745490	3.542500E+01	  0.092745490	3.328400E+01
365	  0.092945889	-8.072000E+00	  0.092945889	9.181200E+01	  0.092945889	3.574100E+01	  0.092945889	3.341800E+01
366	  0.093146294	-8.096000E+00	  0.093146294	9.122600E+01	  0.093146294	3.605300E+01	  0.093146294	3.358900E+01
367	  0.093346693	-8.125000E+00	  0.093346693	9.065100E+01	  0.093346693	3.637500E+01	  0.093346693	3.374100E+01
368	  0.093547091	-8.149000E+00	  0.093547091	9.005200E+01	  0.093547091	3.669800E+01	  0.093547091	3.391300E+01
369	  0.093747497	-8.181000E+00	  0.093747497	8.945100E+01	  0.093747497	3.704600E+01	  0.093747497	3.406100E+01
370	  0.093947895	-8.202000E+00	  0.093947895	8.880900E+01	  0.093947895	3.738600E+01	  0.093947895	3.425500E+01
371	  0.094148301	-8.232000E+00	  0.094148301	8.825100E+01	  0.094148301	3.771500E+01	  0.094148301	3.438700E+01
372	  0.094348699	-8.257000E+00	  0.094348699	8.768400E+01	  0.094348699	3.803700E+01	  0.094348699	3.453700E+01
373	  0.094549097	-8.286000E+00	  0.094549097	8.712000E+01	  0.094549097	3.837100E+01	  0.094549097	3.466900E+01
374	  0.094749503	-8.312000E+00	  0.094749503	8.651800E+01	  0.094749503	3.872000E+01	  0.094749503	3.482200E+01
375	  0.094949901	-8.338000E+00	  0.094949901	8.593700E+01	  0.094949901	3.906100E+01	  0.094949901	3.496400E+01
376	  0.095150299	-8.362000E+00	  0.095150299	8.540400E+01	  0.095150299	3.937700E+01	  0.095150299	3.509200E+01
377	  0.095350705	-8.389000E+00	  0.095350705	8.480800E+01	  0.095350705	3.973500E+01	  0.095350705	3.523000E+01
378	  0.095551103	-8.413000E+00	  0.095551103	8.425800E+01	  0.095551103	4.006500E+01	  0.095551103	3.535900E+01
379	  0.095751502	-8.439000E+00	  0.095751502	8.375900E+01	  0.095751502	4.037600E+01	  0.095751502	3.546100E+01
380	  0.095951907	-8.462000E+00	  0.095951907	8.323900E+01	  0.095951907	4.069400E+01	  0.095951907	3.557600E+01
381	  0.096152306	-8.491000E+00	  0.096152306	8.272700E+01	  0.096152306	4.102400E+01	  0.096152306	3.566600E+01
382	  0.096352704	-8.514000E+00	  0.096352704	8.226000E+01	  0.096352704	4.131800E+01	  0.096352704	3.576000E+01
383	  0.096553110	-8.538000E+00	  0.096553110	8.177300E+01	  0.096553110	4.162900E+01	  0.096553110	3.585000E+01
384	  0.096753508	-8.560000E+00	  0.096753508	8.132200E+01	  0.096753508	4.191700E+01	  0.096753508	3.593500E+01
385	  0.096953906	-8.590000E+00	  0.096953906	8.088000E+01	  0.096953906	4.221900E+01	  0.096953906	3.599000E+01
386	  0.097154312	-8.616000E+00	  0.097154312	8.044500E+01	  0.097154312	4.251200E+01	  0.097154312	3.604700E+01
387	  0.097354710	-8.639000E+00	  0.097354710	7.997200E+01	  0.097354710	4.281900E+01	  0.097354710	3.612900E+01
388	  0.097555116	-8.669000E+00	  0.097555116	7.961100E+01	  0.097555116	4.308000E+01	  0.097555116	3.614900E+01
389	  0.097755514	-8.694000E+00	  0.097755514	7.918400E+01	  0.097755514	4.337000E+01	  0.097755514	3.620200E+01
390	  0.097955912	-8.723000E+00	  0.097955912	7.880500E+01	  0.097955912	4.364300E+01	  0.097955912	3.622100E+01
391	  0.098156318	-8.748000E+00	  0.098156318	7.840500E+01	  0.098156318	4.391900E+01	  0.098156318	3.626500E+01
392	  0.098356716	-8.772000E+00	  0.098356716	7.802300E+01	  0.098356716	4.418500E+01	  0.098356716	3.630000E+01
393	  0.098557115	-8.801000E+00	  0.098557115	7.763800E+01	  0.098557115	4.446200E+01	  0.098557115	3.631800E+01
394	  0.098757520	-8.826000E+00	  0.098757520	7.723300E+01	  0.098757520	4.474400E+01	  0.098757520	3.635400E+01
395	  0.098957919	-8.850000E+00	  0.098957919	7.684300E+01	  0.098957919	4.501500E+01	  0.098957919	3.638800E+01
396	  0.099158317	-8.871000E+00	  0.099158317	7.649600E+01	  0.099158317	4.525800E+01	  0.099158317	3.641600E+01
397	  0.099358723	-8.895000E+00	  0.099358723	7.609200E+01	  0.099358723	4.554000E+01	  0.099358723	3.645000E+01
398	  0.099559121	-8.919000E+00	  0.099559121	7.571100E+01	  0.099559121	4.580900E+01	  0.099559121	3.647500E+01
399	  0.099759519	-8.937000E+00	  0.099759519	7.533200E+01	  0.099759519	4.606800E+01	  0.099759519	3.651800E+01
400	  0.099959925	-8.966000E+00	  0.099959925	7.492400E+01	  0.099959925	4.636500E+01	  0.099959925	3.652500E+01
401	  0.100160323	-8.976000E+00	  0.100160323	7.457300E+01	  0.100160323	4.659100E+01	  0.100160323	3.659100E+01
402	  0.100360721	-8.986000E+00	  0.100360721	7.417300E+01	  0.100360721	4.685000E+01	  0.100360721	3.666600E+01
403	  0.100561127	-9.007000E+00	  0.100561127	7.378800E+01	  0.100561127	4.712100E+01	  0.100561127	3.669300E+01
404	  0.100761525	-9.028000E+00	  0.100761525	7.340100E+01	  0.100761525	4.739400E+01	  0.100761525	3.671900E+01
405	  0.100961931	-9.028000E+00	  0.100961931	7.299900E+01	  0.100961931	4.764000E+01	  0.100961931	3.682700E+01
406	  0.101162329	-9.030000E+00	  0.101162329	7.262100E+01	  0.101162329	4.787700E+01	  0.101162329	3.692400E+01
407	  0.101362728	-9.043000E+00	  0.101362728	7.226300E+01	  0.101362728	4.812100E+01	  0.101362728	3.696900E+01
408	  0.101563133	-9.046000E+00	  0.101563133	7.190500E+01	  0.101563133	4.834900E+01	  0.101563133	3.705400E+01
409	  0.101763532	-9.042000E+00	  0.101763532	7.153800E+01	  0.101763532	4.857300E+01	  0.101763532	3.716800E+01
410	  0.101963930	-9.060000E+00	  0.101963930	7.108300E+01	  0.101963930	4.889100E+01	  0.101963930	3.721400E+01
411	  0.102164328	-9.047000E+00	  0.102164328	7.074600E+01	  0.102164328	4.908400E+01	  0.102164328	3.735600E+01
412	  0.102364726	-9.052000E+00	  0.102364726	7.036400E+01	  0.102364726	4.933800E+01	  0.102364726	3.743200E+01
413	  0.102565125	-9.045000E+00	  0.102565125	6.995600E+01	  0.102565125	4.959100E+01	  0.102565125	3.756500E+01
414	  0.102765530	-9.039000E+00	  0.102765530	6.963100E+01	  0.102765530	4.979300E+01	  0.102765530	3.767400E+01
415	  0.102965929	-9.033000E+00	  0.102965929	6.924600E+01	  0.102965929	5.003600E+01	  0.102965929	3.779600E+01
416	  0.103166327	-9.025000E+00	  0.103166327	6.885200E+01	  0.103166327	5.028400E+01	  0.103166327	3.793000E+01
417	  0.103366733	-9.012000E+00	  0.103366733	6.847800E+01	  0.103366733	5.051300E+01	  0.103366733	3.807900E+01
418	  0.103567131	-9.000000E+00	  0.103567131	6.817000E+01	  0.103567131	5.070100E+01	  0.103567131	3.820500E+01
419	  0.103767529	-8.987000E+00	  0.103767529	6.775900E+01	  0.103767529	5.096000E+01	  0.103767529	3.836400E+01
420	  0.103967935	-8.980000E+00	  0.103967935	6.738500E+01	  0.103967935	5.120500E+01	  0.103967935	3.848600E+01
421	  0.104168333	-8.960000E+00	  0.104168333	6.701500E+01	  0.104168333	5.143000E+01	  0.104168333	3.866300E+01
422	  0.104368731	-8.945000E+00	  0.104368731	6.664200E+01	  0.104368731	5.166700E+01	  0.104368731	3.881900E+01
423	  0.104569137	-8.926000E+00	  0.104569137	6.626600E+01	  0.104569137	5.190100E+01	  0.104569137	3.899700E+01
424	  0.104769535	-8.915000E+00	  0.104769535	6.583600E+01	  0.104769535	5.219000E+01	  0.104769535	3.914600E+01
425	  0.104969934	-8.895000E+00	  0.104969934	6.542300E+01	  0.104969934	5.245600E+01	  0.104969934	3.933500E+01
426	  0.105170339	-8.879000E+00	  0.105170339	6.501500E+01	  0.105170339	5.272800E+01	  0.105170339	3.950300E+01
427	  0.105370738	-8.856000E+00	  0.105370738	6.458300E+01	  0.105370738	5.300900E+01	  0.105370738	3.971000E+01
428	  0.105571143	-8.845000E+00	  0.105571143	6.411700E+01	  0.105571143	5.333800E+01	  0.105571143	3.986600E+01
429	  0.105771542	-8.817000E+00	  0.105771542	6.362000E+01	  0.105771542	5.366900E+01	  0.105771542	4.011200E+01
430	  0.105971940	-8.800000E+00	  0.105971940	6.314700E+01	  0.105971940	5.400200E+01	  0.105971940	4.029700E+01
431	  0.106172346	-8.783000E+00	  0.106172346	6.263600E+01	  0.106172346	5.437000E+01	  0.106172346	4.048800E+01
432	  0.106372744	-8.762000E+00	  0.106372744	6.213800E+01	  0.106372744	5.472700E+01	  0.106372744	4.069500E+01
433	  0.106573142	-8.743000E+00	  0.106573142	6.158900E+01	  0.106573142	5.513100E+01	  0.106573142	4.090400E+01
434	  0.106773548	-8.719000E+00	  0.106773548	6.102900E+01	  0.106773548	5.554300E+01	  0.106773548	4.114200E+01
435	  0.106973946	-8.699000E+00	  0.106973946	6.047900E+01	  0.106973946	5.596100E+01	  0.106973946	4.134800E+01
436	  0.107174344	-8.672000E+00	  0.107174344	5.977300E+01	  0.107174344	5.650200E+01	  0.107174344	4.162600E+01
437	  0.107374750	-8.643000E+00	  0.107374750	5.919700E+01	  0.107374750	5.694400E+01	  0.107374750	4.188600E+01
438	  0.107575148	-8.629000E+00	  0.107575148	5.860900E+01	  0.107575148	5.742100E+01	  0.107575148	4.206600E+01
439	  0.107775547	-8.598000E+00	  0.107775547	5.794500E+01	  0.107775547	5.795100E+01	  0.107775547	4.235100E+01
440	  0.107975952	-8.580000E+00	  0.107975952	5.730700E+01	  0.107975952	5.848200E+01	  0.107975952	4.255700E+01
441	  0.108176351	-8.555000E+00	  0.108176351	5.663400E+01	  0.108176351	5.904700E+01	  0.108176351	4.280000E+01
442	  0.108376749	-8.536000E+00	  0.108376749	5.596900E+01	  0.108376749	5.961900E+01	  0.108376749	4.300900E+01
443	  0.108577155	-8.513000E+00	  0.108577155	5.526700E+01	  0.108577155	6.023300E+01	  0.108577155	4.323800E+01
444	  0.108777553	-8.494000E+00	  0.108777553	5.453100E+01	  0.108777553	6.089100E+01	  0.108777553	4.344400E+01
445	  0.108977959	-8.478000E+00	  0.108977959	5.380700E+01	  0.108977959	6.155300E+01	  0.108977959	4.362600E+01
446	  0.109178357	-8.458000E+00	  0.109178357	5.313600E+01	  0.109178357	6.217200E+01	  0.109178357	4.382100E+01
447	  0.109378755	-8.438000E+00	  0.109378755	5.242200E+01	  0.109378755	6.284500E+01	  0.109378755	4.400900E+01
448	  0.109579161	-8.423000E+00	  0.109579161	5.165100E+01	  0.109579161	6.358700E+01	  0.109579161	4.416500E+01
449	  0.109779559	-8.408000E+00	  0.109779559	5.098800E+01	  0.109779559	6.423500E+01	  0.109779559	4.430900E+01
450	  0.109979957	-8.398000E+00	  0.109979957	5.027300E+01	  0.109979957	6.494800E+01	  0.109979957	4.440700E+01
451	  0.110180363	-8.392000E+00	  0.110180363	4.958200E+01	  0.110180363	6.564600E+01	  0.110180363	4.447200E+01
452	  0.110380761	-8.387000E+00	  0.110380761	4.888400E+01	  0.110380761	6.636000E+01	  0.110380761	4.452400E+01
453	  0.110581160	-8.369000E+00	  0.110581160	4.820800E+01	  0.110581160	6.706200E+01	  0.110581160	4.465200E+01
454	  0.110781565	-8.361000E+00	  0.110781565	4.750900E+01	  0.110781565	6.779700E+01	  0.110781565	4.469800E+01
455	  0.110981964	-8.362000E+00	  0.110981964	4.689100E+01	  0.110981964	6.845400E+01	  0.110981964	4.467600E+01
456	  0.111182362	-8.354000E+00	  0.111182362	4.616200E+01	  0.111182362	6.923900E+01	  0.111182362	4.470300E+01
457	  0.111382768	-8.349000E+00	  0.111382768	4.546300E+01	  0.111382768	7.000100E+01	  0.111382768	4.470100E+01
458	  0.111583166	-8.334000E+00	  0.111583166	4.476400E+01	  0.111583166	7.077600E+01	  0.111583166	4.475000E+01
459	  0.111783572	-8.332000E+00	  0.111783572	4.406600E+01	  0.111783572	7.155300E+01	  0.111783572	4.470000E+01
460	  0.111983970	-8.327000E+00	  0.111983970	4.332000E+01	  0.111983970	7.239400E+01	  0.111983970	4.464200E+01
461	  0.112184368	-8.327000E+00	  0.112184368	4.259000E+01	  0.112184368	7.322100E+01	  0.112184368	4.454000E+01
462	  0.112384774	-8.324000E+00	  0.112384774	4.188600E+01	  0.112384774	7.403000E+01	  0.112384774	4.445000E+01
463	  0.112585172	-8.326000E+00	  0.112585172	4.107100E+01	  0.112585172	7.496800E+01	  0.112585172	4.427800E+01
464	  0.112785570	-8.322000E+00	  0.112785570	4.033100E+01	  0.112785570	7.583400E+01	  0.112785570	4.414900E+01
465	  0.112985976	-8.326000E+00	  0.112985976	3.952800E+01	  0.112985976	7.677000E+01	  0.112985976	4.392800E+01
466	  0.113186374	-8.329000E+00	  0.113186374	3.869700E+01	  0.113186374	7.774700E+01	  0.113186374	4.367900E+01
467	  0.113386773	-8.330000E+00	  0.113386773	3.788300E+01	  0.113386773	7.871300E+01	  0.113386773	4.342500E+01
468	  0.113587178	-8.334000E+00	  0.113587178	3.699700E+01	  0.113587178	7.976500E+01	  0.113587178	4.310000E+01
469	  0.113787577	-8.346000E+00	  0.113787577	3.612500E+01	  0.113787577	8.078500E+01	  0.113787577	4.268500E+01
470	  0.113987975	-8.346000E+00	  0.113987975	3.523000E+01	  0.113987975	8.186400E+01	  0.113987975	4.232400E+01
471	  0.114188381	-8.349000E+00	  0.114188381	3.431300E+01	  0.114188381	8.296600E+01	  0.114188381	4.189700E+01
472	  0.114388779	-8.357000E+00	  0.114388779	3.335800E+01	  0.114388779	8.410100E+01	  0.114388779	4.137800E+01
473	  0.114589177	-8.365000E+00	  0.114589177	3.244200E+01	  0.114589177	8.518600E+01	  0.114589177	4.083600E+01
474	  0.114789583	-8.375000E+00	  0.114789583	3.146600E+01	  0.114789583	8.633400E+01	  0.114789583	4.021000E+01
475	  0.114989981	-8.383000E+00	  0.114989981	3.052700E+01	  0.114989981	8.743800E+01	  0.114989981	3.958100E+01
476	  0.115190387	-8.391000E+00	  0.115190387	2.945900E+01	  0.115190387	8.869000E+01	  0.115190387	3.882100E+01
477	  0.115390785	-8.407000E+00	  0.115390785	2.850300E+01	  0.115390785	8.975900E+01	  0.115390785	3.802900E+01
478	  0.115591183	-8.419000E+00	  0.115591183	2.747200E+01	  0.115591183	9.092300E+01	  0.115591183	3.717100E+01
479	  0.115791589	-8.429000E+00	  0.115791589	2.645600E+01	  0.115791589	9.206200E+01	  0.115791589	3.628900E+01
480	  0.115991987	-8.451000E+00	  0.115991987	2.543500E+01	  0.115991987	9.312200E+01	  0.115991987	3.526700E+01
481	  0.116192386	-8.470000E+00	  0.116192386	2.440500E+01	  0.116192386	9.418500E+01	  0.116192386	3.422000E+01
482	  0.116392791	-8.491000E+00	  0.116392791	2.334900E+01	  0.116392791	9.522700E+01	  0.116392791	3.307700E+01
483	  0.116593190	-8.513000E+00	  0.116593190	2.229400E+01	  0.116593190	9.623000E+01	  0.116593190	3.188800E+01
484	  0.116793588	-8.529000E+00	  0.116793588	2.128900E+01	  0.116793588	9.718400E+01	  0.116793588	3.074400E+01
485	  0.116993994	-8.559000E+00	  0.116993994	2.020400E+01	  0.116993994	9.808700E+01	  0.116993994	2.938500E+01
486	  0.117194392	-8.582000E+00	  0.117194392	1.915900E+01	  0.117194392	9.894800E+01	  0.117194392	2.806800E+01
487	  0.117394790	-8.617000E+00	  0.117394790	1.810500E+01	  0.117394790	9.968500E+01	  0.117394790	2.663500E+01
488	  0.117595196	-8.651000E+00	  0.117595196	1.701000E+01	  0.117595196	1.004020E+02	  0.117595196	2.512200E+01
489	  0.117795594	-8.684000E+00	  0.117795594	1.595000E+01	  0.117795594	1.010460E+02	  0.117795594	2.363400E+01
490	  0.117995992	-8.726000E+00	  0.117995992	1.486500E+01	  0.117995992	1.015740E+02	  0.117995992	2.203900E+01
491	  0.118196398	-8.766000E+00	  0.118196398	1.373700E+01	  0.118196398	1.020820E+02	  0.118196398	2.037900E+01
492	  0.118396796	-8.810000E+00	  0.118396796	1.262000E+01	  0.118396796	1.024750E+02	  0.118396796	1.869800E+01
493	  0.118597202	-8.856000E+00	  0.118597202	1.145400E+01	  0.118597202	1.028150E+02	  0.118597202	1.693500E+01
494	  0.118797600	-8.911000E+00	  0.118797600	1.031200E+01	  0.118797600	1.029740E+02	  0.118797600	1.516300E+01
