! Anritsu VNA Master:             	Model: MS2036C/10/77
! SN:             	1601066
! /bd0/18may10/256.ns.m9.txt
! Existing Calibration Information:
! TYPE:             	Current Settings	Active Cal Settings
! TIME:             	05/10/2018 11:19:05 AM	05/10/2018 11:07:23 AM
! INTERNAL TEMP:    	52.8 C	51.3 C
! # POINTS:         	494	494
! START FREQ:       	20.000 MHz	20.000 MHz
! STOP FREQ:        	118.797 594 MHz	118.797 594 MHz
! SOURCE POWER:     	High	High
! IFBW:             	50 Hz	50 Hz
! AVG FACTOR:       	  1 	  1 
! REF PLANE 1:      	0 mm	0 mm
! REF PLANE 2:      	0 mm	0 mm
! CAL TYPE:         	Full S22	Full S22
! CAL METHOD:       	SOLT	SOLT
! CAL LINE TYPE:    	Coax	Coax
! DUT PORT 1:       	K-Conn(M)	K-Conn(M)
! DUT PORT 2:       	K-Conn(M)	K-Conn(M)
! CAL STATUS:       	OK: Accuracy High	--
! PROP-V:       	0.700
! CABLE LOSS:       	0.000 dB/m
! REF IMPEDANCE:       	50.0
! Trace Specific Parameters:	TR1	TR2	TR3	TR4
! TRACE.#.Y (GRAPH TYPE)	LOG MAG	PHASE	REAL IMPEDANCE	IMAGINARY IMPEDANCE
! TRACE.#.X 	FREQ.GHZ	FREQ.GHZ	FREQ.GHZ	FREQ.GHZ
! S-PARAMETER	S22	S22	S22	S22
! SMOOTH/APERTURE %	0	0	0	0
! WINDOW	NSL	NSL	NSL	NSL
! GATING	OFF	OFF	OFF	OFF
! FGTD	OFF	OFF	OFF	OFF
Marker Information per Trace:	TR1	TR2	TR3	TR4
!MK1	--	"MK1 TR2:  20.000 MHz,PH:-126.86°"	--	--
!MK2	--	--	"MK2 TR3:  70.100 200 MHz,Z:(16.835 ohm, -1.507 ohm)"	--
!MK3	--	--	--	--
!MK4	--	--	--	--
!MK5	--	--	--	--
!MK6	--	--	--	--
!MK7	--	--	--	--
!MK8	--	--	--	--
PNT	TR1.FREQ.GHZ	TR1.LOG MAG.dB	TR2.FREQ.GHZ	TR2.PHASE.deg	TR3.FREQ.GHZ	TR3.REAL IMPEDANCE.ohm	TR4.FREQ.GHZ	TR4.IMAGINARY IMPEDANCE.ohm
1	  0.020000000	-6.060000E-01	  0.020000000	-1.268620E+02	  0.020000000	2.181000E+00	  0.020000000	-2.496500E+01
2	  0.020200402	-6.110000E-01	  0.020200402	-1.283160E+02	  0.020200402	2.170000E+00	  0.020200402	-2.417800E+01
3	  0.020400802	-6.170000E-01	  0.020400802	-1.298090E+02	  0.020400802	2.165000E+00	  0.020400802	-2.338000E+01
4	  0.020601204	-6.220000E-01	  0.020601204	-1.313150E+02	  0.020601204	2.156000E+00	  0.020601204	-2.258500E+01
5	  0.020801604	-6.260000E-01	  0.020801604	-1.328540E+02	  0.020801604	2.146000E+00	  0.020801604	-2.178200E+01
6	  0.021002004	-6.310000E-01	  0.021002004	-1.343980E+02	  0.021002004	2.137000E+00	  0.021002004	-2.098500E+01
7	  0.021202406	-6.360000E-01	  0.021202406	-1.359530E+02	  0.021202406	2.131000E+00	  0.021202406	-2.019300E+01
8	  0.021402806	-6.370000E-01	  0.021402806	-1.374940E+02	  0.021402806	2.110000E+00	  0.021402806	-1.941600E+01
9	  0.021603208	-6.440000E-01	  0.021603208	-1.390370E+02	  0.021603208	2.111000E+00	  0.021603208	-1.864600E+01
10	  0.021803608	-6.500000E-01	  0.021803608	-1.405840E+02	  0.021803608	2.109000E+00	  0.021803608	-1.788100E+01
11	  0.022004008	-6.550000E-01	  0.022004008	-1.421310E+02	  0.022004008	2.108000E+00	  0.022004008	-1.712400E+01
12	  0.022204408	-6.620000E-01	  0.022204408	-1.437140E+02	  0.022204408	2.111000E+00	  0.022204408	-1.635700E+01
13	  0.022404809	-6.680000E-01	  0.022404809	-1.453260E+02	  0.022404809	2.111000E+00	  0.022404809	-1.558300E+01
14	  0.022605211	-6.730000E-01	  0.022605211	-1.469260E+02	  0.022605211	2.109000E+00	  0.022605211	-1.482100E+01
15	  0.022805611	-6.850000E-01	  0.022805611	-1.485310E+02	  0.022805611	2.127000E+00	  0.022805611	-1.406200E+01
16	  0.023006011	-6.900000E-01	  0.023006011	-1.501280E+02	  0.023006011	2.128000E+00	  0.023006011	-1.331400E+01
17	  0.023206413	-6.940000E-01	  0.023206413	-1.517430E+02	  0.023206413	2.125000E+00	  0.023206413	-1.256300E+01
18	  0.023406813	-7.000000E-01	  0.023406813	-1.533450E+02	  0.023406813	2.126000E+00	  0.023406813	-1.182400E+01
19	  0.023607215	-7.090000E-01	  0.023607215	-1.549650E+02	  0.023607215	2.140000E+00	  0.023607215	-1.108000E+01
20	  0.023807615	-7.210000E-01	  0.023807615	-1.565940E+02	  0.023807615	2.163000E+00	  0.023807615	-1.033800E+01
21	  0.024008015	-7.310000E-01	  0.024008015	-1.582400E+02	  0.024008015	2.181000E+00	  0.024008015	-9.592000E+00
22	  0.024208417	-7.380000E-01	  0.024208417	-1.599120E+02	  0.024208417	2.191000E+00	  0.024208417	-8.839000E+00
23	  0.024408817	-7.470000E-01	  0.024408817	-1.615820E+02	  0.024408817	2.205000E+00	  0.024408817	-8.090000E+00
24	  0.024609219	-7.570000E-01	  0.024609219	-1.632590E+02	  0.024609219	2.225000E+00	  0.024609219	-7.342000E+00
25	  0.024809619	-7.680000E-01	  0.024809619	-1.649270E+02	  0.024809619	2.247000E+00	  0.024809619	-6.601000E+00
26	  0.025010020	-7.810000E-01	  0.025010020	-1.666100E+02	  0.025010020	2.279000E+00	  0.025010020	-5.856000E+00
27	  0.025210422	-7.930000E-01	  0.025210422	-1.682920E+02	  0.025210422	2.305000E+00	  0.025210422	-5.115000E+00
28	  0.025410822	-8.050000E-01	  0.025410822	-1.699940E+02	  0.025410822	2.334000E+00	  0.025410822	-4.367000E+00
29	  0.025611224	-8.200000E-01	  0.025611224	-1.717100E+02	  0.025611224	2.372000E+00	  0.025611224	-3.615000E+00
30	  0.025811624	-8.340000E-01	  0.025811624	-1.734360E+02	  0.025811624	2.408000E+00	  0.025811624	-2.860000E+00
31	  0.026012026	-8.480000E-01	  0.026012026	-1.751740E+02	  0.026012026	2.445000E+00	  0.026012026	-2.101000E+00
32	  0.026212426	-8.620000E-01	  0.026212426	-1.769290E+02	  0.026212426	2.482000E+00	  0.026212426	-1.336000E+00
33	  0.026412826	-8.790000E-01	  0.026412826	-1.786950E+02	  0.026412826	2.530000E+00	  0.026412826	-5.670000E-01
34	  0.026613226	-8.960000E-01	  0.026613226	1.795430E+02	  0.026613226	2.578000E+00	  0.026613226	1.980000E-01
35	  0.026813626	-9.140000E-01	  0.026813626	1.777500E+02	  0.026813626	2.631000E+00	  0.026813626	9.780000E-01
36	  0.027014028	-9.340000E-01	  0.027014028	1.759640E+02	  0.027014028	2.690000E+00	  0.027014028	1.756000E+00
37	  0.027214428	-9.530000E-01	  0.027214428	1.741680E+02	  0.027214428	2.747000E+00	  0.027214428	2.538000E+00
38	  0.027414829	-9.720000E-01	  0.027414829	1.723640E+02	  0.027414829	2.807000E+00	  0.027414829	3.326000E+00
39	  0.027615231	-9.920000E-01	  0.027615231	1.705360E+02	  0.027615231	2.872000E+00	  0.027615231	4.124000E+00
40	  0.027815631	-1.014000E+00	  0.027815631	1.687000E+02	  0.027815631	2.944000E+00	  0.027815631	4.929000E+00
41	  0.028016033	-1.034000E+00	  0.028016033	1.668550E+02	  0.028016033	3.013000E+00	  0.028016033	5.740000E+00
42	  0.028216433	-1.058000E+00	  0.028216433	1.649910E+02	  0.028216433	3.094000E+00	  0.028216433	6.561000E+00
43	  0.028416833	-1.082000E+00	  0.028416833	1.631330E+02	  0.028416833	3.178000E+00	  0.028416833	7.383000E+00
44	  0.028617235	-1.105000E+00	  0.028617235	1.612640E+02	  0.028617235	3.262000E+00	  0.028617235	8.214000E+00
45	  0.028817635	-1.128000E+00	  0.028817635	1.593950E+02	  0.028817635	3.351000E+00	  0.028817635	9.048000E+00
46	  0.029018037	-1.154000E+00	  0.029018037	1.575210E+02	  0.029018037	3.449000E+00	  0.029018037	9.890000E+00
47	  0.029218437	-1.181000E+00	  0.029218437	1.556390E+02	  0.029218437	3.553000E+00	  0.029218437	1.074000E+01
48	  0.029418837	-1.210000E+00	  0.029418837	1.537280E+02	  0.029418837	3.665000E+00	  0.029418837	1.160800E+01
49	  0.029619239	-1.238000E+00	  0.029619239	1.518270E+02	  0.029619239	3.781000E+00	  0.029619239	1.247900E+01
50	  0.029819639	-1.266000E+00	  0.029819639	1.499190E+02	  0.029819639	3.901000E+00	  0.029819639	1.335800E+01
51	  0.030020041	-1.295000E+00	  0.030020041	1.480020E+02	  0.030020041	4.026000E+00	  0.030020041	1.425000E+01
52	  0.030220442	-1.324000E+00	  0.030220442	1.460860E+02	  0.030220442	4.155000E+00	  0.030220442	1.514800E+01
53	  0.030420844	-1.355000E+00	  0.030420844	1.441870E+02	  0.030420844	4.296000E+00	  0.030420844	1.604700E+01
54	  0.030621244	-1.388000E+00	  0.030621244	1.422800E+02	  0.030621244	4.450000E+00	  0.030621244	1.695800E+01
55	  0.030821642	-1.422000E+00	  0.030821642	1.403580E+02	  0.030821642	4.611000E+00	  0.030821642	1.788500E+01
56	  0.031022044	-1.457000E+00	  0.031022044	1.384120E+02	  0.031022044	4.782000E+00	  0.031022044	1.883400E+01
57	  0.031222444	-1.488000E+00	  0.031222444	1.364770E+02	  0.031222444	4.949000E+00	  0.031222444	1.979000E+01
58	  0.031422846	-1.524000E+00	  0.031422846	1.345150E+02	  0.031422846	5.139000E+00	  0.031422846	2.077000E+01
59	  0.031623244	-1.561000E+00	  0.031623244	1.325510E+02	  0.031623244	5.339000E+00	  0.031623244	2.176300E+01
60	  0.031823646	-1.599000E+00	  0.031823646	1.305850E+02	  0.031823646	5.553000E+00	  0.031823646	2.277000E+01
61	  0.032024048	-1.636000E+00	  0.032024048	1.286110E+02	  0.032024048	5.773000E+00	  0.032024048	2.379500E+01
62	  0.032224450	-1.676000E+00	  0.032224450	1.266230E+02	  0.032224450	6.011000E+00	  0.032224450	2.484300E+01
63	  0.032424849	-1.715000E+00	  0.032424849	1.246400E+02	  0.032424849	6.260000E+00	  0.032424849	2.590400E+01
64	  0.032625251	-1.758000E+00	  0.032625251	1.226240E+02	  0.032625251	6.533000E+00	  0.032625251	2.699900E+01
65	  0.032825653	-1.799000E+00	  0.032825653	1.205930E+02	  0.032825653	6.817000E+00	  0.032825653	2.812200E+01
66	  0.033026051	-1.838000E+00	  0.033026051	1.185540E+02	  0.033026051	7.106000E+00	  0.033026051	2.926900E+01
67	  0.033226453	-1.879000E+00	  0.033226453	1.165120E+02	  0.033226453	7.419000E+00	  0.033226453	3.043800E+01
68	  0.033426855	-1.924000E+00	  0.033426855	1.144750E+02	  0.033426855	7.762000E+00	  0.033426855	3.162500E+01
69	  0.033627257	-1.967000E+00	  0.033627257	1.124320E+02	  0.033627257	8.116000E+00	  0.033627257	3.283900E+01
70	  0.033827655	-2.012000E+00	  0.033827655	1.103930E+02	  0.033827655	8.497000E+00	  0.033827655	3.407400E+01
71	  0.034028057	-2.056000E+00	  0.034028057	1.083410E+02	  0.034028057	8.899000E+00	  0.034028057	3.534200E+01
72	  0.034228459	-2.103000E+00	  0.034228459	1.062550E+02	  0.034228459	9.338000E+00	  0.034228459	3.665900E+01
73	  0.034428857	-2.151000E+00	  0.034428857	1.041810E+02	  0.034428857	9.808000E+00	  0.034428857	3.799500E+01
74	  0.034629259	-2.199000E+00	  0.034629259	1.020740E+02	  0.034629259	1.031000E+01	  0.034629259	3.938500E+01
75	  0.034829661	-2.247000E+00	  0.034829661	9.997400E+01	  0.034829661	1.083800E+01	  0.034829661	4.080300E+01
76	  0.035030060	-2.299000E+00	  0.035030060	9.788500E+01	  0.035030060	1.142200E+01	  0.035030060	4.224200E+01
77	  0.035230462	-2.351000E+00	  0.035230462	9.578900E+01	  0.035230462	1.204500E+01	  0.035230462	4.372200E+01
78	  0.035430863	-2.403000E+00	  0.035430863	9.371300E+01	  0.035430863	1.270000E+01	  0.035430863	4.522300E+01
79	  0.035631265	-2.455000E+00	  0.035631265	9.161200E+01	  0.035631265	1.340800E+01	  0.035631265	4.678100E+01
80	  0.035831664	-2.506000E+00	  0.035831664	8.952600E+01	  0.035831664	1.415200E+01	  0.035831664	4.837000E+01
81	  0.036032066	-2.562000E+00	  0.036032066	8.741300E+01	  0.036032066	1.498400E+01	  0.036032066	5.001400E+01
82	  0.036232468	-2.615000E+00	  0.036232468	8.535200E+01	  0.036232468	1.584300E+01	  0.036232468	5.166100E+01
83	  0.036432866	-2.667000E+00	  0.036432866	8.326000E+01	  0.036432866	1.677000E+01	  0.036432866	5.338000E+01
84	  0.036633268	-2.722000E+00	  0.036633268	8.118000E+01	  0.036633268	1.777400E+01	  0.036633268	5.513000E+01
85	  0.036833670	-2.780000E+00	  0.036833670	7.909400E+01	  0.036833670	1.887700E+01	  0.036833670	5.692300E+01
86	  0.037034072	-2.835000E+00	  0.037034072	7.700900E+01	  0.037034072	2.004100E+01	  0.037034072	5.877100E+01
87	  0.037234470	-2.893000E+00	  0.037234470	7.491800E+01	  0.037234470	2.131800E+01	  0.037234470	6.066500E+01
88	  0.037434869	-2.951000E+00	  0.037434869	7.281300E+01	  0.037434869	2.270400E+01	  0.037434869	6.262000E+01
89	  0.037635271	-3.017000E+00	  0.037635271	7.070900E+01	  0.037635271	2.425400E+01	  0.037635271	6.459500E+01
90	  0.037835669	-3.095000E+00	  0.037835669	6.866000E+01	  0.037835669	2.598900E+01	  0.037835669	6.650300E+01
91	  0.038036071	-3.162000E+00	  0.038036071	6.667300E+01	  0.038036071	2.773600E+01	  0.038036071	6.841800E+01
92	  0.038236473	-3.219000E+00	  0.038236473	6.469100E+01	  0.038236473	2.953200E+01	  0.038236473	7.040800E+01
93	  0.038436871	-3.271000E+00	  0.038436871	6.267600E+01	  0.038436871	3.146900E+01	  0.038436871	7.249200E+01
94	  0.038637273	-3.326000E+00	  0.038637273	6.063200E+01	  0.038637273	3.360700E+01	  0.038637273	7.463500E+01
95	  0.038837675	-3.380000E+00	  0.038837675	5.857900E+01	  0.038837675	3.593300E+01	  0.038837675	7.682400E+01
96	  0.039038073	-3.429000E+00	  0.039038073	5.656100E+01	  0.039038073	3.837400E+01	  0.039038073	7.903300E+01
97	  0.039238475	-3.487000E+00	  0.039238475	5.449000E+01	  0.039238475	4.116400E+01	  0.039238475	8.126600E+01
98	  0.039438877	-3.538000E+00	  0.039438877	5.248200E+01	  0.039438877	4.406800E+01	  0.039438877	8.346600E+01
99	  0.039639279	-3.593000E+00	  0.039639279	5.043200E+01	  0.039639279	4.730900E+01	  0.039639279	8.568600E+01
100	  0.039839678	-3.646000E+00	  0.039839678	4.837600E+01	  0.039839678	5.083000E+01	  0.039839678	8.790500E+01
101	  0.040040080	-3.696000E+00	  0.040040080	4.632200E+01	  0.040040080	5.463800E+01	  0.040040080	9.009900E+01
102	  0.040240481	-3.749000E+00	  0.040240481	4.426800E+01	  0.040240481	5.880400E+01	  0.040240481	9.219700E+01
103	  0.040440880	-3.797000E+00	  0.040440880	4.222500E+01	  0.040440880	6.327700E+01	  0.040440880	9.422300E+01
104	  0.040641282	-3.847000E+00	  0.040641282	4.019800E+01	  0.040641282	6.811200E+01	  0.040641282	9.607500E+01
105	  0.040841684	-3.899000E+00	  0.040841684	3.817200E+01	  0.040841684	7.337200E+01	  0.040841684	9.768200E+01
106	  0.041042086	-3.949000E+00	  0.041042086	3.615200E+01	  0.041042086	7.902000E+01	  0.041042086	9.908200E+01
107	  0.041242484	-4.000000E+00	  0.041242484	3.409800E+01	  0.041242484	8.522400E+01	  0.041242484	1.001440E+02
108	  0.041442886	-4.045000E+00	  0.041442886	3.207000E+01	  0.041442886	9.176800E+01	  0.041442886	1.009210E+02
109	  0.041643288	-4.094000E+00	  0.041643288	3.002200E+01	  0.041643288	9.885700E+01	  0.041643288	1.011360E+02
110	  0.041843686	-4.138000E+00	  0.041843686	2.797500E+01	  0.041843686	1.063760E+02	  0.041843686	1.008590E+02
111	  0.042044088	-4.185000E+00	  0.042044088	2.594700E+01	  0.042044088	1.142340E+02	  0.042044088	9.982400E+01
112	  0.042244490	-4.230000E+00	  0.042244490	2.392300E+01	  0.042244490	1.224160E+02	  0.042244490	9.799300E+01
113	  0.042444889	-4.275000E+00	  0.042444889	2.190800E+01	  0.042444889	1.308120E+02	  0.042444889	9.526900E+01
114	  0.042645290	-4.319000E+00	  0.042645290	1.989400E+01	  0.042645290	1.393310E+02	  0.042645290	9.151300E+01
115	  0.042845692	-4.363000E+00	  0.042845692	1.788000E+01	  0.042845692	1.478280E+02	  0.042845692	8.666500E+01
116	  0.043046094	-4.405000E+00	  0.043046094	1.588800E+01	  0.043046094	1.560040E+02	  0.043046094	8.069500E+01
117	  0.043246493	-4.450000E+00	  0.043246493	1.386000E+01	  0.043246493	1.638480E+02	  0.043246493	7.334400E+01
118	  0.043446895	-4.489000E+00	  0.043446895	1.187700E+01	  0.043446895	1.709530E+02	  0.043446895	6.513200E+01
119	  0.043647297	-4.528000E+00	  0.043647297	9.872000E+00	  0.043647297	1.772600E+02	  0.043647297	5.574000E+01
120	  0.043847695	-4.571000E+00	  0.043847695	7.890000E+00	  0.043847695	1.821820E+02	  0.043847695	4.539300E+01
121	  0.044048097	-4.611000E+00	  0.044048097	5.916000E+00	  0.044048097	1.858850E+02	  0.044048097	3.444400E+01
122	  0.044248499	-4.650000E+00	  0.044248499	3.958000E+00	  0.044248499	1.881650E+02	  0.044248499	2.314100E+01
123	  0.044448901	-4.688000E+00	  0.044448901	1.993000E+00	  0.044448901	1.889790E+02	  0.044448901	1.160600E+01
124	  0.044649299	-4.729000E+00	  0.044649299	4.000000E-02	  0.044649299	1.881600E+02	  0.044649299	2.350000E-01
125	  0.044849701	-4.769000E+00	  0.044849701	-1.902000E+00	  0.044849701	1.860180E+02	  0.044849701	-1.070400E+01
126	  0.045050103	-4.807000E+00	  0.045050103	-3.834000E+00	  0.045050103	1.826470E+02	  0.045050103	-2.097600E+01
127	  0.045250501	-4.845000E+00	  0.045250501	-5.772000E+00	  0.045250501	1.782300E+02	  0.045250501	-3.052500E+01
128	  0.045450903	-4.882000E+00	  0.045450903	-7.673000E+00	  0.045450903	1.730160E+02	  0.045450903	-3.901700E+01
129	  0.045651305	-4.917000E+00	  0.045651305	-9.619000E+00	  0.045651305	1.670620E+02	  0.045651305	-4.677600E+01
130	  0.045851704	-4.951000E+00	  0.045851704	-1.151800E+01	  0.045851704	1.607540E+02	  0.045851704	-5.337200E+01
131	  0.046052102	-4.985000E+00	  0.046052102	-1.341200E+01	  0.046052102	1.541390E+02	  0.046052102	-5.899600E+01
132	  0.046252504	-5.022000E+00	  0.046252504	-1.528400E+01	  0.046252504	1.474010E+02	  0.046252504	-6.359500E+01
133	  0.046452906	-5.057000E+00	  0.046452906	-1.715100E+01	  0.046452906	1.406900E+02	  0.046452906	-6.738900E+01
134	  0.046653304	-5.093000E+00	  0.046653304	-1.903900E+01	  0.046653304	1.339600E+02	  0.046653304	-7.040900E+01
135	  0.046853706	-5.128000E+00	  0.046853706	-2.088700E+01	  0.046853706	1.275410E+02	  0.046853706	-7.271100E+01
136	  0.047054108	-5.164000E+00	  0.047054108	-2.274300E+01	  0.047054108	1.212950E+02	  0.047054108	-7.439900E+01
137	  0.047254506	-5.202000E+00	  0.047254506	-2.459400E+01	  0.047254506	1.153110E+02	  0.047254506	-7.553000E+01
138	  0.047454908	-5.236000E+00	  0.047454908	-2.641800E+01	  0.047454908	1.097020E+02	  0.047454908	-7.626000E+01
139	  0.047655310	-5.269000E+00	  0.047655310	-2.820800E+01	  0.047655310	1.044660E+02	  0.047655310	-7.660000E+01
140	  0.047855709	-5.303000E+00	  0.047855709	-2.999900E+01	  0.047855709	9.950200E+01	  0.047855709	-7.662500E+01
141	  0.048056111	-5.338000E+00	  0.048056111	-3.176800E+01	  0.048056111	9.486700E+01	  0.048056111	-7.637200E+01
142	  0.048256513	-5.369000E+00	  0.048256513	-3.354700E+01	  0.048256513	9.047600E+01	  0.048256513	-7.594200E+01
143	  0.048456915	-5.399000E+00	  0.048456915	-3.531000E+01	  0.048456915	8.637200E+01	  0.048456915	-7.536600E+01
144	  0.048657313	-5.427000E+00	  0.048657313	-3.708800E+01	  0.048657313	8.247400E+01	  0.048657313	-7.463900E+01
145	  0.048857715	-5.457000E+00	  0.048857715	-3.883200E+01	  0.048857715	7.888400E+01	  0.048857715	-7.376500E+01
146	  0.049058117	-5.484000E+00	  0.049058117	-4.059500E+01	  0.049058117	7.546000E+01	  0.049058117	-7.283000E+01
147	  0.049258515	-5.509000E+00	  0.049258515	-4.233600E+01	  0.049258515	7.228000E+01	  0.049258515	-7.182600E+01
148	  0.049458917	-5.540000E+00	  0.049458917	-4.403000E+01	  0.049458917	6.938700E+01	  0.049458917	-7.070900E+01
149	  0.049659319	-5.566000E+00	  0.049659319	-4.574000E+01	  0.049659319	6.662100E+01	  0.049659319	-6.959400E+01
150	  0.049859721	-5.593000E+00	  0.049859721	-4.745100E+01	  0.049859721	6.402300E+01	  0.049859721	-6.841700E+01
151	  0.050060119	-5.617000E+00	  0.050060119	-4.913800E+01	  0.050060119	6.160200E+01	  0.050060119	-6.724900E+01
152	  0.050260521	-5.640000E+00	  0.050260521	-5.081300E+01	  0.050260521	5.933100E+01	  0.050260521	-6.607900E+01
153	  0.050460923	-5.662000E+00	  0.050460923	-5.252200E+01	  0.050460923	5.714500E+01	  0.050460923	-6.486700E+01
154	  0.050661322	-5.683000E+00	  0.050661322	-5.419000E+01	  0.050661322	5.512600E+01	  0.050661322	-6.368400E+01
155	  0.050861724	-5.700000E+00	  0.050861724	-5.583000E+01	  0.050861724	5.323800E+01	  0.050861724	-6.253500E+01
156	  0.051062126	-5.721000E+00	  0.051062126	-5.747400E+01	  0.051062126	5.146700E+01	  0.051062126	-6.134200E+01
157	  0.051262524	-5.739000E+00	  0.051262524	-5.909400E+01	  0.051262524	4.980200E+01	  0.051262524	-6.018800E+01
158	  0.051462926	-5.762000E+00	  0.051462926	-6.070700E+01	  0.051462926	4.825300E+01	  0.051462926	-5.900900E+01
159	  0.051663328	-5.776000E+00	  0.051663328	-6.230800E+01	  0.051663328	4.676100E+01	  0.051663328	-5.789500E+01
160	  0.051863730	-5.795000E+00	  0.051863730	-6.391400E+01	  0.051863730	4.536300E+01	  0.051863730	-5.675000E+01
161	  0.052064128	-5.804000E+00	  0.052064128	-6.548900E+01	  0.052064128	4.401800E+01	  0.052064128	-5.569300E+01
162	  0.052264530	-5.817000E+00	  0.052264530	-6.707900E+01	  0.052264530	4.274400E+01	  0.052264530	-5.460500E+01
163	  0.052464932	-5.831000E+00	  0.052464932	-6.860400E+01	  0.052464932	4.159100E+01	  0.052464932	-5.355900E+01
164	  0.052665330	-5.845000E+00	  0.052665330	-7.015200E+01	  0.052665330	4.047300E+01	  0.052665330	-5.251000E+01
165	  0.052865732	-5.860000E+00	  0.052865732	-7.167700E+01	  0.052865732	3.942700E+01	  0.052865732	-5.148000E+01
166	  0.053066134	-5.875000E+00	  0.053066134	-7.320100E+01	  0.053066134	3.843700E+01	  0.053066134	-5.045500E+01
167	  0.053266536	-5.887000E+00	  0.053266536	-7.468800E+01	  0.053266536	3.750100E+01	  0.053266536	-4.948000E+01
168	  0.053466935	-5.903000E+00	  0.053466935	-7.618300E+01	  0.053466935	3.661700E+01	  0.053466935	-4.849500E+01
169	  0.053667337	-5.915000E+00	  0.053667337	-7.768100E+01	  0.053667337	3.575600E+01	  0.053667337	-4.753400E+01
170	  0.053867739	-5.924000E+00	  0.053867739	-7.916200E+01	  0.053867739	3.493300E+01	  0.053867739	-4.660300E+01
171	  0.054068137	-5.935000E+00	  0.054068137	-8.063800E+01	  0.054068137	3.415600E+01	  0.054068137	-4.567600E+01
172	  0.054268539	-5.946000E+00	  0.054268539	-8.207000E+01	  0.054268539	3.343300E+01	  0.054268539	-4.478800E+01
173	  0.054468941	-5.957000E+00	  0.054468941	-8.351800E+01	  0.054468941	3.273400E+01	  0.054468941	-4.389900E+01
174	  0.054669335	-5.971000E+00	  0.054669335	-8.492800E+01	  0.054669335	3.209500E+01	  0.054669335	-4.303200E+01
175	  0.054869737	-5.982000E+00	  0.054869737	-8.635000E+01	  0.054869737	3.146400E+01	  0.054869737	-4.217800E+01
176	  0.055070139	-5.997000E+00	  0.055070139	-8.777800E+01	  0.055070139	3.087500E+01	  0.055070139	-4.131500E+01
177	  0.055270538	-6.007000E+00	  0.055270538	-8.916800E+01	  0.055270538	3.030400E+01	  0.055270538	-4.050200E+01
178	  0.055470940	-6.017000E+00	  0.055470940	-9.057100E+01	  0.055470940	2.975000E+01	  0.055470940	-3.969000E+01
179	  0.055671342	-6.026000E+00	  0.055671342	-9.197500E+01	  0.055671342	2.921700E+01	  0.055671342	-3.888700E+01
180	  0.055871744	-6.032000E+00	  0.055871744	-9.337300E+01	  0.055871744	2.869500E+01	  0.055871744	-3.810400E+01
181	  0.056072142	-6.042000E+00	  0.056072142	-9.476700E+01	  0.056072142	2.820800E+01	  0.056072142	-3.732200E+01
182	  0.056272544	-6.051000E+00	  0.056272544	-9.612700E+01	  0.056272544	2.774700E+01	  0.056272544	-3.657100E+01
183	  0.056472946	-6.062000E+00	  0.056472946	-9.750000E+01	  0.056472946	2.731100E+01	  0.056472946	-3.581200E+01
184	  0.056673344	-6.069000E+00	  0.056673344	-9.884500E+01	  0.056673344	2.688500E+01	  0.056673344	-3.508700E+01
185	  0.056873746	-6.078000E+00	  0.056873746	-1.001900E+02	  0.056873746	2.648100E+01	  0.056873746	-3.436500E+01
186	  0.057074148	-6.085000E+00	  0.057074148	-1.015720E+02	  0.057074148	2.607100E+01	  0.057074148	-3.363700E+01
187	  0.057274550	-6.089000E+00	  0.057274550	-1.029200E+02	  0.057274550	2.567900E+01	  0.057274550	-3.293700E+01
188	  0.057474948	-6.095000E+00	  0.057474948	-1.042770E+02	  0.057474948	2.530800E+01	  0.057474948	-3.223500E+01
189	  0.057675350	-6.100000E+00	  0.057675350	-1.055960E+02	  0.057675350	2.495500E+01	  0.057675350	-3.156200E+01
190	  0.057875752	-6.104000E+00	  0.057875752	-1.069310E+02	  0.057875752	2.460700E+01	  0.057875752	-3.088800E+01
191	  0.058076151	-6.108000E+00	  0.058076151	-1.082370E+02	  0.058076151	2.427800E+01	  0.058076151	-3.023600E+01
192	  0.058276553	-6.111000E+00	  0.058276553	-1.095390E+02	  0.058276553	2.396200E+01	  0.058276553	-2.959100E+01
193	  0.058476955	-6.116000E+00	  0.058476955	-1.108360E+02	  0.058476955	2.366100E+01	  0.058476955	-2.895200E+01
194	  0.058677353	-6.117000E+00	  0.058677353	-1.121490E+02	  0.058677353	2.335800E+01	  0.058677353	-2.831500E+01
195	  0.058877755	-6.119000E+00	  0.058877755	-1.134350E+02	  0.058877755	2.307100E+01	  0.058877755	-2.769600E+01
196	  0.059078157	-6.115000E+00	  0.059078157	-1.146900E+02	  0.059078157	2.278200E+01	  0.059078157	-2.710600E+01
197	  0.059278559	-6.116000E+00	  0.059278559	-1.159710E+02	  0.059278559	2.251600E+01	  0.059278559	-2.649800E+01
198	  0.059478957	-6.116000E+00	  0.059478957	-1.172350E+02	  0.059478957	2.225700E+01	  0.059478957	-2.590600E+01
199	  0.059679359	-6.117000E+00	  0.059679359	-1.184760E+02	  0.059679359	2.201400E+01	  0.059679359	-2.532800E+01
200	  0.059879761	-6.120000E+00	  0.059879761	-1.196940E+02	  0.059879761	2.179000E+01	  0.059879761	-2.476100E+01
201	  0.060080159	-6.118000E+00	  0.060080159	-1.209270E+02	  0.060080159	2.155400E+01	  0.060080159	-2.419800E+01
202	  0.060280561	-6.120000E+00	  0.060280561	-1.221320E+02	  0.060280561	2.134400E+01	  0.060280561	-2.364600E+01
203	  0.060480963	-6.121000E+00	  0.060480963	-1.233480E+02	  0.060480963	2.113800E+01	  0.060480963	-2.309400E+01
204	  0.060681365	-6.120000E+00	  0.060681365	-1.245480E+02	  0.060681365	2.093400E+01	  0.060681365	-2.255500E+01
205	  0.060881764	-6.116000E+00	  0.060881764	-1.257570E+02	  0.060881764	2.072500E+01	  0.060881764	-2.201900E+01
206	  0.061082166	-6.114000E+00	  0.061082166	-1.269480E+02	  0.061082166	2.053400E+01	  0.061082166	-2.149100E+01
207	  0.061282568	-6.116000E+00	  0.061282568	-1.281440E+02	  0.061282568	2.035900E+01	  0.061282568	-2.096000E+01
208	  0.061482966	-6.117000E+00	  0.061482966	-1.293000E+02	  0.061482966	2.019200E+01	  0.061482966	-2.045100E+01
209	  0.061683368	-6.116000E+00	  0.061683368	-1.304670E+02	  0.061683368	2.002200E+01	  0.061683368	-1.994300E+01
210	  0.061883770	-6.118000E+00	  0.061883770	-1.316340E+02	  0.061883770	1.987000E+01	  0.061883770	-1.943300E+01
211	  0.062084168	-6.118000E+00	  0.062084168	-1.327700E+02	  0.062084168	1.971900E+01	  0.062084168	-1.894200E+01
212	  0.062284570	-6.115000E+00	  0.062284570	-1.339280E+02	  0.062284570	1.956100E+01	  0.062284570	-1.844700E+01
213	  0.062484972	-6.111000E+00	  0.062484972	-1.350570E+02	  0.062484972	1.941100E+01	  0.062484972	-1.796700E+01
214	  0.062685370	-6.111000E+00	  0.062685370	-1.362420E+02	  0.062685370	1.926800E+01	  0.062685370	-1.746300E+01
215	  0.062885776	-6.111000E+00	  0.062885776	-1.373520E+02	  0.062885776	1.914000E+01	  0.062885776	-1.699200E+01
216	  0.063086174	-6.113000E+00	  0.063086174	-1.384950E+02	  0.063086174	1.901800E+01	  0.063086174	-1.650900E+01
217	  0.063286573	-6.113000E+00	  0.063286573	-1.396400E+02	  0.063286573	1.889500E+01	  0.063286573	-1.602800E+01
218	  0.063486971	-6.109000E+00	  0.063486971	-1.407830E+02	  0.063486971	1.876700E+01	  0.063486971	-1.555300E+01
219	  0.063687377	-6.112000E+00	  0.063687377	-1.418580E+02	  0.063687377	1.866600E+01	  0.063687377	-1.510300E+01
220	  0.063887775	-6.109000E+00	  0.063887775	-1.429750E+02	  0.063887775	1.854900E+01	  0.063887775	-1.464300E+01
221	  0.064088173	-6.110000E+00	  0.064088173	-1.441370E+02	  0.064088173	1.844300E+01	  0.064088173	-1.416300E+01
222	  0.064288579	-6.109000E+00	  0.064288579	-1.452800E+02	  0.064288579	1.834000E+01	  0.064288579	-1.369300E+01
223	  0.064488977	-6.111000E+00	  0.064488977	-1.463940E+02	  0.064488977	1.824900E+01	  0.064488977	-1.323500E+01
224	  0.064689375	-6.112000E+00	  0.064689375	-1.475130E+02	  0.064689375	1.815900E+01	  0.064689375	-1.277800E+01
225	  0.064889781	-6.111000E+00	  0.064889781	-1.486260E+02	  0.064889781	1.806800E+01	  0.064889781	-1.232700E+01
226	  0.065090179	-6.112000E+00	  0.065090179	-1.497060E+02	  0.065090179	1.799000E+01	  0.065090179	-1.188800E+01
227	  0.065290578	-6.112000E+00	  0.065290578	-1.508170E+02	  0.065290578	1.790900E+01	  0.065290578	-1.143900E+01
228	  0.065490983	-6.107000E+00	  0.065490983	-1.519200E+02	  0.065490983	1.781600E+01	  0.065490983	-1.099800E+01
229	  0.065691382	-6.108000E+00	  0.065691382	-1.530350E+02	  0.065691382	1.774600E+01	  0.065691382	-1.055000E+01
230	  0.065891780	-6.108000E+00	  0.065891780	-1.541540E+02	  0.065891780	1.767200E+01	  0.065891780	-1.010200E+01
231	  0.066092186	-6.105000E+00	  0.066092186	-1.552310E+02	  0.066092186	1.760000E+01	  0.066092186	-9.673000E+00
232	  0.066292584	-6.100000E+00	  0.066292584	-1.563270E+02	  0.066292584	1.752300E+01	  0.066292584	-9.239000E+00
233	  0.066492982	-6.101000E+00	  0.066492982	-1.574000E+02	  0.066492982	1.746700E+01	  0.066492982	-8.812000E+00
234	  0.066693388	-6.097000E+00	  0.066693388	-1.584830E+02	  0.066693388	1.740100E+01	  0.066693388	-8.384000E+00
235	  0.066893786	-6.094000E+00	  0.066893786	-1.595100E+02	  0.066893786	1.734100E+01	  0.066893786	-7.980000E+00
236	  0.067094192	-6.095000E+00	  0.067094192	-1.606260E+02	  0.067094192	1.729200E+01	  0.067094192	-7.539000E+00
237	  0.067294590	-6.095000E+00	  0.067294590	-1.616580E+02	  0.067294590	1.724500E+01	  0.067294590	-7.133000E+00
238	  0.067494988	-6.091000E+00	  0.067494988	-1.627210E+02	  0.067494988	1.719100E+01	  0.067494988	-6.716000E+00
239	  0.067695394	-6.088000E+00	  0.067695394	-1.637750E+02	  0.067695394	1.714200E+01	  0.067695394	-6.304000E+00
240	  0.067895792	-6.090000E+00	  0.067895792	-1.648230E+02	  0.067895792	1.711100E+01	  0.067895792	-5.892000E+00
241	  0.068096191	-6.088000E+00	  0.068096191	-1.659080E+02	  0.068096191	1.706800E+01	  0.068096191	-5.469000E+00
242	  0.068296596	-6.083000E+00	  0.068296596	-1.669410E+02	  0.068296596	1.702200E+01	  0.068296596	-5.066000E+00
243	  0.068496995	-6.089000E+00	  0.068496995	-1.679610E+02	  0.068496995	1.700700E+01	  0.068496995	-4.667000E+00
244	  0.068697393	-6.082000E+00	  0.068697393	-1.689910E+02	  0.068697393	1.696400E+01	  0.068697393	-4.268000E+00
245	  0.068897791	-6.081000E+00	  0.068897791	-1.700190E+02	  0.068897791	1.693600E+01	  0.068897791	-3.868000E+00
246	  0.069098189	-6.080000E+00	  0.069098189	-1.710390E+02	  0.069098189	1.691100E+01	  0.069098189	-3.472000E+00
247	  0.069298595	-6.078000E+00	  0.069298595	-1.720590E+02	  0.069298595	1.688500E+01	  0.069298595	-3.076000E+00
248	  0.069498993	-6.077000E+00	  0.069498993	-1.731080E+02	  0.069498993	1.686600E+01	  0.069498993	-2.669000E+00
249	  0.069699399	-6.078000E+00	  0.069699399	-1.741090E+02	  0.069699399	1.685300E+01	  0.069699399	-2.280000E+00
250	  0.069899797	-6.079000E+00	  0.069899797	-1.751160E+02	  0.069899797	1.684300E+01	  0.069899797	-1.890000E+00
251	  0.070100196	-6.079000E+00	  0.070100196	-1.761060E+02	  0.070100196	1.683500E+01	  0.070100196	-1.506000E+00
252	  0.070300601	-6.081000E+00	  0.070300601	-1.771180E+02	  0.070300601	1.683100E+01	  0.070300601	-1.115000E+00
253	  0.070501000	-6.081000E+00	  0.070501000	-1.781190E+02	  0.070501000	1.682700E+01	  0.070501000	-7.270000E-01
254	  0.070701398	-6.079000E+00	  0.070701398	-1.791230E+02	  0.070701398	1.681700E+01	  0.070701398	-3.390000E-01
255	  0.070901804	-6.082000E+00	  0.070901804	1.798850E+02	  0.070901804	1.682500E+01	  0.070901804	4.400000E-02
256	  0.071102202	-6.082000E+00	  0.071102202	1.788940E+02	  0.071102202	1.682600E+01	  0.071102202	4.270000E-01
257	  0.071302600	-6.088000E+00	  0.071302600	1.778950E+02	  0.071302600	1.684500E+01	  0.071302600	8.140000E-01
258	  0.071503006	-6.094000E+00	  0.071503006	1.768870E+02	  0.071503006	1.686700E+01	  0.071503006	1.203000E+00
259	  0.071703404	-6.096000E+00	  0.071703404	1.759260E+02	  0.071703404	1.687800E+01	  0.071703404	1.575000E+00
260	  0.071903802	-6.100000E+00	  0.071903802	1.749270E+02	  0.071903802	1.689800E+01	  0.071903802	1.962000E+00
261	  0.072104208	-6.102000E+00	  0.072104208	1.739360E+02	  0.072104208	1.691700E+01	  0.072104208	2.345000E+00
262	  0.072304606	-6.104000E+00	  0.072304606	1.729660E+02	  0.072304606	1.693800E+01	  0.072304606	2.721000E+00
263	  0.072505005	-6.109000E+00	  0.072505005	1.719950E+02	  0.072505005	1.696700E+01	  0.072505005	3.097000E+00
264	  0.072705410	-6.112000E+00	  0.072705410	1.710030E+02	  0.072705410	1.699300E+01	  0.072705410	3.481000E+00
265	  0.072905809	-6.117000E+00	  0.072905809	1.700220E+02	  0.072905809	1.702700E+01	  0.072905809	3.861000E+00
266	  0.073106214	-6.125000E+00	  0.073106214	1.690520E+02	  0.073106214	1.707200E+01	  0.073106214	4.237000E+00
267	  0.073306613	-6.132000E+00	  0.073306613	1.680690E+02	  0.073306613	1.711500E+01	  0.073306613	4.618000E+00
268	  0.073507011	-6.138000E+00	  0.073507011	1.671120E+02	  0.073507011	1.715900E+01	  0.073507011	4.989000E+00
269	  0.073707417	-6.145000E+00	  0.073707417	1.661310E+02	  0.073707417	1.720700E+01	  0.073707417	5.370000E+00
270	  0.073907815	-6.151000E+00	  0.073907815	1.651820E+02	  0.073907815	1.725500E+01	  0.073907815	5.738000E+00
271	  0.074108213	-6.157000E+00	  0.074108213	1.642170E+02	  0.074108213	1.730400E+01	  0.074108213	6.113000E+00
272	  0.074308619	-6.168000E+00	  0.074308619	1.632580E+02	  0.074308619	1.737000E+01	  0.074308619	6.485000E+00
273	  0.074509017	-6.173000E+00	  0.074509017	1.622800E+02	  0.074509017	1.742100E+01	  0.074509017	6.867000E+00
274	  0.074709415	-6.179000E+00	  0.074709415	1.613460E+02	  0.074709415	1.747800E+01	  0.074709415	7.231000E+00
275	  0.074909821	-6.189000E+00	  0.074909821	1.603750E+02	  0.074909821	1.754700E+01	  0.074909821	7.609000E+00
276	  0.075110219	-6.201000E+00	  0.075110219	1.594220E+02	  0.075110219	1.762300E+01	  0.075110219	7.980000E+00
277	  0.075310618	-6.208000E+00	  0.075310618	1.584800E+02	  0.075310618	1.769000E+01	  0.075310618	8.348000E+00
278	  0.075511023	-6.217000E+00	  0.075511023	1.575740E+02	  0.075511023	1.776100E+01	  0.075511023	8.702000E+00
279	  0.075711422	-6.222000E+00	  0.075711422	1.566250E+02	  0.075711422	1.782600E+01	  0.075711422	9.075000E+00
280	  0.075911827	-6.232000E+00	  0.075911827	1.556810E+02	  0.075911827	1.790700E+01	  0.075911827	9.445000E+00
281	  0.076112226	-6.241000E+00	  0.076112226	1.547490E+02	  0.076112226	1.798700E+01	  0.076112226	9.811000E+00
282	  0.076312624	-6.253000E+00	  0.076312624	1.538300E+02	  0.076312624	1.807500E+01	  0.076312624	1.017100E+01
283	  0.076513030	-6.265000E+00	  0.076513030	1.529100E+02	  0.076513030	1.816700E+01	  0.076513030	1.053100E+01
284	  0.076713428	-6.275000E+00	  0.076713428	1.519530E+02	  0.076713428	1.826000E+01	  0.076713428	1.090800E+01
285	  0.076913826	-6.284000E+00	  0.076913826	1.510420E+02	  0.076913826	1.834700E+01	  0.076913826	1.126800E+01
286	  0.077114232	-6.293000E+00	  0.077114232	1.501350E+02	  0.077114232	1.843900E+01	  0.077114232	1.162600E+01
287	  0.077314630	-6.311000E+00	  0.077314630	1.492450E+02	  0.077314630	1.855200E+01	  0.077314630	1.197400E+01
288	  0.077515028	-6.321000E+00	  0.077515028	1.483160E+02	  0.077515028	1.865300E+01	  0.077515028	1.234200E+01
289	  0.077715434	-6.333000E+00	  0.077715434	1.474430E+02	  0.077715434	1.875700E+01	  0.077715434	1.268700E+01
290	  0.077915832	-6.349000E+00	  0.077915832	1.465350E+02	  0.077915832	1.887500E+01	  0.077915832	1.304400E+01
291	  0.078116231	-6.359000E+00	  0.078116231	1.456480E+02	  0.078116231	1.898000E+01	  0.078116231	1.339700E+01
292	  0.078316636	-6.373000E+00	  0.078316636	1.447550E+02	  0.078316636	1.909800E+01	  0.078316636	1.375100E+01
293	  0.078517035	-6.386000E+00	  0.078517035	1.438510E+02	  0.078517035	1.921700E+01	  0.078517035	1.411000E+01
294	  0.078717433	-6.405000E+00	  0.078717433	1.429800E+02	  0.078717433	1.935000E+01	  0.078717433	1.445300E+01
295	  0.078917839	-6.416000E+00	  0.078917839	1.421110E+02	  0.078917839	1.946800E+01	  0.078917839	1.479900E+01
296	  0.079118237	-6.433000E+00	  0.079118237	1.412360E+02	  0.079118237	1.960100E+01	  0.079118237	1.514600E+01
297	  0.079318643	-6.451000E+00	  0.079318643	1.403910E+02	  0.079318643	1.973900E+01	  0.079318643	1.548000E+01
298	  0.079519041	-6.466000E+00	  0.079519041	1.395340E+02	  0.079519041	1.987400E+01	  0.079519041	1.582100E+01
299	  0.079719439	-6.485000E+00	  0.079719439	1.386850E+02	  0.079719439	2.001900E+01	  0.079719439	1.615600E+01
300	  0.079919845	-6.506000E+00	  0.079919845	1.378050E+02	  0.079919845	2.017600E+01	  0.079919845	1.650400E+01
301	  0.080120243	-6.520000E+00	  0.080120243	1.369680E+02	  0.080120243	2.031200E+01	  0.080120243	1.683900E+01
302	  0.080320641	-6.539000E+00	  0.080320641	1.361270E+02	  0.080320641	2.046800E+01	  0.080320641	1.717200E+01
303	  0.080521047	-6.561000E+00	  0.080521047	1.352840E+02	  0.080521047	2.063200E+01	  0.080521047	1.750400E+01
304	  0.080721445	-6.581000E+00	  0.080721445	1.344450E+02	  0.080721445	2.079300E+01	  0.080721445	1.783600E+01
305	  0.080921844	-6.598000E+00	  0.080921844	1.336540E+02	  0.080921844	2.094500E+01	  0.080921844	1.815100E+01
306	  0.081122249	-6.620000E+00	  0.081122249	1.328090E+02	  0.081122249	2.112000E+01	  0.081122249	1.848400E+01
307	  0.081322648	-6.641000E+00	  0.081322648	1.320100E+02	  0.081322648	2.128800E+01	  0.081322648	1.879900E+01
308	  0.081523046	-6.659000E+00	  0.081523046	1.311770E+02	  0.081523046	2.145400E+01	  0.081523046	1.913300E+01
309	  0.081723452	-6.679000E+00	  0.081723452	1.303490E+02	  0.081723452	2.163100E+01	  0.081723452	1.946100E+01
310	  0.081923850	-6.696000E+00	  0.081923850	1.295330E+02	  0.081923850	2.179900E+01	  0.081923850	1.978800E+01
311	  0.082124248	-6.719000E+00	  0.082124248	1.287600E+02	  0.082124248	2.198000E+01	  0.082124248	2.009200E+01
312	  0.082324654	-6.739000E+00	  0.082324654	1.279540E+02	  0.082324654	2.216300E+01	  0.082324654	2.041100E+01
313	  0.082525052	-6.758000E+00	  0.082525052	1.271880E+02	  0.082525052	2.233900E+01	  0.082525052	2.071600E+01
314	  0.082725458	-6.780000E+00	  0.082725458	1.263740E+02	  0.082725458	2.253200E+01	  0.082725458	2.103800E+01
315	  0.082925856	-6.804000E+00	  0.082925856	1.256030E+02	  0.082925856	2.273000E+01	  0.082925856	2.133900E+01
316	  0.083126254	-6.828000E+00	  0.083126254	1.248130E+02	  0.083126254	2.293300E+01	  0.083126254	2.164800E+01
317	  0.083326660	-6.845000E+00	  0.083326660	1.240220E+02	  0.083326660	2.311900E+01	  0.083326660	2.196600E+01
318	  0.083527058	-6.870000E+00	  0.083527058	1.232470E+02	  0.083527058	2.332900E+01	  0.083527058	2.226800E+01
319	  0.083727457	-6.893000E+00	  0.083727457	1.224550E+02	  0.083727457	2.353800E+01	  0.083727457	2.258000E+01
320	  0.083927862	-6.918000E+00	  0.083927862	1.216650E+02	  0.083927862	2.375700E+01	  0.083927862	2.288800E+01
321	  0.084128261	-6.941000E+00	  0.084128261	1.209410E+02	  0.084128261	2.396000E+01	  0.084128261	2.317000E+01
322	  0.084328659	-6.965000E+00	  0.084328659	1.201590E+02	  0.084328659	2.418300E+01	  0.084328659	2.347400E+01
323	  0.084529065	-6.989000E+00	  0.084529065	1.193980E+02	  0.084529065	2.440200E+01	  0.084529065	2.377200E+01
324	  0.084729463	-7.013000E+00	  0.084729463	1.186180E+02	  0.084729463	2.463200E+01	  0.084729463	2.407500E+01
325	  0.084929854	-7.039000E+00	  0.084929854	1.178640E+02	  0.084929854	2.486400E+01	  0.084929854	2.436400E+01
326	  0.085130259	-7.060000E+00	  0.085130259	1.170660E+02	  0.085130259	2.509300E+01	  0.085130259	2.468000E+01
327	  0.085330658	-7.086000E+00	  0.085330658	1.163720E+02	  0.085330658	2.531800E+01	  0.085330658	2.494400E+01
328	  0.085531056	-7.111000E+00	  0.085531056	1.155590E+02	  0.085531056	2.557300E+01	  0.085531056	2.525800E+01
329	  0.085731462	-7.136000E+00	  0.085731462	1.148220E+02	  0.085731462	2.581200E+01	  0.085731462	2.554000E+01
330	  0.085931860	-7.157000E+00	  0.085931860	1.140870E+02	  0.085931860	2.604200E+01	  0.085931860	2.582800E+01
331	  0.086132258	-7.185000E+00	  0.086132258	1.133440E+02	  0.086132258	2.629800E+01	  0.086132258	2.610700E+01
332	  0.086332664	-7.212000E+00	  0.086332664	1.126090E+02	  0.086332664	2.655500E+01	  0.086332664	2.638300E+01
333	  0.086533062	-7.237000E+00	  0.086533062	1.118770E+02	  0.086533062	2.680800E+01	  0.086533062	2.666000E+01
334	  0.086733460	-7.258000E+00	  0.086733460	1.111530E+02	  0.086733460	2.704900E+01	  0.086733460	2.694100E+01
335	  0.086933866	-7.289000E+00	  0.086933866	1.104150E+02	  0.086933866	2.732700E+01	  0.086933866	2.721000E+01
336	  0.087134264	-7.316000E+00	  0.087134264	1.097020E+02	  0.087134264	2.759100E+01	  0.087134264	2.747400E+01
337	  0.087334670	-7.340000E+00	  0.087334670	1.089720E+02	  0.087334670	2.785700E+01	  0.087334670	2.774800E+01
338	  0.087535068	-7.366000E+00	  0.087535068	1.082800E+02	  0.087535068	2.812000E+01	  0.087535068	2.800200E+01
339	  0.087735467	-7.399000E+00	  0.087735467	1.075830E+02	  0.087735467	2.840700E+01	  0.087735467	2.824600E+01
340	  0.087935872	-7.429000E+00	  0.087935872	1.068900E+02	  0.087935872	2.868900E+01	  0.087935872	2.849100E+01
341	  0.088136271	-7.458000E+00	  0.088136271	1.061830E+02	  0.088136271	2.897600E+01	  0.088136271	2.874300E+01
342	  0.088336669	-7.491000E+00	  0.088336669	1.054810E+02	  0.088336669	2.927600E+01	  0.088336669	2.898400E+01
343	  0.088537075	-7.513000E+00	  0.088537075	1.048040E+02	  0.088537075	2.954300E+01	  0.088537075	2.923200E+01
344	  0.088737473	-7.551000E+00	  0.088737473	1.041570E+02	  0.088737473	2.984800E+01	  0.088737473	2.943600E+01
345	  0.088937871	-7.577000E+00	  0.088937871	1.035100E+02	  0.088937871	3.012000E+01	  0.088937871	2.966400E+01
346	  0.089138277	-7.606000E+00	  0.089138277	1.028600E+02	  0.089138277	3.040800E+01	  0.089138277	2.988300E+01
347	  0.089338675	-7.639000E+00	  0.089338675	1.022450E+02	  0.089338675	3.069800E+01	  0.089338675	3.007800E+01
348	  0.089539073	-7.675000E+00	  0.089539073	1.016200E+02	  0.089539073	3.100500E+01	  0.089539073	3.026900E+01
349	  0.089739479	-7.705000E+00	  0.089739479	1.010140E+02	  0.089739479	3.128900E+01	  0.089739479	3.046300E+01
350	  0.089939877	-7.735000E+00	  0.089939877	1.004320E+02	  0.089939877	3.156800E+01	  0.089939877	3.064500E+01
351	  0.090140276	-7.761000E+00	  0.090140276	9.982900E+01	  0.090140276	3.184600E+01	  0.090140276	3.084400E+01
352	  0.090340681	-7.799000E+00	  0.090340681	9.924800E+01	  0.090340681	3.215300E+01	  0.090340681	3.100400E+01
353	  0.090541080	-7.821000E+00	  0.090541080	9.864600E+01	  0.090541080	3.242500E+01	  0.090541080	3.120900E+01
354	  0.090741485	-7.854000E+00	  0.090741485	9.809300E+01	  0.090741485	3.271300E+01	  0.090741485	3.136500E+01
355	  0.090941884	-7.882000E+00	  0.090941884	9.752300E+01	  0.090941884	3.299600E+01	  0.090941884	3.153800E+01
356	  0.091142282	-7.916000E+00	  0.091142282	9.695300E+01	  0.091142282	3.329900E+01	  0.091142282	3.169500E+01
357	  0.091342688	-7.945000E+00	  0.091342688	9.641800E+01	  0.091342688	3.357700E+01	  0.091342688	3.184700E+01
358	  0.091543086	-7.967000E+00	  0.091543086	9.582800E+01	  0.091543086	3.385900E+01	  0.091543086	3.203800E+01
359	  0.091743484	-7.999000E+00	  0.091743484	9.523900E+01	  0.091743484	3.417300E+01	  0.091743484	3.220000E+01
360	  0.091943890	-8.020000E+00	  0.091943890	9.468100E+01	  0.091943890	3.444500E+01	  0.091943890	3.237700E+01
361	  0.092144288	-8.046000E+00	  0.092144288	9.411100E+01	  0.092144288	3.474100E+01	  0.092144288	3.254300E+01
362	  0.092344686	-8.068000E+00	  0.092344686	9.352200E+01	  0.092344686	3.503200E+01	  0.092344686	3.272900E+01
363	  0.092545092	-8.099000E+00	  0.092545092	9.301200E+01	  0.092545092	3.532100E+01	  0.092545092	3.285500E+01
364	  0.092745490	-8.119000E+00	  0.092745490	9.240900E+01	  0.092745490	3.562100E+01	  0.092745490	3.304600E+01
365	  0.092945889	-8.145000E+00	  0.092945889	9.185600E+01	  0.092945889	3.592000E+01	  0.092945889	3.319800E+01
366	  0.093146294	-8.168000E+00	  0.093146294	9.130400E+01	  0.093146294	3.621100E+01	  0.093146294	3.335800E+01
367	  0.093346693	-8.195000E+00	  0.093346693	9.071100E+01	  0.093346693	3.653400E+01	  0.093346693	3.351900E+01
368	  0.093547091	-8.215000E+00	  0.093547091	9.012800E+01	  0.093547091	3.683700E+01	  0.093547091	3.369600E+01
369	  0.093747497	-8.237000E+00	  0.093747497	8.957100E+01	  0.093747497	3.713800E+01	  0.093747497	3.385200E+01
370	  0.093947895	-8.257000E+00	  0.093947895	8.898000E+01	  0.093947895	3.745300E+01	  0.093947895	3.402500E+01
371	  0.094148301	-8.282000E+00	  0.094148301	8.845100E+01	  0.094148301	3.775300E+01	  0.094148301	3.416200E+01
372	  0.094348699	-8.308000E+00	  0.094348699	8.789300E+01	  0.094348699	3.807300E+01	  0.094348699	3.430100E+01
373	  0.094549097	-8.333000E+00	  0.094549097	8.732500E+01	  0.094549097	3.839700E+01	  0.094549097	3.444500E+01
374	  0.094749503	-8.356000E+00	  0.094749503	8.678400E+01	  0.094749503	3.870800E+01	  0.094749503	3.458200E+01
375	  0.094949901	-8.378000E+00	  0.094949901	8.625600E+01	  0.094949901	3.901200E+01	  0.094949901	3.471500E+01
376	  0.095150299	-8.401000E+00	  0.095150299	8.571600E+01	  0.095150299	3.932500E+01	  0.095150299	3.485000E+01
377	  0.095350705	-8.427000E+00	  0.095350705	8.516200E+01	  0.095350705	3.965700E+01	  0.095350705	3.497500E+01
378	  0.095551103	-8.449000E+00	  0.095551103	8.462900E+01	  0.095551103	3.997100E+01	  0.095551103	3.510300E+01
379	  0.095751502	-8.475000E+00	  0.095751502	8.413500E+01	  0.095751502	4.027800E+01	  0.095751502	3.520200E+01
380	  0.095951907	-8.499000E+00	  0.095951907	8.362800E+01	  0.095951907	4.058900E+01	  0.095951907	3.531000E+01
381	  0.096152306	-8.524000E+00	  0.096152306	8.316700E+01	  0.096152306	4.088100E+01	  0.096152306	3.539500E+01
382	  0.096352704	-8.548000E+00	  0.096352704	8.266200E+01	  0.096352704	4.119300E+01	  0.096352704	3.549900E+01
383	  0.096553110	-8.572000E+00	  0.096553110	8.217600E+01	  0.096553110	4.150000E+01	  0.096553110	3.559000E+01
384	  0.096753508	-8.592000E+00	  0.096753508	8.170600E+01	  0.096753508	4.178900E+01	  0.096753508	3.569100E+01
385	  0.096953906	-8.615000E+00	  0.096953906	8.125000E+01	  0.096953906	4.208300E+01	  0.096953906	3.576900E+01
386	  0.097154312	-8.642000E+00	  0.097154312	8.081500E+01	  0.097154312	4.237300E+01	  0.097154312	3.582900E+01
387	  0.097354710	-8.665000E+00	  0.097354710	8.034300E+01	  0.097354710	4.267600E+01	  0.097354710	3.591200E+01
388	  0.097555116	-8.686000E+00	  0.097555116	7.993700E+01	  0.097555116	4.294300E+01	  0.097555116	3.597500E+01
389	  0.097755514	-8.711000E+00	  0.097755514	7.949000E+01	  0.097755514	4.324100E+01	  0.097755514	3.603700E+01
390	  0.097955912	-8.736000E+00	  0.097955912	7.906800E+01	  0.097955912	4.352700E+01	  0.097955912	3.608900E+01
391	  0.098156318	-8.757000E+00	  0.098156318	7.863000E+01	  0.098156318	4.381300E+01	  0.098156318	3.615800E+01
392	  0.098356716	-8.778000E+00	  0.098356716	7.821700E+01	  0.098356716	4.408800E+01	  0.098356716	3.621500E+01
393	  0.098557115	-8.798000E+00	  0.098557115	7.784700E+01	  0.098557115	4.433700E+01	  0.098557115	3.626300E+01
394	  0.098757520	-8.823000E+00	  0.098757520	7.736700E+01	  0.098757520	4.466100E+01	  0.098757520	3.632500E+01
395	  0.098957919	-8.838000E+00	  0.098957919	7.696900E+01	  0.098957919	4.492000E+01	  0.098957919	3.639100E+01
396	  0.099158317	-8.854000E+00	  0.099158317	7.655400E+01	  0.099158317	4.519100E+01	  0.099158317	3.646100E+01
397	  0.099358723	-8.872000E+00	  0.099358723	7.616900E+01	  0.099358723	4.545000E+01	  0.099358723	3.651300E+01
398	  0.099559121	-8.886000E+00	  0.099559121	7.572900E+01	  0.099559121	4.573400E+01	  0.099559121	3.659400E+01
399	  0.099759519	-8.901000E+00	  0.099759519	7.536500E+01	  0.099759519	4.597700E+01	  0.099759519	3.664600E+01
400	  0.099959925	-8.914000E+00	  0.099959925	7.492600E+01	  0.099959925	4.626100E+01	  0.099959925	3.673000E+01
401	  0.100160323	-8.928000E+00	  0.100160323	7.454600E+01	  0.100160323	4.651500E+01	  0.100160323	3.678600E+01
402	  0.100360721	-8.941000E+00	  0.100360721	7.413500E+01	  0.100360721	4.678700E+01	  0.100360721	3.685400E+01
403	  0.100561127	-8.950000E+00	  0.100561127	7.371600E+01	  0.100561127	4.705700E+01	  0.100561127	3.694200E+01
404	  0.100761525	-8.948000E+00	  0.100761525	7.331500E+01	  0.100761525	4.729900E+01	  0.100761525	3.706200E+01
405	  0.100961931	-8.956000E+00	  0.100961931	7.296800E+01	  0.100961931	4.752700E+01	  0.100961931	3.712800E+01
406	  0.101162329	-8.956000E+00	  0.101162329	7.255600E+01	  0.101162329	4.778000E+01	  0.101162329	3.724700E+01
407	  0.101362728	-8.960000E+00	  0.101362728	7.212700E+01	  0.101362728	4.805600E+01	  0.101362728	3.734800E+01
408	  0.101563133	-8.963000E+00	  0.101563133	7.177600E+01	  0.101563133	4.828200E+01	  0.101563133	3.743200E+01
409	  0.101763532	-8.963000E+00	  0.101763532	7.135900E+01	  0.101763532	4.854600E+01	  0.101763532	3.754600E+01
410	  0.101963930	-8.967000E+00	  0.101963930	7.096700E+01	  0.101963930	4.880300E+01	  0.101963930	3.763600E+01
411	  0.102164328	-8.957000E+00	  0.102164328	7.056500E+01	  0.102164328	4.904400E+01	  0.102164328	3.778700E+01
412	  0.102364726	-8.957000E+00	  0.102364726	7.022100E+01	  0.102364726	4.926900E+01	  0.102364726	3.787500E+01
413	  0.102565125	-8.949000E+00	  0.102565125	6.974100E+01	  0.102565125	4.956900E+01	  0.102565125	3.803600E+01
414	  0.102765530	-8.944000E+00	  0.102765530	6.934900E+01	  0.102765530	4.981900E+01	  0.102765530	3.816000E+01
415	  0.102965929	-8.939000E+00	  0.102965929	6.894800E+01	  0.102965929	5.007900E+01	  0.102965929	3.828200E+01
416	  0.103166327	-8.928000E+00	  0.103166327	6.859000E+01	  0.103166327	5.030100E+01	  0.103166327	3.842300E+01
417	  0.103366733	-8.918000E+00	  0.103366733	6.818200E+01	  0.103366733	5.056100E+01	  0.103366733	3.856800E+01
418	  0.103567131	-8.905000E+00	  0.103567131	6.776800E+01	  0.103567131	5.082200E+01	  0.103567131	3.873300E+01
419	  0.103767529	-8.896000E+00	  0.103767529	6.729500E+01	  0.103767529	5.113400E+01	  0.103767529	3.888900E+01
420	  0.103967935	-8.880000E+00	  0.103967935	6.686700E+01	  0.103967935	5.140700E+01	  0.103967935	3.906600E+01
421	  0.104168333	-8.860000E+00	  0.104168333	6.648800E+01	  0.104168333	5.164200E+01	  0.104168333	3.925100E+01
422	  0.104368731	-8.845000E+00	  0.104368731	6.602800E+01	  0.104368731	5.194600E+01	  0.104368731	3.943000E+01
423	  0.104569137	-8.831000E+00	  0.104569137	6.558200E+01	  0.104569137	5.224500E+01	  0.104569137	3.960100E+01
424	  0.104769535	-8.806000E+00	  0.104769535	6.512400E+01	  0.104769535	5.253800E+01	  0.104769535	3.983000E+01
425	  0.104969934	-8.798000E+00	  0.104969934	6.464100E+01	  0.104969934	5.288100E+01	  0.104969934	3.997900E+01
426	  0.105170339	-8.784000E+00	  0.105170339	6.417200E+01	  0.105170339	5.320800E+01	  0.105170339	4.015300E+01
427	  0.105370738	-8.756000E+00	  0.105370738	6.365800E+01	  0.105370738	5.355300E+01	  0.105370738	4.040600E+01
428	  0.105571143	-8.734000E+00	  0.105571143	6.318000E+01	  0.105571143	5.388400E+01	  0.105571143	4.062200E+01
429	  0.105771542	-8.718000E+00	  0.105771542	6.262900E+01	  0.105771542	5.428600E+01	  0.105771542	4.082000E+01
430	  0.105971940	-8.693000E+00	  0.105971940	6.209900E+01	  0.105971940	5.466400E+01	  0.105971940	4.105800E+01
431	  0.106172346	-8.670000E+00	  0.106172346	6.160400E+01	  0.106172346	5.502200E+01	  0.106172346	4.128100E+01
432	  0.106372744	-8.651000E+00	  0.106372744	6.103700E+01	  0.106372744	5.544900E+01	  0.106372744	4.149600E+01
433	  0.106573142	-8.627000E+00	  0.106573142	6.045500E+01	  0.106573142	5.588800E+01	  0.106573142	4.174300E+01
434	  0.106773548	-8.611000E+00	  0.106773548	5.983200E+01	  0.106773548	5.637900E+01	  0.106773548	4.194700E+01
435	  0.106973946	-8.584000E+00	  0.106973946	5.924700E+01	  0.106973946	5.683200E+01	  0.106973946	4.220600E+01
436	  0.107174344	-8.562000E+00	  0.107174344	5.864700E+01	  0.107174344	5.731200E+01	  0.107174344	4.243400E+01
437	  0.107374750	-8.538000E+00	  0.107374750	5.802600E+01	  0.107374750	5.781600E+01	  0.107374750	4.267500E+01
438	  0.107575148	-8.517000E+00	  0.107575148	5.735100E+01	  0.107575148	5.837800E+01	  0.107575148	4.291200E+01
439	  0.107775547	-8.492000E+00	  0.107775547	5.671400E+01	  0.107775547	5.891200E+01	  0.107775547	4.315800E+01
440	  0.107975952	-8.466000E+00	  0.107975952	5.604500E+01	  0.107975952	5.948600E+01	  0.107975952	4.341000E+01
441	  0.108176351	-8.446000E+00	  0.108176351	5.538700E+01	  0.108176351	6.006400E+01	  0.108176351	4.362300E+01
442	  0.108376749	-8.432000E+00	  0.108376749	5.473600E+01	  0.108376749	6.065100E+01	  0.108376749	4.379900E+01
443	  0.108577155	-8.410000E+00	  0.108577155	5.405300E+01	  0.108577155	6.127200E+01	  0.108577155	4.401700E+01
444	  0.108777553	-8.397000E+00	  0.108777553	5.330200E+01	  0.108777553	6.197400E+01	  0.108777553	4.418400E+01
445	  0.108977959	-8.381000E+00	  0.108977959	5.257800E+01	  0.108977959	6.266100E+01	  0.108977959	4.435700E+01
446	  0.109178357	-8.372000E+00	  0.109178357	5.187100E+01	  0.109178357	6.334600E+01	  0.109178357	4.447800E+01
447	  0.109378755	-8.352000E+00	  0.109378755	5.113900E+01	  0.109378755	6.406100E+01	  0.109378755	4.466600E+01
448	  0.109579161	-8.337000E+00	  0.109579161	5.039500E+01	  0.109579161	6.480400E+01	  0.109579161	4.480800E+01
449	  0.109779559	-8.334000E+00	  0.109779559	4.967900E+01	  0.109779559	6.553400E+01	  0.109779559	4.486200E+01
450	  0.109979957	-8.329000E+00	  0.109979957	4.897200E+01	  0.109979957	6.626300E+01	  0.109979957	4.492100E+01
451	  0.110180363	-8.321000E+00	  0.110180363	4.826300E+01	  0.110180363	6.700400E+01	  0.110180363	4.498400E+01
452	  0.110380761	-8.315000E+00	  0.110380761	4.751200E+01	  0.110380761	6.779800E+01	  0.110380761	4.502100E+01
453	  0.110581160	-8.316000E+00	  0.110581160	4.676200E+01	  0.110581160	6.860200E+01	  0.110581160	4.500100E+01
454	  0.110781565	-8.312000E+00	  0.110781565	4.608000E+01	  0.110781565	6.934200E+01	  0.110781565	4.500400E+01
455	  0.110981964	-8.313000E+00	  0.110981964	4.533000E+01	  0.110981964	7.016300E+01	  0.110981964	4.495100E+01
456	  0.111182362	-8.310000E+00	  0.111182362	4.459800E+01	  0.111182362	7.097500E+01	  0.111182362	4.491300E+01
457	  0.111382768	-8.304000E+00	  0.111382768	4.382900E+01	  0.111382768	7.183900E+01	  0.111382768	4.488000E+01
458	  0.111583166	-8.303000E+00	  0.111583166	4.314100E+01	  0.111583166	7.261800E+01	  0.111583166	4.480200E+01
459	  0.111783572	-8.302000E+00	  0.111783572	4.236200E+01	  0.111783572	7.350700E+01	  0.111783572	4.469200E+01
460	  0.111983970	-8.300000E+00	  0.111983970	4.156900E+01	  0.111983970	7.442500E+01	  0.111983970	4.457800E+01
461	  0.112184368	-8.295000E+00	  0.112184368	4.079400E+01	  0.112184368	7.533300E+01	  0.112184368	4.446200E+01
462	  0.112384774	-8.299000E+00	  0.112384774	4.004500E+01	  0.112384774	7.620600E+01	  0.112384774	4.426300E+01
463	  0.112585172	-8.298000E+00	  0.112585172	3.921000E+01	  0.112585172	7.719400E+01	  0.112585172	4.406300E+01
464	  0.112785570	-8.297000E+00	  0.112785570	3.842600E+01	  0.112785570	7.813100E+01	  0.112785570	4.385200E+01
465	  0.112985976	-8.299000E+00	  0.112985976	3.757900E+01	  0.112985976	7.914400E+01	  0.112985976	4.357700E+01
466	  0.113186374	-8.295000E+00	  0.113186374	3.675200E+01	  0.113186374	8.015100E+01	  0.113186374	4.332300E+01
467	  0.113386773	-8.291000E+00	  0.113386773	3.584700E+01	  0.113386773	8.126100E+01	  0.113386773	4.301100E+01
468	  0.113587178	-8.305000E+00	  0.113587178	3.498200E+01	  0.113587178	8.227900E+01	  0.113587178	4.254400E+01
469	  0.113787577	-8.309000E+00	  0.113787577	3.411000E+01	  0.113787577	8.333600E+01	  0.113787577	4.212300E+01
470	  0.113987975	-8.313000E+00	  0.113987975	3.321700E+01	  0.113987975	8.441600E+01	  0.113987975	4.165600E+01
471	  0.114188381	-8.315000E+00	  0.114188381	3.230800E+01	  0.114188381	8.552900E+01	  0.114188381	4.116900E+01
472	  0.114388779	-8.321000E+00	  0.114388779	3.138800E+01	  0.114388779	8.663600E+01	  0.114388779	4.059900E+01
473	  0.114589177	-8.325000E+00	  0.114589177	3.045800E+01	  0.114589177	8.776000E+01	  0.114589177	3.999900E+01
474	  0.114789583	-8.338000E+00	  0.114789583	2.950100E+01	  0.114789583	8.887600E+01	  0.114789583	3.927400E+01
475	  0.114989981	-8.347000E+00	  0.114989981	2.856600E+01	  0.114989981	8.996600E+01	  0.114989981	3.854700E+01
476	  0.115190387	-8.359000E+00	  0.115190387	2.755800E+01	  0.115190387	9.112700E+01	  0.115190387	3.771000E+01
477	  0.115390785	-8.375000E+00	  0.115390785	2.658100E+01	  0.115390785	9.220800E+01	  0.115390785	3.681500E+01
478	  0.115591183	-8.393000E+00	  0.115591183	2.562200E+01	  0.115591183	9.323800E+01	  0.115591183	3.587600E+01
479	  0.115791589	-8.412000E+00	  0.115791589	2.460200E+01	  0.115791589	9.430300E+01	  0.115791589	3.482700E+01
480	  0.115991987	-8.431000E+00	  0.115991987	2.363800E+01	  0.115991987	9.528200E+01	  0.115991987	3.379300E+01
481	  0.116192386	-8.456000E+00	  0.116192386	2.260200E+01	  0.116192386	9.627600E+01	  0.116192386	3.260500E+01
482	  0.116392791	-8.477000E+00	  0.116392791	2.160300E+01	  0.116392791	9.721300E+01	  0.116392791	3.143800E+01
483	  0.116593190	-8.505000E+00	  0.116593190	2.056800E+01	  0.116593190	9.810100E+01	  0.116593190	3.014100E+01
484	  0.116793588	-8.541000E+00	  0.116793588	1.949700E+01	  0.116793588	9.892700E+01	  0.116793588	2.872000E+01
485	  0.116993994	-8.577000E+00	  0.116993994	1.847600E+01	  0.116993994	9.964700E+01	  0.116993994	2.731800E+01
486	  0.117194392	-8.613000E+00	  0.117194392	1.738900E+01	  0.117194392	1.003690E+02	  0.117194392	2.580500E+01
487	  0.117394790	-8.649000E+00	  0.117394790	1.630000E+01	  0.117394790	1.010380E+02	  0.117394790	2.426400E+01
488	  0.117595196	-8.689000E+00	  0.117595196	1.521900E+01	  0.117595196	1.016040E+02	  0.117595196	2.268400E+01
489	  0.117795594	-8.731000E+00	  0.117795594	1.412200E+01	  0.117795594	1.020950E+02	  0.117795594	2.104900E+01
490	  0.117995992	-8.775000E+00	  0.117995992	1.298500E+01	  0.117995992	1.025400E+02	  0.117995992	1.934500E+01
491	  0.118196398	-8.833000E+00	  0.118196398	1.186400E+01	  0.118196398	1.027680E+02	  0.118196398	1.758500E+01
492	  0.118396796	-8.878000E+00	  0.118396796	1.068300E+01	  0.118396796	1.030650E+02	  0.118396796	1.579300E+01
493	  0.118597202	-8.939000E+00	  0.118597202	9.489000E+00	  0.118597202	1.031540E+02	  0.118597202	1.393100E+01
494	  0.118797600	-8.997000E+00	  0.118797600	8.310000E+00	  0.118797600	1.031700E+02	  0.118797600	1.211000E+01
