! Anritsu VNA Master:             	Model: MS2036C/10/77
! SN:             	1601066
! /bd0/18may10/256.ns.m1.txt
! Existing Calibration Information:
! TYPE:             	Current Settings	Active Cal Settings
! TIME:             	05/10/2018 10:54:56 AM	05/10/2018 10:50:07 AM
! INTERNAL TEMP:    	49.8 C	49.0 C
! # POINTS:         	494	494
! START FREQ:       	20.000 MHz	20.000 MHz
! STOP FREQ:        	118.797 594 MHz	118.797 594 MHz
! SOURCE POWER:     	High	High
! IFBW:             	50 Hz	50 Hz
! AVG FACTOR:       	  1 	  1 
! REF PLANE 1:      	0 mm	0 mm
! REF PLANE 2:      	0 mm	0 mm
! CAL TYPE:         	Full S22	Full S22
! CAL METHOD:       	SOLT	SOLT
! CAL LINE TYPE:    	Coax	Coax
! DUT PORT 1:       	K-Conn(M)	K-Conn(M)
! DUT PORT 2:       	K-Conn(M)	K-Conn(M)
! CAL STATUS:       	OK: Accuracy High	--
! PROP-V:       	0.700
! CABLE LOSS:       	0.000 dB/m
! REF IMPEDANCE:       	50.0
! Trace Specific Parameters:	TR1	TR2	TR3	TR4
! TRACE.#.Y (GRAPH TYPE)	LOG MAG	PHASE	REAL IMPEDANCE	IMAGINARY IMPEDANCE
! TRACE.#.X 	FREQ.GHZ	FREQ.GHZ	FREQ.GHZ	FREQ.GHZ
! S-PARAMETER	S22	S22	S22	S22
! SMOOTH/APERTURE %	0	0	0	0
! WINDOW	NSL	NSL	NSL	NSL
! GATING	OFF	OFF	OFF	OFF
! FGTD	OFF	OFF	OFF	OFF
Marker Information per Trace:	TR1	TR2	TR3	TR4
!MK1	--	"MK1 TR2:  20.000 MHz,PH:-126.76°"	--	--
!MK2	--	--	"MK2 TR3:  70.100 200 MHz,Z:(16.698 ohm, -1.462 ohm)"	--
!MK3	--	--	--	--
!MK4	--	--	--	--
!MK5	--	--	--	--
!MK6	--	--	--	--
!MK7	--	--	--	--
!MK8	--	--	--	--
PNT	TR1.FREQ.GHZ	TR1.LOG MAG.dB	TR2.FREQ.GHZ	TR2.PHASE.deg	TR3.FREQ.GHZ	TR3.REAL IMPEDANCE.ohm	TR4.FREQ.GHZ	TR4.IMAGINARY IMPEDANCE.ohm
1	  0.020000000	-6.060000E-01	  0.020000000	-1.267630E+02	  0.020000000	2.181000E+00	  0.020000000	-2.501900E+01
2	  0.020200402	-6.090000E-01	  0.020200402	-1.282100E+02	  0.020200402	2.167000E+00	  0.020200402	-2.423600E+01
3	  0.020400802	-6.120000E-01	  0.020400802	-1.296910E+02	  0.020400802	2.149000E+00	  0.020400802	-2.344300E+01
4	  0.020601204	-6.190000E-01	  0.020601204	-1.312070E+02	  0.020601204	2.147000E+00	  0.020601204	-2.264200E+01
5	  0.020801604	-6.210000E-01	  0.020801604	-1.327390E+02	  0.020801604	2.129000E+00	  0.020801604	-2.184200E+01
6	  0.021002004	-6.260000E-01	  0.021002004	-1.342900E+02	  0.021002004	2.120000E+00	  0.021002004	-2.104100E+01
7	  0.021202406	-6.300000E-01	  0.021202406	-1.358360E+02	  0.021202406	2.112000E+00	  0.021202406	-2.025300E+01
8	  0.021402806	-6.320000E-01	  0.021402806	-1.373820E+02	  0.021402806	2.095000E+00	  0.021402806	-1.947300E+01
9	  0.021603208	-6.370000E-01	  0.021603208	-1.389430E+02	  0.021603208	2.091000E+00	  0.021603208	-1.869300E+01
10	  0.021803608	-6.410000E-01	  0.021803608	-1.404870E+02	  0.021803608	2.083000E+00	  0.021803608	-1.793000E+01
11	  0.022004008	-6.460000E-01	  0.022004008	-1.420730E+02	  0.022004008	2.079000E+00	  0.022004008	-1.715300E+01
12	  0.022204408	-6.550000E-01	  0.022204408	-1.436700E+02	  0.022204408	2.088000E+00	  0.022204408	-1.637900E+01
13	  0.022404809	-6.580000E-01	  0.022404809	-1.452910E+02	  0.022404809	2.078000E+00	  0.022404809	-1.560000E+01
14	  0.022605211	-6.680000E-01	  0.022605211	-1.468990E+02	  0.022605211	2.092000E+00	  0.022605211	-1.483400E+01
15	  0.022805611	-6.750000E-01	  0.022805611	-1.485270E+02	  0.022805611	2.098000E+00	  0.022805611	-1.406500E+01
16	  0.023006011	-6.800000E-01	  0.023006011	-1.501500E+02	  0.023006011	2.097000E+00	  0.023006011	-1.330500E+01
17	  0.023206413	-6.830000E-01	  0.023206413	-1.517740E+02	  0.023206413	2.091000E+00	  0.023206413	-1.255000E+01
18	  0.023406813	-6.900000E-01	  0.023406813	-1.533960E+02	  0.023406813	2.097000E+00	  0.023406813	-1.180100E+01
19	  0.023607215	-6.990000E-01	  0.023607215	-1.550320E+02	  0.023607215	2.109000E+00	  0.023607215	-1.105100E+01
20	  0.023807615	-7.120000E-01	  0.023807615	-1.566570E+02	  0.023807615	2.135000E+00	  0.023807615	-1.031000E+01
21	  0.024008015	-7.200000E-01	  0.024008015	-1.583300E+02	  0.024008015	2.148000E+00	  0.024008015	-9.552000E+00
22	  0.024208417	-7.290000E-01	  0.024208417	-1.599980E+02	  0.024208417	2.163000E+00	  0.024208417	-8.801000E+00
23	  0.024408817	-7.360000E-01	  0.024408817	-1.616630E+02	  0.024408817	2.174000E+00	  0.024408817	-8.054000E+00
24	  0.024609219	-7.450000E-01	  0.024609219	-1.633340E+02	  0.024609219	2.190000E+00	  0.024609219	-7.309000E+00
25	  0.024809619	-7.560000E-01	  0.024809619	-1.649900E+02	  0.024809619	2.212000E+00	  0.024809619	-6.574000E+00
26	  0.025010020	-7.680000E-01	  0.025010020	-1.666620E+02	  0.025010020	2.240000E+00	  0.025010020	-5.834000E+00
27	  0.025210422	-7.800000E-01	  0.025210422	-1.683280E+02	  0.025210422	2.269000E+00	  0.025210422	-5.100000E+00
28	  0.025410822	-7.940000E-01	  0.025410822	-1.700100E+02	  0.025410822	2.301000E+00	  0.025410822	-4.360000E+00
29	  0.025611224	-8.060000E-01	  0.025611224	-1.717040E+02	  0.025611224	2.332000E+00	  0.025611224	-3.618000E+00
30	  0.025811624	-8.200000E-01	  0.025811624	-1.734050E+02	  0.025811624	2.368000E+00	  0.025811624	-2.874000E+00
31	  0.026012026	-8.330000E-01	  0.026012026	-1.751150E+02	  0.026012026	2.400000E+00	  0.026012026	-2.127000E+00
32	  0.026212426	-8.470000E-01	  0.026212426	-1.768380E+02	  0.026212426	2.439000E+00	  0.026212426	-1.376000E+00
33	  0.026412826	-8.650000E-01	  0.026412826	-1.785760E+02	  0.026412826	2.489000E+00	  0.026412826	-6.190000E-01
34	  0.026613226	-8.810000E-01	  0.026613226	1.796840E+02	  0.026613226	2.534000E+00	  0.026613226	1.370000E-01
35	  0.026813626	-8.980000E-01	  0.026813626	1.779270E+02	  0.026813626	2.585000E+00	  0.026813626	9.010000E-01
36	  0.027014028	-9.170000E-01	  0.027014028	1.761620E+02	  0.027014028	2.642000E+00	  0.027014028	1.670000E+00
37	  0.027214428	-9.360000E-01	  0.027214428	1.743880E+02	  0.027214428	2.698000E+00	  0.027214428	2.443000E+00
38	  0.027414829	-9.560000E-01	  0.027414829	1.725950E+02	  0.027414829	2.761000E+00	  0.027414829	3.225000E+00
39	  0.027615231	-9.770000E-01	  0.027615231	1.707880E+02	  0.027615231	2.828000E+00	  0.027615231	4.014000E+00
40	  0.027815631	-9.980000E-01	  0.027815631	1.689690E+02	  0.027815631	2.897000E+00	  0.027815631	4.811000E+00
41	  0.028016033	-1.021000E+00	  0.028016033	1.671150E+02	  0.028016033	2.973000E+00	  0.028016033	5.625000E+00
42	  0.028216433	-1.043000E+00	  0.028216433	1.652490E+02	  0.028216433	3.051000E+00	  0.028216433	6.448000E+00
43	  0.028416833	-1.068000E+00	  0.028416833	1.633900E+02	  0.028416833	3.136000E+00	  0.028416833	7.270000E+00
44	  0.028617235	-1.092000E+00	  0.028617235	1.615180E+02	  0.028617235	3.223000E+00	  0.028617235	8.101000E+00
45	  0.028817635	-1.118000E+00	  0.028817635	1.596380E+02	  0.028817635	3.316000E+00	  0.028817635	8.940000E+00
46	  0.029018037	-1.144000E+00	  0.029018037	1.577490E+02	  0.029018037	3.417000E+00	  0.029018037	9.788000E+00
47	  0.029218437	-1.172000E+00	  0.029218437	1.558570E+02	  0.029218437	3.522000E+00	  0.029218437	1.064200E+01
48	  0.029418837	-1.200000E+00	  0.029418837	1.539290E+02	  0.029418837	3.633000E+00	  0.029418837	1.151700E+01
49	  0.029619239	-1.229000E+00	  0.029619239	1.520060E+02	  0.029619239	3.752000E+00	  0.029619239	1.239700E+01
50	  0.029819639	-1.259000E+00	  0.029819639	1.500690E+02	  0.029819639	3.877000E+00	  0.029819639	1.329000E+01
51	  0.030020041	-1.288000E+00	  0.030020041	1.481270E+02	  0.030020041	4.001000E+00	  0.030020041	1.419200E+01
52	  0.030220442	-1.318000E+00	  0.030220442	1.461900E+02	  0.030220442	4.136000E+00	  0.030220442	1.510000E+01
53	  0.030420844	-1.349000E+00	  0.030420844	1.442700E+02	  0.030420844	4.276000E+00	  0.030420844	1.600800E+01
54	  0.030621244	-1.381000E+00	  0.030621244	1.423460E+02	  0.030621244	4.426000E+00	  0.030621244	1.692700E+01
55	  0.030821642	-1.417000E+00	  0.030821642	1.404120E+02	  0.030821642	4.595000E+00	  0.030821642	1.786000E+01
56	  0.031022044	-1.451000E+00	  0.031022044	1.384630E+02	  0.031022044	4.763000E+00	  0.031022044	1.881100E+01
57	  0.031222444	-1.482000E+00	  0.031222444	1.365350E+02	  0.031222444	4.926000E+00	  0.031222444	1.976300E+01
58	  0.031422846	-1.516000E+00	  0.031422846	1.345610E+02	  0.031422846	5.111000E+00	  0.031422846	2.074800E+01
59	  0.031623244	-1.553000E+00	  0.031623244	1.325880E+02	  0.031623244	5.310000E+00	  0.031623244	2.174600E+01
60	  0.031823646	-1.589000E+00	  0.031823646	1.306380E+02	  0.031823646	5.515000E+00	  0.031823646	2.274500E+01
61	  0.032024048	-1.626000E+00	  0.032024048	1.286840E+02	  0.032024048	5.732000E+00	  0.032024048	2.376100E+01
62	  0.032224450	-1.665000E+00	  0.032224450	1.267270E+02	  0.032224450	5.968000E+00	  0.032224450	2.479100E+01
63	  0.032424849	-1.706000E+00	  0.032424849	1.247560E+02	  0.032424849	6.220000E+00	  0.032424849	2.584400E+01
64	  0.032625251	-1.743000E+00	  0.032625251	1.227700E+02	  0.032625251	6.470000E+00	  0.032625251	2.692400E+01
65	  0.032825653	-1.785000E+00	  0.032825653	1.207640E+02	  0.032825653	6.752000E+00	  0.032825653	2.803100E+01
66	  0.033026051	-1.824000E+00	  0.033026051	1.187300E+02	  0.033026051	7.040000E+00	  0.033026051	2.917400E+01
67	  0.033226453	-1.865000E+00	  0.033226453	1.167350E+02	  0.033226453	7.346000E+00	  0.033226453	3.031400E+01
68	  0.033426855	-1.907000E+00	  0.033426855	1.147110E+02	  0.033426855	7.675000E+00	  0.033426855	3.149200E+01
69	  0.033627257	-1.952000E+00	  0.033627257	1.127020E+02	  0.033627257	8.032000E+00	  0.033627257	3.268200E+01
70	  0.033827655	-1.996000E+00	  0.033827655	1.106690E+02	  0.033827655	8.405000E+00	  0.033827655	3.391100E+01
71	  0.034028057	-2.040000E+00	  0.034028057	1.086150E+02	  0.034028057	8.799000E+00	  0.034028057	3.517900E+01
72	  0.034228459	-2.087000E+00	  0.034228459	1.065500E+02	  0.034228459	9.233000E+00	  0.034228459	3.647800E+01
73	  0.034428857	-2.136000E+00	  0.034428857	1.044770E+02	  0.034428857	9.701000E+00	  0.034428857	3.781000E+01
74	  0.034629259	-2.184000E+00	  0.034629259	1.023820E+02	  0.034629259	1.019800E+01	  0.034629259	3.918700E+01
75	  0.034829661	-2.234000E+00	  0.034829661	1.003010E+02	  0.034829661	1.072900E+01	  0.034829661	4.058500E+01
76	  0.035030060	-2.285000E+00	  0.035030060	9.820200E+01	  0.035030060	1.130300E+01	  0.035030060	4.202800E+01
77	  0.035230462	-2.338000E+00	  0.035230462	9.610600E+01	  0.035230462	1.192200E+01	  0.035230462	4.350200E+01
78	  0.035430863	-2.388000E+00	  0.035430863	9.398500E+01	  0.035430863	1.257300E+01	  0.035430863	4.503400E+01
79	  0.035631265	-2.443000E+00	  0.035631265	9.188600E+01	  0.035631265	1.328700E+01	  0.035631265	4.658300E+01
80	  0.035831664	-2.499000E+00	  0.035831664	8.977200E+01	  0.035831664	1.405600E+01	  0.035831664	4.818200E+01
81	  0.036032066	-2.551000E+00	  0.036032066	8.767400E+01	  0.036032066	1.485500E+01	  0.036032066	4.981500E+01
82	  0.036232468	-2.604000E+00	  0.036232468	8.555100E+01	  0.036232468	1.572400E+01	  0.036232468	5.151100E+01
83	  0.036432866	-2.660000E+00	  0.036432866	8.345500E+01	  0.036432866	1.666900E+01	  0.036432866	5.322200E+01
84	  0.036633268	-2.715000E+00	  0.036633268	8.134800E+01	  0.036633268	1.767500E+01	  0.036633268	5.499400E+01
85	  0.036833670	-2.773000E+00	  0.036833670	7.923100E+01	  0.036833670	1.878000E+01	  0.036833670	5.681300E+01
86	  0.037034072	-2.829000E+00	  0.037034072	7.712700E+01	  0.037034072	1.995400E+01	  0.037034072	5.867400E+01
87	  0.037234470	-2.885000E+00	  0.037234470	7.502300E+01	  0.037234470	2.122000E+01	  0.037234470	6.058300E+01
88	  0.037434869	-2.943000E+00	  0.037434869	7.290900E+01	  0.037434869	2.260300E+01	  0.037434869	6.254700E+01
89	  0.037635271	-3.006000E+00	  0.037635271	7.079000E+01	  0.037635271	2.413700E+01	  0.037635271	6.454700E+01
90	  0.037835669	-3.083000E+00	  0.037835669	6.871600E+01	  0.037835669	2.586400E+01	  0.037835669	6.649200E+01
91	  0.038036071	-3.151000E+00	  0.038036071	6.674600E+01	  0.038036071	2.760400E+01	  0.038036071	6.838400E+01
92	  0.038236473	-3.209000E+00	  0.038236473	6.477200E+01	  0.038236473	2.939900E+01	  0.038236473	7.036100E+01
93	  0.038436871	-3.259000E+00	  0.038436871	6.274600E+01	  0.038436871	3.131400E+01	  0.038436871	7.247500E+01
94	  0.038637273	-3.314000E+00	  0.038637273	6.071700E+01	  0.038637273	3.343300E+01	  0.038637273	7.460300E+01
95	  0.038837675	-3.370000E+00	  0.038837675	5.867300E+01	  0.038837675	3.575300E+01	  0.038837675	7.677500E+01
96	  0.039038073	-3.418000E+00	  0.039038073	5.666400E+01	  0.039038073	3.817000E+01	  0.039038073	7.898100E+01
97	  0.039238475	-3.472000E+00	  0.039238475	5.462200E+01	  0.039238475	4.088500E+01	  0.039238475	8.120700E+01
98	  0.039438877	-3.523000E+00	  0.039438877	5.260600E+01	  0.039438877	4.377700E+01	  0.039438877	8.343100E+01
99	  0.039639279	-3.581000E+00	  0.039639279	5.055600E+01	  0.039639279	4.702600E+01	  0.039639279	8.563800E+01
100	  0.039839678	-3.631000E+00	  0.039839678	4.850800E+01	  0.039839678	5.049200E+01	  0.039839678	8.788400E+01
101	  0.040040080	-3.683000E+00	  0.040040080	4.644800E+01	  0.040040080	5.430200E+01	  0.040040080	9.008500E+01
102	  0.040240481	-3.734000E+00	  0.040240481	4.439200E+01	  0.040240481	5.844000E+01	  0.040240481	9.221800E+01
103	  0.040440880	-3.786000E+00	  0.040440880	4.235400E+01	  0.040440880	6.291300E+01	  0.040440880	9.421200E+01
104	  0.040641282	-3.837000E+00	  0.040641282	4.031500E+01	  0.040641282	6.776100E+01	  0.040641282	9.608300E+01
105	  0.040841684	-3.888000E+00	  0.040841684	3.828000E+01	  0.040841684	7.301100E+01	  0.040841684	9.775000E+01
106	  0.041042086	-3.938000E+00	  0.041042086	3.623200E+01	  0.041042086	7.872900E+01	  0.041042086	9.918400E+01
107	  0.041242484	-3.990000E+00	  0.041242484	3.418100E+01	  0.041242484	8.491100E+01	  0.041242484	1.002810E+02
108	  0.041442886	-4.041000E+00	  0.041442886	3.212400E+01	  0.041442886	9.157400E+01	  0.041442886	1.009710E+02
109	  0.041643288	-4.087000E+00	  0.041643288	3.006400E+01	  0.041643288	9.868700E+01	  0.041643288	1.012820E+02
110	  0.041843686	-4.134000E+00	  0.041843686	2.799500E+01	  0.041843686	1.062920E+02	  0.041843686	1.009600E+02
111	  0.042044088	-4.180000E+00	  0.042044088	2.594100E+01	  0.042044088	1.142630E+02	  0.042044088	9.996000E+01
112	  0.042244490	-4.225000E+00	  0.042244490	2.391000E+01	  0.042244490	1.224910E+02	  0.042244490	9.814100E+01
113	  0.042444889	-4.269000E+00	  0.042444889	2.186800E+01	  0.042444889	1.310240E+02	  0.042444889	9.538800E+01
114	  0.042645290	-4.317000E+00	  0.042645290	1.983400E+01	  0.042645290	1.396200E+02	  0.042645290	9.148800E+01
115	  0.042845692	-4.360000E+00	  0.042845692	1.781400E+01	  0.042845692	1.481600E+02	  0.042845692	8.661300E+01
116	  0.043046094	-4.401000E+00	  0.043046094	1.578600E+01	  0.043046094	1.565260E+02	  0.043046094	8.053400E+01
117	  0.043246493	-4.444000E+00	  0.043246493	1.376200E+01	  0.043246493	1.643930E+02	  0.043246493	7.319300E+01
118	  0.043446895	-4.484000E+00	  0.043446895	1.176100E+01	  0.043446895	1.715280E+02	  0.043446895	6.479500E+01
119	  0.043647297	-4.524000E+00	  0.043647297	9.754000E+00	  0.043647297	1.777600E+02	  0.043647297	5.527500E+01
120	  0.043847695	-4.564000E+00	  0.043847695	7.771000E+00	  0.043847695	1.827740E+02	  0.043847695	4.493600E+01
121	  0.044048097	-4.603000E+00	  0.044048097	5.802000E+00	  0.044048097	1.864300E+02	  0.044048097	3.395200E+01
122	  0.044248499	-4.642000E+00	  0.044248499	3.838000E+00	  0.044248499	1.886340E+02	  0.044248499	2.254000E+01
123	  0.044448901	-4.679000E+00	  0.044448901	1.870000E+00	  0.044448901	1.893900E+02	  0.044448901	1.093600E+01
124	  0.044649299	-4.716000E+00	  0.044649299	-6.800000E-02	  0.044649299	1.886610E+02	  0.044649299	-3.970000E-01
125	  0.044849701	-4.756000E+00	  0.044849701	-1.999000E+00	  0.044849701	1.864100E+02	  0.044849701	-1.130300E+01
126	  0.045050103	-4.795000E+00	  0.045050103	-3.936000E+00	  0.045050103	1.829580E+02	  0.045050103	-2.163800E+01
127	  0.045250501	-4.833000E+00	  0.045250501	-5.848000E+00	  0.045250501	1.784760E+02	  0.045250501	-3.105300E+01
128	  0.045450903	-4.869000E+00	  0.045450903	-7.756000E+00	  0.045450903	1.731940E+02	  0.045450903	-3.958600E+01
129	  0.045651305	-4.906000E+00	  0.045651305	-9.677000E+00	  0.045651305	1.671870E+02	  0.045651305	-4.719900E+01
130	  0.045851704	-4.940000E+00	  0.045851704	-1.157700E+01	  0.045851704	1.608220E+02	  0.045851704	-5.379300E+01
131	  0.046052102	-4.976000E+00	  0.046052102	-1.346400E+01	  0.046052102	1.541580E+02	  0.046052102	-5.934800E+01
132	  0.046252504	-5.011000E+00	  0.046252504	-1.532400E+01	  0.046252504	1.474670E+02	  0.046252504	-6.395000E+01
133	  0.046452906	-5.049000E+00	  0.046452906	-1.720000E+01	  0.046452906	1.406410E+02	  0.046452906	-6.766500E+01
134	  0.046653304	-5.087000E+00	  0.046653304	-1.908700E+01	  0.046653304	1.338770E+02	  0.046653304	-7.063200E+01
135	  0.046853706	-5.123000E+00	  0.046853706	-2.094800E+01	  0.046853706	1.273970E+02	  0.046853706	-7.292100E+01
136	  0.047054108	-5.160000E+00	  0.047054108	-2.282000E+01	  0.047054108	1.210900E+02	  0.047054108	-7.458900E+01
137	  0.047254506	-5.195000E+00	  0.047254506	-2.467500E+01	  0.047254506	1.151040E+02	  0.047254506	-7.573600E+01
138	  0.047454908	-5.230000E+00	  0.047454908	-2.651500E+01	  0.047454908	1.094430E+02	  0.047454908	-7.643400E+01
139	  0.047655310	-5.266000E+00	  0.047655310	-2.832900E+01	  0.047655310	1.041390E+02	  0.047655310	-7.671600E+01
140	  0.047855709	-5.300000E+00	  0.047855709	-3.013100E+01	  0.047855709	9.915600E+01	  0.047855709	-7.671600E+01
141	  0.048056111	-5.333000E+00	  0.048056111	-3.192000E+01	  0.048056111	9.448800E+01	  0.048056111	-7.646800E+01
142	  0.048256513	-5.364000E+00	  0.048256513	-3.370200E+01	  0.048256513	9.010400E+01	  0.048256513	-7.603100E+01
143	  0.048456915	-5.394000E+00	  0.048456915	-3.550700E+01	  0.048456915	8.592200E+01	  0.048456915	-7.540500E+01
144	  0.048657313	-5.421000E+00	  0.048657313	-3.729700E+01	  0.048657313	8.201800E+01	  0.048657313	-7.467200E+01
145	  0.048857715	-5.452000E+00	  0.048857715	-3.907800E+01	  0.048857715	7.837200E+01	  0.048857715	-7.376800E+01
146	  0.049058117	-5.474000E+00	  0.049058117	-4.083200E+01	  0.049058117	7.498300E+01	  0.049058117	-7.286700E+01
147	  0.049258515	-5.504000E+00	  0.049258515	-4.256600E+01	  0.049258515	7.184800E+01	  0.049258515	-7.179500E+01
148	  0.049458917	-5.527000E+00	  0.049458917	-4.429400E+01	  0.049458917	6.889500E+01	  0.049458917	-7.073200E+01
149	  0.049659319	-5.552000E+00	  0.049659319	-4.599100E+01	  0.049659319	6.617000E+01	  0.049659319	-6.961000E+01
150	  0.049859721	-5.577000E+00	  0.049859721	-4.768800E+01	  0.049859721	6.360500E+01	  0.049859721	-6.844800E+01
151	  0.050060119	-5.598000E+00	  0.050060119	-4.937000E+01	  0.050060119	6.119600E+01	  0.050060119	-6.730200E+01
152	  0.050260521	-5.621000E+00	  0.050260521	-5.107100E+01	  0.050260521	5.890800E+01	  0.050260521	-6.609300E+01
153	  0.050460923	-5.641000E+00	  0.050460923	-5.276000E+01	  0.050460923	5.675200E+01	  0.050460923	-6.490700E+01
154	  0.050661322	-5.655000E+00	  0.050661322	-5.440600E+01	  0.050661322	5.474900E+01	  0.050661322	-6.377400E+01
155	  0.050861724	-5.674000E+00	  0.050861724	-5.604700E+01	  0.050861724	5.288200E+01	  0.050861724	-6.259300E+01
156	  0.051062126	-5.698000E+00	  0.051062126	-5.768300E+01	  0.051062126	5.114000E+01	  0.051062126	-6.137800E+01
157	  0.051262524	-5.716000E+00	  0.051262524	-5.928700E+01	  0.051262524	4.950500E+01	  0.051262524	-6.022200E+01
158	  0.051462926	-5.737000E+00	  0.051462926	-6.090100E+01	  0.051462926	4.795400E+01	  0.051462926	-5.904900E+01
159	  0.051663328	-5.751000E+00	  0.051663328	-6.246900E+01	  0.051663328	4.650100E+01	  0.051663328	-5.794900E+01
160	  0.051863730	-5.769000E+00	  0.051863730	-6.406500E+01	  0.051863730	4.511600E+01	  0.051863730	-5.680900E+01
161	  0.052064128	-5.780000E+00	  0.052064128	-6.564900E+01	  0.052064128	4.377700E+01	  0.052064128	-5.572800E+01
162	  0.052264530	-5.798000E+00	  0.052264530	-6.722000E+01	  0.052264530	4.254900E+01	  0.052264530	-5.461800E+01
163	  0.052464932	-5.812000E+00	  0.052464932	-6.878000E+01	  0.052464932	4.137200E+01	  0.052464932	-5.354700E+01
164	  0.052665330	-5.829000E+00	  0.052665330	-7.030200E+01	  0.052665330	4.029300E+01	  0.052665330	-5.249600E+01
165	  0.052865732	-5.842000E+00	  0.052865732	-7.184700E+01	  0.052865732	3.923300E+01	  0.052865732	-5.145700E+01
166	  0.053066134	-5.859000E+00	  0.053066134	-7.336000E+01	  0.053066134	3.826100E+01	  0.053066134	-5.043100E+01
167	  0.053266536	-5.874000E+00	  0.053266536	-7.487000E+01	  0.053266536	3.732700E+01	  0.053266536	-4.942700E+01
168	  0.053466935	-5.887000E+00	  0.053466935	-7.637100E+01	  0.053466935	3.643800E+01	  0.053466935	-4.844300E+01
169	  0.053667337	-5.899000E+00	  0.053667337	-7.788200E+01	  0.053667337	3.557500E+01	  0.053667337	-4.747200E+01
170	  0.053867739	-5.908000E+00	  0.053867739	-7.938400E+01	  0.053867739	3.474200E+01	  0.053867739	-4.653000E+01
171	  0.054068137	-5.921000E+00	  0.054068137	-8.086300E+01	  0.054068137	3.397700E+01	  0.054068137	-4.559400E+01
172	  0.054268539	-5.931000E+00	  0.054268539	-8.233600E+01	  0.054268539	3.323600E+01	  0.054268539	-4.468300E+01
173	  0.054468941	-5.938000E+00	  0.054468941	-8.379000E+01	  0.054468941	3.252600E+01	  0.054468941	-4.380200E+01
174	  0.054669335	-5.952000E+00	  0.054669335	-8.523400E+01	  0.054669335	3.187600E+01	  0.054669335	-4.291400E+01
175	  0.054869737	-5.963000E+00	  0.054869737	-8.666700E+01	  0.054869737	3.124700E+01	  0.054869737	-4.205300E+01
176	  0.055070139	-5.972000E+00	  0.055070139	-8.810600E+01	  0.055070139	3.063500E+01	  0.055070139	-4.120200E+01
177	  0.055270538	-5.981000E+00	  0.055270538	-8.951600E+01	  0.055270538	3.005900E+01	  0.055270538	-4.037900E+01
178	  0.055470940	-5.988000E+00	  0.055470940	-9.092500E+01	  0.055470940	2.950000E+01	  0.055470940	-3.956900E+01
179	  0.055671342	-5.993000E+00	  0.055671342	-9.234100E+01	  0.055671342	2.895000E+01	  0.055671342	-3.877200E+01
180	  0.055871744	-5.997000E+00	  0.055871744	-9.373300E+01	  0.055871744	2.843000E+01	  0.055871744	-3.799600E+01
181	  0.056072142	-6.008000E+00	  0.056072142	-9.513300E+01	  0.056072142	2.795400E+01	  0.056072142	-3.720600E+01
182	  0.056272544	-6.012000E+00	  0.056272544	-9.650700E+01	  0.056272544	2.747600E+01	  0.056272544	-3.645700E+01
183	  0.056472946	-6.018000E+00	  0.056472946	-9.785400E+01	  0.056472946	2.703400E+01	  0.056472946	-3.572500E+01
184	  0.056673344	-6.025000E+00	  0.056673344	-9.918500E+01	  0.056673344	2.662000E+01	  0.056673344	-3.500400E+01
185	  0.056873746	-6.028000E+00	  0.056873746	-1.005120E+02	  0.056873746	2.620700E+01	  0.056873746	-3.430100E+01
186	  0.057074148	-6.033000E+00	  0.057074148	-1.018590E+02	  0.057074148	2.580700E+01	  0.057074148	-3.359300E+01
187	  0.057274550	-6.038000E+00	  0.057274550	-1.032010E+02	  0.057274550	2.542600E+01	  0.057274550	-3.289200E+01
188	  0.057474948	-6.042000E+00	  0.057474948	-1.045440E+02	  0.057474948	2.505600E+01	  0.057474948	-3.219900E+01
189	  0.057675350	-6.049000E+00	  0.057675350	-1.058370E+02	  0.057675350	2.472100E+01	  0.057675350	-3.153300E+01
190	  0.057875752	-6.054000E+00	  0.057875752	-1.071650E+02	  0.057875752	2.438100E+01	  0.057875752	-3.085900E+01
191	  0.058076151	-6.059000E+00	  0.058076151	-1.084540E+02	  0.058076151	2.406400E+01	  0.058076151	-3.021100E+01
192	  0.058276553	-6.059000E+00	  0.058276553	-1.097400E+02	  0.058276553	2.374500E+01	  0.058276553	-2.957600E+01
193	  0.058476955	-6.062000E+00	  0.058476955	-1.110020E+02	  0.058476955	2.345000E+01	  0.058476955	-2.895500E+01
194	  0.058677353	-6.067000E+00	  0.058677353	-1.123150E+02	  0.058677353	2.316000E+01	  0.058677353	-2.831100E+01
195	  0.058877755	-6.073000E+00	  0.058877755	-1.135980E+02	  0.058877755	2.288900E+01	  0.058877755	-2.768600E+01
196	  0.059078157	-6.072000E+00	  0.059078157	-1.148600E+02	  0.059078157	2.261100E+01	  0.059078157	-2.708600E+01
197	  0.059278559	-6.074000E+00	  0.059278559	-1.161230E+02	  0.059278559	2.235400E+01	  0.059278559	-2.648400E+01
198	  0.059478957	-6.080000E+00	  0.059478957	-1.173910E+02	  0.059478957	2.211400E+01	  0.059478957	-2.588100E+01
199	  0.059679359	-6.079000E+00	  0.059679359	-1.186520E+02	  0.059679359	2.186200E+01	  0.059679359	-2.529500E+01
200	  0.059879761	-6.082000E+00	  0.059879761	-1.198960E+02	  0.059879761	2.163700E+01	  0.059879761	-2.471500E+01
201	  0.060080159	-6.084000E+00	  0.060080159	-1.211180E+02	  0.060080159	2.141900E+01	  0.060080159	-2.415000E+01
202	  0.060280561	-6.086000E+00	  0.060280561	-1.223630E+02	  0.060280561	2.120200E+01	  0.060280561	-2.358100E+01
203	  0.060480963	-6.089000E+00	  0.060480963	-1.235860E+02	  0.060480963	2.100200E+01	  0.060480963	-2.302200E+01
204	  0.060681365	-6.090000E+00	  0.060681365	-1.248010E+02	  0.060681365	2.080200E+01	  0.060681365	-2.247500E+01
205	  0.060881764	-6.086000E+00	  0.060881764	-1.260380E+02	  0.060881764	2.059400E+01	  0.060881764	-2.192400E+01
206	  0.061082166	-6.088000E+00	  0.061082166	-1.272510E+02	  0.061082166	2.041000E+01	  0.061082166	-2.138300E+01
207	  0.061282568	-6.086000E+00	  0.061282568	-1.284650E+02	  0.061282568	2.022200E+01	  0.061282568	-2.084900E+01
208	  0.061482966	-6.083000E+00	  0.061482966	-1.296480E+02	  0.061482966	2.004300E+01	  0.061482966	-2.033100E+01
209	  0.061683368	-6.086000E+00	  0.061683368	-1.308380E+02	  0.061683368	1.988600E+01	  0.061683368	-1.980800E+01
210	  0.061883770	-6.084000E+00	  0.061883770	-1.319880E+02	  0.061883770	1.972400E+01	  0.061883770	-1.931000E+01
211	  0.062084168	-6.081000E+00	  0.062084168	-1.331570E+02	  0.062084168	1.956300E+01	  0.062084168	-1.880700E+01
212	  0.062284570	-6.078000E+00	  0.062284570	-1.343520E+02	  0.062284570	1.940200E+01	  0.062284570	-1.829600E+01
213	  0.062484972	-6.069000E+00	  0.062484972	-1.354560E+02	  0.062484972	1.924300E+01	  0.062484972	-1.783000E+01
214	  0.062685370	-6.069000E+00	  0.062685370	-1.366280E+02	  0.062685370	1.910500E+01	  0.062685370	-1.733100E+01
215	  0.062885776	-6.067000E+00	  0.062885776	-1.377550E+02	  0.062885776	1.897100E+01	  0.062885776	-1.685500E+01
216	  0.063086174	-6.065000E+00	  0.063086174	-1.388840E+02	  0.063086174	1.884400E+01	  0.063086174	-1.637900E+01
217	  0.063286573	-6.064000E+00	  0.063286573	-1.400260E+02	  0.063286573	1.871900E+01	  0.063286573	-1.590000E+01
218	  0.063486971	-6.060000E+00	  0.063486971	-1.411270E+02	  0.063486971	1.859600E+01	  0.063486971	-1.544200E+01
219	  0.063687377	-6.060000E+00	  0.063687377	-1.422170E+02	  0.063687377	1.848700E+01	  0.063687377	-1.498800E+01
220	  0.063887775	-6.052000E+00	  0.063887775	-1.433620E+02	  0.063887775	1.835800E+01	  0.063887775	-1.451700E+01
221	  0.064088173	-6.056000E+00	  0.064088173	-1.444520E+02	  0.064088173	1.826900E+01	  0.064088173	-1.406500E+01
222	  0.064288579	-6.055000E+00	  0.064288579	-1.455730E+02	  0.064288579	1.816900E+01	  0.064288579	-1.360300E+01
223	  0.064488977	-6.059000E+00	  0.064488977	-1.466470E+02	  0.064488977	1.808700E+01	  0.064488977	-1.316100E+01
224	  0.064689375	-6.054000E+00	  0.064689375	-1.477480E+02	  0.064689375	1.798600E+01	  0.064689375	-1.271300E+01
225	  0.064889781	-6.053000E+00	  0.064889781	-1.488450E+02	  0.064889781	1.789700E+01	  0.064889781	-1.226700E+01
226	  0.065090179	-6.055000E+00	  0.065090179	-1.499400E+02	  0.065090179	1.781900E+01	  0.065090179	-1.182100E+01
227	  0.065290578	-6.054000E+00	  0.065290578	-1.510430E+02	  0.065290578	1.773600E+01	  0.065290578	-1.137600E+01
228	  0.065490983	-6.054000E+00	  0.065490983	-1.521150E+02	  0.065490983	1.766400E+01	  0.065490983	-1.094300E+01
229	  0.065691382	-6.054000E+00	  0.065691382	-1.532080E+02	  0.065691382	1.759100E+01	  0.065691382	-1.050400E+01
230	  0.065891780	-6.055000E+00	  0.065891780	-1.542730E+02	  0.065891780	1.752800E+01	  0.065891780	-1.007600E+01
231	  0.066092186	-6.053000E+00	  0.066092186	-1.553580E+02	  0.066092186	1.745600E+01	  0.066092186	-9.643000E+00
232	  0.066292584	-6.051000E+00	  0.066292584	-1.564710E+02	  0.066292584	1.738700E+01	  0.066292584	-9.200000E+00
233	  0.066492982	-6.047000E+00	  0.066492982	-1.575360E+02	  0.066492982	1.732000E+01	  0.066492982	-8.777000E+00
234	  0.066693388	-6.052000E+00	  0.066693388	-1.586060E+02	  0.066693388	1.727700E+01	  0.066693388	-8.351000E+00
235	  0.066893786	-6.054000E+00	  0.066893786	-1.596680E+02	  0.066893786	1.722800E+01	  0.066893786	-7.930000E+00
236	  0.067094192	-6.052000E+00	  0.067094192	-1.607450E+02	  0.067094192	1.717400E+01	  0.067094192	-7.505000E+00
237	  0.067294590	-6.049000E+00	  0.067294590	-1.617980E+02	  0.067294590	1.711900E+01	  0.067294590	-7.091000E+00
238	  0.067494988	-6.045000E+00	  0.067494988	-1.628660E+02	  0.067494988	1.706700E+01	  0.067494988	-6.671000E+00
239	  0.067695394	-6.046000E+00	  0.067695394	-1.639130E+02	  0.067695394	1.702900E+01	  0.067695394	-6.260000E+00
240	  0.067895792	-6.045000E+00	  0.067895792	-1.649710E+02	  0.067895792	1.698900E+01	  0.067895792	-5.845000E+00
241	  0.068096191	-6.040000E+00	  0.068096191	-1.660150E+02	  0.068096191	1.694000E+01	  0.068096191	-5.437000E+00
242	  0.068296596	-6.039000E+00	  0.068296596	-1.670690E+02	  0.068296596	1.690500E+01	  0.068296596	-5.025000E+00
243	  0.068496995	-6.041000E+00	  0.068496995	-1.681080E+02	  0.068496995	1.688100E+01	  0.068496995	-4.619000E+00
244	  0.068697393	-6.036000E+00	  0.068697393	-1.691480E+02	  0.068697393	1.684100E+01	  0.068697393	-4.214000E+00
245	  0.068897791	-6.033000E+00	  0.068897791	-1.701630E+02	  0.068897791	1.681000E+01	  0.068897791	-3.819000E+00
246	  0.069098189	-6.031000E+00	  0.069098189	-1.711910E+02	  0.069098189	1.678200E+01	  0.069098189	-3.419000E+00
247	  0.069298595	-6.029000E+00	  0.069298595	-1.721950E+02	  0.069298595	1.675700E+01	  0.069298595	-3.029000E+00
248	  0.069498993	-6.025000E+00	  0.069498993	-1.732480E+02	  0.069498993	1.672900E+01	  0.069498993	-2.619000E+00
249	  0.069699399	-6.028000E+00	  0.069699399	-1.742490E+02	  0.069699399	1.672300E+01	  0.069699399	-2.231000E+00
250	  0.069899797	-6.026000E+00	  0.069899797	-1.752370E+02	  0.069899797	1.670700E+01	  0.069899797	-1.847000E+00
251	  0.070100196	-6.026000E+00	  0.070100196	-1.762290E+02	  0.070100196	1.669700E+01	  0.070100196	-1.462000E+00
252	  0.070300601	-6.028000E+00	  0.070300601	-1.772360E+02	  0.070300601	1.669600E+01	  0.070300601	-1.071000E+00
253	  0.070501000	-6.027000E+00	  0.070501000	-1.782090E+02	  0.070501000	1.668600E+01	  0.070501000	-6.940000E-01
254	  0.070701398	-6.027000E+00	  0.070701398	-1.791920E+02	  0.070701398	1.668500E+01	  0.070701398	-3.130000E-01
255	  0.070901804	-6.030000E+00	  0.070901804	1.798090E+02	  0.070901804	1.669100E+01	  0.070901804	7.300000E-02
256	  0.071102202	-6.032000E+00	  0.071102202	1.788160E+02	  0.071102202	1.669800E+01	  0.071102202	4.580000E-01
257	  0.071302600	-6.032000E+00	  0.071302600	1.778320E+02	  0.071302600	1.670300E+01	  0.071302600	8.400000E-01
258	  0.071503006	-6.039000E+00	  0.071503006	1.768630E+02	  0.071503006	1.672400E+01	  0.071503006	1.215000E+00
259	  0.071703404	-6.040000E+00	  0.071703404	1.758870E+02	  0.071703404	1.673600E+01	  0.071703404	1.594000E+00
260	  0.071903802	-6.046000E+00	  0.071903802	1.748840E+02	  0.071903802	1.676100E+01	  0.071903802	1.982000E+00
261	  0.072104208	-6.052000E+00	  0.072104208	1.739180E+02	  0.072104208	1.678900E+01	  0.072104208	2.357000E+00
262	  0.072304606	-6.052000E+00	  0.072304606	1.729420E+02	  0.072304606	1.680300E+01	  0.072304606	2.736000E+00
263	  0.072505005	-6.055000E+00	  0.072505005	1.719720E+02	  0.072505005	1.682900E+01	  0.072505005	3.112000E+00
264	  0.072705410	-6.062000E+00	  0.072705410	1.709720E+02	  0.072705410	1.686700E+01	  0.072705410	3.500000E+00
265	  0.072905809	-6.066000E+00	  0.072905809	1.699910E+02	  0.072905809	1.689800E+01	  0.072905809	3.881000E+00
266	  0.073106214	-6.078000E+00	  0.073106214	1.690080E+02	  0.073106214	1.695100E+01	  0.073106214	4.262000E+00
267	  0.073306613	-6.081000E+00	  0.073306613	1.680150E+02	  0.073306613	1.698700E+01	  0.073306613	4.648000E+00
268	  0.073507011	-6.088000E+00	  0.073507011	1.670450E+02	  0.073507011	1.703100E+01	  0.073507011	5.025000E+00
269	  0.073707417	-6.093000E+00	  0.073707417	1.660530E+02	  0.073707417	1.707600E+01	  0.073707417	5.411000E+00
270	  0.073907815	-6.097000E+00	  0.073907815	1.650940E+02	  0.073907815	1.711900E+01	  0.073907815	5.785000E+00
271	  0.074108213	-6.105000E+00	  0.074108213	1.641160E+02	  0.074108213	1.717300E+01	  0.074108213	6.166000E+00
272	  0.074308619	-6.110000E+00	  0.074308619	1.631580E+02	  0.074308619	1.722300E+01	  0.074308619	6.540000E+00
273	  0.074509017	-6.115000E+00	  0.074509017	1.621870E+02	  0.074509017	1.727600E+01	  0.074509017	6.919000E+00
274	  0.074709415	-6.121000E+00	  0.074709415	1.612370E+02	  0.074709415	1.733200E+01	  0.074709415	7.291000E+00
275	  0.074909821	-6.129000E+00	  0.074909821	1.602810E+02	  0.074909821	1.739700E+01	  0.074909821	7.664000E+00
276	  0.075110219	-6.137000E+00	  0.075110219	1.593570E+02	  0.075110219	1.746100E+01	  0.075110219	8.026000E+00
277	  0.075310618	-6.142000E+00	  0.075310618	1.584090E+02	  0.075310618	1.752200E+01	  0.075310618	8.398000E+00
278	  0.075511023	-6.152000E+00	  0.075511023	1.575030E+02	  0.075511023	1.759500E+01	  0.075511023	8.753000E+00
279	  0.075711422	-6.156000E+00	  0.075711422	1.566120E+02	  0.075711422	1.765400E+01	  0.075711422	9.105000E+00
280	  0.075911827	-6.163000E+00	  0.075911827	1.556600E+02	  0.075911827	1.772600E+01	  0.075911827	9.480000E+00
281	  0.076112226	-6.174000E+00	  0.076112226	1.547560E+02	  0.076112226	1.781000E+01	  0.076112226	9.835000E+00
282	  0.076312624	-6.183000E+00	  0.076312624	1.538440E+02	  0.076312624	1.789000E+01	  0.076312624	1.019400E+01
283	  0.076513030	-6.194000E+00	  0.076513030	1.529450E+02	  0.076513030	1.797900E+01	  0.076513030	1.054800E+01
284	  0.076713428	-6.205000E+00	  0.076713428	1.520520E+02	  0.076713428	1.806600E+01	  0.076713428	1.090100E+01
285	  0.076913826	-6.217000E+00	  0.076913826	1.511540E+02	  0.076913826	1.816100E+01	  0.076913826	1.125500E+01
286	  0.077114232	-6.227000E+00	  0.077114232	1.502620E+02	  0.077114232	1.825400E+01	  0.077114232	1.160800E+01
287	  0.077314630	-6.239000E+00	  0.077314630	1.494040E+02	  0.077314630	1.834900E+01	  0.077314630	1.194700E+01
288	  0.077515028	-6.255000E+00	  0.077515028	1.485310E+02	  0.077515028	1.846100E+01	  0.077515028	1.229000E+01
289	  0.077715434	-6.270000E+00	  0.077715434	1.476390E+02	  0.077715434	1.857300E+01	  0.077715434	1.264200E+01
290	  0.077915832	-6.286000E+00	  0.077915832	1.467610E+02	  0.077915832	1.868700E+01	  0.077915832	1.298900E+01
291	  0.078116231	-6.299000E+00	  0.078116231	1.458910E+02	  0.078116231	1.879600E+01	  0.078116231	1.333400E+01
292	  0.078316636	-6.312000E+00	  0.078316636	1.450100E+02	  0.078316636	1.891000E+01	  0.078316636	1.368400E+01
293	  0.078517035	-6.333000E+00	  0.078517035	1.441140E+02	  0.078517035	1.904800E+01	  0.078517035	1.403600E+01
294	  0.078717433	-6.350000E+00	  0.078717433	1.432410E+02	  0.078717433	1.917900E+01	  0.078717433	1.438100E+01
295	  0.078917839	-6.367000E+00	  0.078917839	1.423840E+02	  0.078917839	1.930700E+01	  0.078917839	1.472100E+01
296	  0.079118237	-6.383000E+00	  0.079118237	1.415300E+02	  0.079118237	1.943700E+01	  0.079118237	1.505900E+01
297	  0.079318643	-6.403000E+00	  0.079318643	1.406690E+02	  0.079318643	1.958000E+01	  0.079318643	1.539900E+01
298	  0.079519041	-6.421000E+00	  0.079519041	1.397960E+02	  0.079519041	1.972100E+01	  0.079519041	1.574600E+01
299	  0.079719439	-6.437000E+00	  0.079719439	1.389390E+02	  0.079719439	1.985900E+01	  0.079719439	1.608800E+01
300	  0.079919845	-6.454000E+00	  0.079919845	1.380490E+02	  0.079919845	2.000700E+01	  0.079919845	1.644200E+01
301	  0.080120243	-6.472000E+00	  0.080120243	1.371910E+02	  0.080120243	2.015700E+01	  0.080120243	1.678400E+01
302	  0.080320641	-6.488000E+00	  0.080320641	1.363210E+02	  0.080320641	2.030500E+01	  0.080320641	1.713200E+01
303	  0.080521047	-6.506000E+00	  0.080521047	1.354910E+02	  0.080521047	2.045500E+01	  0.080521047	1.746300E+01
304	  0.080721445	-6.524000E+00	  0.080721445	1.346450E+02	  0.080721445	2.061300E+01	  0.080721445	1.780100E+01
305	  0.080921844	-6.544000E+00	  0.080921844	1.337990E+02	  0.080921844	2.077600E+01	  0.080921844	1.813800E+01
306	  0.081122249	-6.562000E+00	  0.081122249	1.329890E+02	  0.081122249	2.093500E+01	  0.081122249	1.846100E+01
307	  0.081322648	-6.577000E+00	  0.081322648	1.321430E+02	  0.081322648	2.109100E+01	  0.081322648	1.880200E+01
308	  0.081523046	-6.592000E+00	  0.081523046	1.313080E+02	  0.081523046	2.125000E+01	  0.081523046	1.914000E+01
309	  0.081723452	-6.608000E+00	  0.081723452	1.304750E+02	  0.081723452	2.141500E+01	  0.081723452	1.947600E+01
310	  0.081923850	-6.622000E+00	  0.081923850	1.296900E+02	  0.081923850	2.156900E+01	  0.081923850	1.979500E+01
311	  0.082124248	-6.642000E+00	  0.082124248	1.288760E+02	  0.082124248	2.174800E+01	  0.082124248	2.012000E+01
312	  0.082324654	-6.658000E+00	  0.082324654	1.280740E+02	  0.082324654	2.191600E+01	  0.082324654	2.044500E+01
313	  0.082525052	-6.676000E+00	  0.082525052	1.273010E+02	  0.082525052	2.209000E+01	  0.082525052	2.075500E+01
314	  0.082725458	-6.693000E+00	  0.082725458	1.265650E+02	  0.082725458	2.225600E+01	  0.082725458	2.105100E+01
315	  0.082925856	-6.715000E+00	  0.082925856	1.257840E+02	  0.082925856	2.244800E+01	  0.082925856	2.136100E+01
316	  0.083126254	-6.733000E+00	  0.083126254	1.249960E+02	  0.083126254	2.263300E+01	  0.083126254	2.167800E+01
317	  0.083326660	-6.753000E+00	  0.083326660	1.242320E+02	  0.083326660	2.282000E+01	  0.083326660	2.198400E+01
318	  0.083527058	-6.771000E+00	  0.083527058	1.234970E+02	  0.083527058	2.300300E+01	  0.083527058	2.227900E+01
319	  0.083727457	-6.798000E+00	  0.083727457	1.227160E+02	  0.083727457	2.322100E+01	  0.083727457	2.258300E+01
320	  0.083927862	-6.817000E+00	  0.083927862	1.219510E+02	  0.083927862	2.341700E+01	  0.083927862	2.289000E+01
321	  0.084128261	-6.839000E+00	  0.084128261	1.212030E+02	  0.084128261	2.362100E+01	  0.084128261	2.318600E+01
322	  0.084328659	-6.863000E+00	  0.084328659	1.205010E+02	  0.084328659	2.382600E+01	  0.084328659	2.345900E+01
323	  0.084529065	-6.890000E+00	  0.084529065	1.197370E+02	  0.084529065	2.405300E+01	  0.084529065	2.375500E+01
324	  0.084729463	-6.912000E+00	  0.084729463	1.189870E+02	  0.084729463	2.426700E+01	  0.084729463	2.405200E+01
325	  0.084929854	-6.939000E+00	  0.084929854	1.182150E+02	  0.084929854	2.450400E+01	  0.084929854	2.435100E+01
326	  0.085130259	-6.963000E+00	  0.085130259	1.174570E+02	  0.085130259	2.473200E+01	  0.085130259	2.464800E+01
327	  0.085330658	-6.989000E+00	  0.085330658	1.167080E+02	  0.085330658	2.496700E+01	  0.085330658	2.493700E+01
328	  0.085531056	-7.014000E+00	  0.085531056	1.159580E+02	  0.085531056	2.520300E+01	  0.085531056	2.522900E+01
329	  0.085731462	-7.038000E+00	  0.085731462	1.151880E+02	  0.085731462	2.544600E+01	  0.085731462	2.552900E+01
330	  0.085931860	-7.065000E+00	  0.085931860	1.144330E+02	  0.085931860	2.569600E+01	  0.085931860	2.581900E+01
331	  0.086132258	-7.097000E+00	  0.086132258	1.137170E+02	  0.086132258	2.595800E+01	  0.086132258	2.608200E+01
332	  0.086332664	-7.120000E+00	  0.086332664	1.129580E+02	  0.086332664	2.620600E+01	  0.086332664	2.637800E+01
333	  0.086533062	-7.150000E+00	  0.086533062	1.121860E+02	  0.086533062	2.647900E+01	  0.086533062	2.666800E+01
334	  0.086733460	-7.177000E+00	  0.086733460	1.114220E+02	  0.086733460	2.674600E+01	  0.086733460	2.695900E+01
335	  0.086933866	-7.202000E+00	  0.086933866	1.106520E+02	  0.086933866	2.701600E+01	  0.086933866	2.725400E+01
336	  0.087134264	-7.231000E+00	  0.087134264	1.099270E+02	  0.087134264	2.728800E+01	  0.087134264	2.752200E+01
337	  0.087334670	-7.256000E+00	  0.087334670	1.091690E+02	  0.087334670	2.756100E+01	  0.087334670	2.781100E+01
338	  0.087535068	-7.286000E+00	  0.087535068	1.084540E+02	  0.087535068	2.784100E+01	  0.087535068	2.807200E+01
339	  0.087735467	-7.313000E+00	  0.087735467	1.077020E+02	  0.087735467	2.812700E+01	  0.087735467	2.835200E+01
340	  0.087935872	-7.347000E+00	  0.087935872	1.069830E+02	  0.087935872	2.842700E+01	  0.087935872	2.860400E+01
341	  0.088136271	-7.373000E+00	  0.088136271	1.062590E+02	  0.088136271	2.871000E+01	  0.088136271	2.887200E+01
342	  0.088336669	-7.397000E+00	  0.088336669	1.055430E+02	  0.088336669	2.898900E+01	  0.088336669	2.913900E+01
343	  0.088537075	-7.426000E+00	  0.088537075	1.048290E+02	  0.088537075	2.928500E+01	  0.088537075	2.939500E+01
344	  0.088737473	-7.451000E+00	  0.088737473	1.041290E+02	  0.088737473	2.956800E+01	  0.088737473	2.965200E+01
345	  0.088937871	-7.484000E+00	  0.088937871	1.034470E+02	  0.088937871	2.987400E+01	  0.088937871	2.988300E+01
346	  0.089138277	-7.512000E+00	  0.089138277	1.028310E+02	  0.089138277	3.015000E+01	  0.089138277	3.009200E+01
347	  0.089338675	-7.542000E+00	  0.089338675	1.022020E+02	  0.089338675	3.043600E+01	  0.089338675	3.030300E+01
348	  0.089539073	-7.571000E+00	  0.089539073	1.015900E+02	  0.089539073	3.071800E+01	  0.089539073	3.050700E+01
349	  0.089739479	-7.603000E+00	  0.089739479	1.009470E+02	  0.089739479	3.102100E+01	  0.089739479	3.071600E+01
350	  0.089939877	-7.636000E+00	  0.089939877	1.003440E+02	  0.089939877	3.131800E+01	  0.089939877	3.090400E+01
351	  0.090140276	-7.657000E+00	  0.090140276	9.974600E+01	  0.090140276	3.158000E+01	  0.090140276	3.111500E+01
352	  0.090340681	-7.692000E+00	  0.090340681	9.915700E+01	  0.090340681	3.188400E+01	  0.090340681	3.128800E+01
353	  0.090541080	-7.719000E+00	  0.090541080	9.860200E+01	  0.090541080	3.215600E+01	  0.090541080	3.146300E+01
354	  0.090741485	-7.753000E+00	  0.090741485	9.805500E+01	  0.090741485	3.244500E+01	  0.090741485	3.161800E+01
355	  0.090941884	-7.780000E+00	  0.090941884	9.746200E+01	  0.090941884	3.273500E+01	  0.090941884	3.180700E+01
356	  0.091142282	-7.816000E+00	  0.091142282	9.695100E+01	  0.091142282	3.302200E+01	  0.091142282	3.193800E+01
357	  0.091342688	-7.846000E+00	  0.091342688	9.636200E+01	  0.091342688	3.332500E+01	  0.091342688	3.211300E+01
358	  0.091543086	-7.873000E+00	  0.091543086	9.575900E+01	  0.091543086	3.362600E+01	  0.091543086	3.230200E+01
359	  0.091743484	-7.909000E+00	  0.091743484	9.522900E+01	  0.091743484	3.392900E+01	  0.091743484	3.243300E+01
360	  0.091943890	-7.934000E+00	  0.091943890	9.467200E+01	  0.091943890	3.421500E+01	  0.091943890	3.260100E+01
361	  0.092144288	-7.968000E+00	  0.092144288	9.407900E+01	  0.092144288	3.453900E+01	  0.092144288	3.276200E+01
362	  0.092344686	-7.985000E+00	  0.092344686	9.350500E+01	  0.092344686	3.481400E+01	  0.092344686	3.295500E+01
363	  0.092545092	-8.023000E+00	  0.092545092	9.295800E+01	  0.092545092	3.513700E+01	  0.092545092	3.308100E+01
364	  0.092745490	-8.046000E+00	  0.092745490	9.236700E+01	  0.092745490	3.544200E+01	  0.092745490	3.326100E+01
365	  0.092945889	-8.079000E+00	  0.092945889	9.180800E+01	  0.092945889	3.576200E+01	  0.092945889	3.339900E+01
366	  0.093146294	-8.101000E+00	  0.093146294	9.122500E+01	  0.093146294	3.606500E+01	  0.093146294	3.357600E+01
367	  0.093346693	-8.129000E+00	  0.093346693	9.066500E+01	  0.093346693	3.638100E+01	  0.093346693	3.372200E+01
368	  0.093547091	-8.155000E+00	  0.093547091	9.005400E+01	  0.093547091	3.671400E+01	  0.093547091	3.389400E+01
369	  0.093747497	-8.186000E+00	  0.093747497	8.947100E+01	  0.093747497	3.704800E+01	  0.093747497	3.404000E+01
370	  0.093947895	-8.206000E+00	  0.093947895	8.886200E+01	  0.093947895	3.737300E+01	  0.093947895	3.422300E+01
371	  0.094148301	-8.236000E+00	  0.094148301	8.829000E+01	  0.094148301	3.770700E+01	  0.094148301	3.436100E+01
372	  0.094348699	-8.260000E+00	  0.094348699	8.772400E+01	  0.094348699	3.802700E+01	  0.094348699	3.451100E+01
373	  0.094549097	-8.291000E+00	  0.094549097	8.715200E+01	  0.094549097	3.837100E+01	  0.094549097	3.463900E+01
374	  0.094749503	-8.315000E+00	  0.094749503	8.657100E+01	  0.094749503	3.870400E+01	  0.094749503	3.479000E+01
375	  0.094949901	-8.343000E+00	  0.094949901	8.600800E+01	  0.094949901	3.904000E+01	  0.094949901	3.492100E+01
376	  0.095150299	-8.368000E+00	  0.095150299	8.547500E+01	  0.095150299	3.935900E+01	  0.095150299	3.504400E+01
377	  0.095350705	-8.395000E+00	  0.095350705	8.487800E+01	  0.095350705	3.971500E+01	  0.095350705	3.518600E+01
378	  0.095551103	-8.420000E+00	  0.095551103	8.435200E+01	  0.095551103	4.003600E+01	  0.095551103	3.530100E+01
379	  0.095751502	-8.447000E+00	  0.095751502	8.383800E+01	  0.095751502	4.035700E+01	  0.095751502	3.540300E+01
380	  0.095951907	-8.474000E+00	  0.095951907	8.331100E+01	  0.095951907	4.068600E+01	  0.095951907	3.551000E+01
381	  0.096152306	-8.505000E+00	  0.096152306	8.279900E+01	  0.096152306	4.102200E+01	  0.096152306	3.559200E+01
382	  0.096352704	-8.527000E+00	  0.096352704	8.233500E+01	  0.096352704	4.131200E+01	  0.096352704	3.568700E+01
383	  0.096553110	-8.552000E+00	  0.096553110	8.185300E+01	  0.096553110	4.162100E+01	  0.096553110	3.577300E+01
384	  0.096753508	-8.576000E+00	  0.096753508	8.139800E+01	  0.096753508	4.191300E+01	  0.096753508	3.585600E+01
385	  0.096953906	-8.608000E+00	  0.096953906	8.095900E+01	  0.096953906	4.221900E+01	  0.096953906	3.589800E+01
386	  0.097154312	-8.635000E+00	  0.097154312	8.051400E+01	  0.097154312	4.251700E+01	  0.097154312	3.595900E+01
387	  0.097354710	-8.660000E+00	  0.097354710	8.003200E+01	  0.097354710	4.283400E+01	  0.097354710	3.603500E+01
388	  0.097555116	-8.688000E+00	  0.097555116	7.966800E+01	  0.097555116	4.309200E+01	  0.097555116	3.606100E+01
389	  0.097755514	-8.712000E+00	  0.097755514	7.924500E+01	  0.097755514	4.337600E+01	  0.097755514	3.611700E+01
390	  0.097955912	-8.739000E+00	  0.097955912	7.883100E+01	  0.097955912	4.366400E+01	  0.097955912	3.615600E+01
391	  0.098156318	-8.769000E+00	  0.098156318	7.846100E+01	  0.098156318	4.393300E+01	  0.098156318	3.617000E+01
392	  0.098356716	-8.791000E+00	  0.098356716	7.804600E+01	  0.098356716	4.421200E+01	  0.098356716	3.622200E+01
393	  0.098557115	-8.821000E+00	  0.098557115	7.766200E+01	  0.098557115	4.449000E+01	  0.098557115	3.623800E+01
394	  0.098757520	-8.842000E+00	  0.098757520	7.725400E+01	  0.098757520	4.476400E+01	  0.098757520	3.628900E+01
395	  0.098957919	-8.867000E+00	  0.098957919	7.688300E+01	  0.098957919	4.502900E+01	  0.098957919	3.631000E+01
396	  0.099158317	-8.890000E+00	  0.099158317	7.648500E+01	  0.099158317	4.530400E+01	  0.099158317	3.634600E+01
397	  0.099358723	-8.911000E+00	  0.099358723	7.611500E+01	  0.099358723	4.555800E+01	  0.099358723	3.638300E+01
398	  0.099559121	-8.933000E+00	  0.099559121	7.571600E+01	  0.099559121	4.583600E+01	  0.099559121	3.641600E+01
399	  0.099759519	-8.956000E+00	  0.099759519	7.533200E+01	  0.099759519	4.610400E+01	  0.099759519	3.644500E+01
400	  0.099959925	-8.980000E+00	  0.099959925	7.492900E+01	  0.099959925	4.638800E+01	  0.099959925	3.647100E+01
401	  0.100160323	-8.989000E+00	  0.100160323	7.456800E+01	  0.100160323	4.661900E+01	  0.100160323	3.654200E+01
402	  0.100360721	-9.004000E+00	  0.100360721	7.416700E+01	  0.100360721	4.688800E+01	  0.100360721	3.659600E+01
403	  0.100561127	-9.018000E+00	  0.100561127	7.383400E+01	  0.100561127	4.711400E+01	  0.100561127	3.663700E+01
404	  0.100761525	-9.030000E+00	  0.100761525	7.340500E+01	  0.100761525	4.739600E+01	  0.100761525	3.670800E+01
405	  0.100961931	-9.037000E+00	  0.100961931	7.302900E+01	  0.100961931	4.763800E+01	  0.100961931	3.678300E+01
406	  0.101162329	-9.044000E+00	  0.101162329	7.263100E+01	  0.101162329	4.789600E+01	  0.101162329	3.686400E+01
407	  0.101362728	-9.051000E+00	  0.101362728	7.231300E+01	  0.101362728	4.810300E+01	  0.101362728	3.692500E+01
408	  0.101563133	-9.058000E+00	  0.101563133	7.190900E+01	  0.101563133	4.836700E+01	  0.101563133	3.700500E+01
409	  0.101763532	-9.058000E+00	  0.101763532	7.159100E+01	  0.101763532	4.856800E+01	  0.101763532	3.708800E+01
410	  0.101963930	-9.063000E+00	  0.101963930	7.112600E+01	  0.101963930	4.886900E+01	  0.101963930	3.719100E+01
411	  0.102164328	-9.064000E+00	  0.102164328	7.077300E+01	  0.102164328	4.909500E+01	  0.102164328	3.727900E+01
412	  0.102364726	-9.064000E+00	  0.102364726	7.040500E+01	  0.102364726	4.933200E+01	  0.102364726	3.737100E+01
413	  0.102565125	-9.055000E+00	  0.102565125	7.000000E+01	  0.102565125	4.957900E+01	  0.102565125	3.751100E+01
414	  0.102765530	-9.049000E+00	  0.102765530	6.967900E+01	  0.102765530	4.977800E+01	  0.102765530	3.761900E+01
415	  0.102965929	-9.042000E+00	  0.102965929	6.929200E+01	  0.102965929	5.002100E+01	  0.102965929	3.774500E+01
416	  0.103166327	-9.031000E+00	  0.103166327	6.886700E+01	  0.103166327	5.028300E+01	  0.103166327	3.790100E+01
417	  0.103366733	-9.025000E+00	  0.103366733	6.851700E+01	  0.103366733	5.050900E+01	  0.103366733	3.800900E+01
418	  0.103567131	-9.008000E+00	  0.103567131	6.818000E+01	  0.103567131	5.070700E+01	  0.103567131	3.816900E+01
419	  0.103767529	-9.006000E+00	  0.103767529	6.778800E+01	  0.103767529	5.097000E+01	  0.103767529	3.827300E+01
420	  0.103967935	-8.990000E+00	  0.103967935	6.738200E+01	  0.103967935	5.122300E+01	  0.103967935	3.844000E+01
421	  0.104168333	-8.975000E+00	  0.104168333	6.704600E+01	  0.104168333	5.143200E+01	  0.104168333	3.858500E+01
422	  0.104368731	-8.956000E+00	  0.104368731	6.664000E+01	  0.104368731	5.168400E+01	  0.104368731	3.877100E+01
423	  0.104569137	-8.936000E+00	  0.104569137	6.628300E+01	  0.104569137	5.190500E+01	  0.104569137	3.894500E+01
424	  0.104769535	-8.925000E+00	  0.104769535	6.584500E+01	  0.104769535	5.219900E+01	  0.104769535	3.909600E+01
425	  0.104969934	-8.912000E+00	  0.104969934	6.539800E+01	  0.104969934	5.250000E+01	  0.104969934	3.925800E+01
426	  0.105170339	-8.889000E+00	  0.105170339	6.498900E+01	  0.105170339	5.276200E+01	  0.105170339	3.945800E+01
427	  0.105370738	-8.871000E+00	  0.105370738	6.456900E+01	  0.105370738	5.304200E+01	  0.105370738	3.963800E+01
428	  0.105571143	-8.855000E+00	  0.105571143	6.408800E+01	  0.105571143	5.337400E+01	  0.105571143	3.982200E+01
429	  0.105771542	-8.833000E+00	  0.105771542	6.363900E+01	  0.105771542	5.367800E+01	  0.105771542	4.002700E+01
430	  0.105971940	-8.814000E+00	  0.105971940	6.316200E+01	  0.105971940	5.401100E+01	  0.105971940	4.022200E+01
431	  0.106172346	-8.801000E+00	  0.106172346	6.264400E+01	  0.106172346	5.438800E+01	  0.106172346	4.039400E+01
432	  0.106372744	-8.777000E+00	  0.106372744	6.217300E+01	  0.106372744	5.472000E+01	  0.106372744	4.061100E+01
433	  0.106573142	-8.753000E+00	  0.106573142	6.157800E+01	  0.106573142	5.515400E+01	  0.106573142	4.085200E+01
434	  0.106773548	-8.734000E+00	  0.106773548	6.100200E+01	  0.106773548	5.558400E+01	  0.106773548	4.106800E+01
435	  0.106973946	-8.718000E+00	  0.106973946	6.045300E+01	  0.106973946	5.600400E+01	  0.106973946	4.125600E+01
436	  0.107174344	-8.683000E+00	  0.107174344	5.982800E+01	  0.107174344	5.647000E+01	  0.107174344	4.155600E+01
437	  0.107374750	-8.666000E+00	  0.107374750	5.921700E+01	  0.107374750	5.695400E+01	  0.107374750	4.175900E+01
438	  0.107575148	-8.642000E+00	  0.107575148	5.866800E+01	  0.107575148	5.738600E+01	  0.107575148	4.198200E+01
439	  0.107775547	-8.612000E+00	  0.107775547	5.800500E+01	  0.107775547	5.791400E+01	  0.107775547	4.226300E+01
440	  0.107975952	-8.595000E+00	  0.107975952	5.733200E+01	  0.107975952	5.847600E+01	  0.107975952	4.246800E+01
441	  0.108176351	-8.572000E+00	  0.108176351	5.671100E+01	  0.108176351	5.899600E+01	  0.108176351	4.269000E+01
442	  0.108376749	-8.548000E+00	  0.108376749	5.600800E+01	  0.108376749	5.959600E+01	  0.108376749	4.292900E+01
443	  0.108577155	-8.522000E+00	  0.108577155	5.531800E+01	  0.108577155	6.019400E+01	  0.108577155	4.317600E+01
444	  0.108777553	-8.511000E+00	  0.108777553	5.455100E+01	  0.108777553	6.088600E+01	  0.108777553	4.333900E+01
445	  0.108977959	-8.496000E+00	  0.108977959	5.388500E+01	  0.108977959	6.149300E+01	  0.108977959	4.350400E+01
446	  0.109178357	-8.474000E+00	  0.109178357	5.322500E+01	  0.109178357	6.209900E+01	  0.109178357	4.370700E+01
447	  0.109378755	-8.455000E+00	  0.109378755	5.247400E+01	  0.109378755	6.280500E+01	  0.109378755	4.389700E+01
448	  0.109579161	-8.440000E+00	  0.109579161	5.178400E+01	  0.109579161	6.346600E+01	  0.109579161	4.404400E+01
449	  0.109779559	-8.428000E+00	  0.109779559	5.108700E+01	  0.109779559	6.414500E+01	  0.109779559	4.417300E+01
450	  0.109979957	-8.417000E+00	  0.109979957	5.035600E+01	  0.109979957	6.486900E+01	  0.109979957	4.428200E+01
451	  0.110180363	-8.404000E+00	  0.110180363	4.965100E+01	  0.110180363	6.557800E+01	  0.110180363	4.439100E+01
452	  0.110380761	-8.401000E+00	  0.110380761	4.898100E+01	  0.110380761	6.626300E+01	  0.110380761	4.443000E+01
453	  0.110581160	-8.390000E+00	  0.110581160	4.826700E+01	  0.110581160	6.700100E+01	  0.110581160	4.450700E+01
454	  0.110781565	-8.378000E+00	  0.110781565	4.757900E+01	  0.110781565	6.772100E+01	  0.110781565	4.458400E+01
455	  0.110981964	-8.379000E+00	  0.110981964	4.692200E+01	  0.110981964	6.841700E+01	  0.110981964	4.455700E+01
456	  0.111182362	-8.369000E+00	  0.111182362	4.619500E+01	  0.111182362	6.919800E+01	  0.111182362	4.459600E+01
457	  0.111382768	-8.365000E+00	  0.111382768	4.551800E+01	  0.111382768	6.993300E+01	  0.111382768	4.458400E+01
458	  0.111583166	-8.357000E+00	  0.111583166	4.478300E+01	  0.111583166	7.074200E+01	  0.111583166	4.458900E+01
459	  0.111783572	-8.353000E+00	  0.111783572	4.410700E+01	  0.111783572	7.149200E+01	  0.111783572	4.454600E+01
460	  0.111983970	-8.355000E+00	  0.111983970	4.333000E+01	  0.111983970	7.235800E+01	  0.111983970	4.443500E+01
461	  0.112184368	-8.350000E+00	  0.112184368	4.257800E+01	  0.112184368	7.321200E+01	  0.112184368	4.436600E+01
462	  0.112384774	-8.346000E+00	  0.112384774	4.186500E+01	  0.112384774	7.402900E+01	  0.112384774	4.427700E+01
463	  0.112585172	-8.349000E+00	  0.112585172	4.104800E+01	  0.112585172	7.496400E+01	  0.112585172	4.410200E+01
464	  0.112785570	-8.346000E+00	  0.112785570	4.031500E+01	  0.112785570	7.581800E+01	  0.112785570	4.396400E+01
465	  0.112985976	-8.349000E+00	  0.112985976	3.951000E+01	  0.112985976	7.675300E+01	  0.112985976	4.374500E+01
466	  0.113186374	-8.350000E+00	  0.113186374	3.867900E+01	  0.113186374	7.772800E+01	  0.113186374	4.350600E+01
467	  0.113386773	-8.349000E+00	  0.113386773	3.785500E+01	  0.113386773	7.870800E+01	  0.113386773	4.327000E+01
468	  0.113587178	-8.346000E+00	  0.113587178	3.695600E+01	  0.113587178	7.978500E+01	  0.113587178	4.298800E+01
469	  0.113787577	-8.359000E+00	  0.113787577	3.610300E+01	  0.113787577	8.077600E+01	  0.113787577	4.256800E+01
470	  0.113987975	-8.360000E+00	  0.113987975	3.521700E+01	  0.113987975	8.184100E+01	  0.113987975	4.220800E+01
471	  0.114188381	-8.367000E+00	  0.114188381	3.430900E+01	  0.114188381	8.291700E+01	  0.114188381	4.175200E+01
472	  0.114388779	-8.374000E+00	  0.114388779	3.338400E+01	  0.114388779	8.401200E+01	  0.114388779	4.124900E+01
473	  0.114589177	-8.378000E+00	  0.114589177	3.249000E+01	  0.114589177	8.508200E+01	  0.114589177	4.075900E+01
474	  0.114789583	-8.384000E+00	  0.114789583	3.149800E+01	  0.114789583	8.625800E+01	  0.114789583	4.015400E+01
475	  0.114989981	-8.398000E+00	  0.114989981	3.057300E+01	  0.114989981	8.732100E+01	  0.114989981	3.948900E+01
476	  0.115190387	-8.408000E+00	  0.115190387	2.952000E+01	  0.115190387	8.854100E+01	  0.115190387	3.872900E+01
477	  0.115390785	-8.421000E+00	  0.115390785	2.855000E+01	  0.115390785	8.964100E+01	  0.115390785	3.795700E+01
478	  0.115591183	-8.438000E+00	  0.115591183	2.754300E+01	  0.115591183	9.074700E+01	  0.115591183	3.708100E+01
479	  0.115791589	-8.451000E+00	  0.115791589	2.655300E+01	  0.115791589	9.183400E+01	  0.115791589	3.620200E+01
480	  0.115991987	-8.468000E+00	  0.115991987	2.551400E+01	  0.115991987	9.293800E+01	  0.115991987	3.521100E+01
481	  0.116192386	-8.481000E+00	  0.116192386	2.450500E+01	  0.116192386	9.400200E+01	  0.116192386	3.422300E+01
482	  0.116392791	-8.510000E+00	  0.116392791	2.343900E+01	  0.116392791	9.500800E+01	  0.116392791	3.302400E+01
483	  0.116593190	-8.530000E+00	  0.116593190	2.240600E+01	  0.116593190	9.600300E+01	  0.116593190	3.188400E+01
484	  0.116793588	-8.554000E+00	  0.116793588	2.138400E+01	  0.116793588	9.691500E+01	  0.116793588	3.067400E+01
485	  0.116993994	-8.582000E+00	  0.116993994	2.034600E+01	  0.116993994	9.777800E+01	  0.116993994	2.938500E+01
486	  0.117194392	-8.609000E+00	  0.117194392	1.924900E+01	  0.117194392	9.866400E+01	  0.117194392	2.800100E+01
487	  0.117394790	-8.638000E+00	  0.117394790	1.821600E+01	  0.117394790	9.942200E+01	  0.117394790	2.663800E+01
488	  0.117595196	-8.678000E+00	  0.117595196	1.709100E+01	  0.117595196	1.001220E+02	  0.117595196	2.506700E+01
489	  0.117795594	-8.706000E+00	  0.117795594	1.603900E+01	  0.117795594	1.007930E+02	  0.117795594	2.362400E+01
490	  0.117995992	-8.748000E+00	  0.117995992	1.495600E+01	  0.117995992	1.013150E+02	  0.117995992	2.204000E+01
491	  0.118196398	-8.791000E+00	  0.118196398	1.380000E+01	  0.118196398	1.018170E+02	  0.118196398	2.033800E+01
492	  0.118396796	-8.834000E+00	  0.118396796	1.267900E+01	  0.118396796	1.022290E+02	  0.118396796	1.867300E+01
493	  0.118597202	-8.886000E+00	  0.118597202	1.151300E+01	  0.118597202	1.025100E+02	  0.118597202	1.689400E+01
494	  0.118797600	-8.938000E+00	  0.118797600	1.036000E+01	  0.118797600	1.027060E+02	  0.118797600	1.513300E+01
