! Anritsu VNA Master:             	Model: MS2036C/10/77
! SN:             	1601066
! /card0/usr/255.ew.sma.v2_1.txt
! Existing Calibration Information:
! TYPE:             	Current Settings	Active Cal Settings
! TIME:             	12/17/2017 06:22:23 PM	12/17/2017 06:11:23 PM
! INTERNAL TEMP:    	43.8 C	43.8 C
! # POINTS:         	501	501
! START FREQ:       	10.000 MHz	10.000 MHz
! STOP FREQ:        	107.903 125 MHz	107.903 125 MHz
! SOURCE POWER:     	High	High
! IFBW:             	100 Hz	100 Hz
! AVG FACTOR:       	  1 	  1 
! REF PLANE 1:      	0 mm	0 mm
! REF PLANE 2:      	0 mm	0 mm
! CAL TYPE:         	Full S11	Full S11
! CAL METHOD:       	SOLT	SOLT
! CAL LINE TYPE:    	Coax	Coax
! DUT PORT 1:       	K-Conn(F)	K-Conn(F)
! DUT PORT 2:       	K-Conn(F)	K-Conn(F)
! CAL STATUS:       	OK: Accuracy High	--
! PROP-V:       	0.700
! CABLE LOSS:       	0.000 dB/m
! REF IMPEDANCE:       	50.0
! Trace Specific Parameters:	TR1	TR2	TR3	TR4
! TRACE.#.Y (GRAPH TYPE)	LOG MAG	PHASE	REAL IMPEDANCE	IMAGINARY IMPEDANCE
! TRACE.#.X 	FREQ.GHZ	FREQ.GHZ	FREQ.GHZ	FREQ.GHZ
! S-PARAMETER	S11	S11	S11	S11
! SMOOTH/APERTURE %	0	0	0	0
! WINDOW	NSL	NSL	NSL	NSL
! GATING	OFF	OFF	OFF	OFF
! FGTD	OFF	OFF	OFF	OFF
Marker Information per Trace:	TR1	TR2	TR3	TR4
!MK1	--	--	--	--
!MK2	--	--	--	--
!MK3	--	--	--	--
!MK4	--	--	--	--
!MK5	--	--	--	--
!MK6	--	--	--	--
!MK7	--	--	--	--
!MK8	--	--	--	--
PNT	TR1.FREQ.GHZ	TR1.LOG MAG.dB	TR2.FREQ.GHZ	TR2.PHASE.deg	TR3.FREQ.GHZ	TR3.REAL IMPEDANCE.ohm	TR4.FREQ.GHZ	TR4.IMAGINARY IMPEDANCE.ohm
1	  0.010000000	-6.960000E-01	  0.010000000	-5.839100E+01	  0.010000000	8.375000E+00	  0.010000000	-8.887800E+01
2	  0.010195807	-6.900000E-01	  0.010195807	-5.955000E+01	  0.010195807	8.013000E+00	  0.010195807	-8.683600E+01
3	  0.010391613	-6.920000E-01	  0.010391613	-6.077400E+01	  0.010391613	7.750000E+00	  0.010391613	-8.473900E+01
4	  0.010587418	-6.990000E-01	  0.010587418	-6.200200E+01	  0.010587418	7.550000E+00	  0.010587418	-8.270300E+01
5	  0.010783225	-7.050000E-01	  0.010783225	-6.322900E+01	  0.010783225	7.350000E+00	  0.010783225	-8.074300E+01
6	  0.010979031	-7.110000E-01	  0.010979031	-6.446600E+01	  0.010979031	7.165000E+00	  0.010979031	-7.883100E+01
7	  0.011174837	-7.170000E-01	  0.011174837	-6.569800E+01	  0.011174837	6.984000E+00	  0.011174837	-7.699200E+01
8	  0.011370643	-7.220000E-01	  0.011370643	-6.693100E+01	  0.011370643	6.811000E+00	  0.011370643	-7.521100E+01
9	  0.011566450	-7.280000E-01	  0.011566450	-6.812300E+01	  0.011566450	6.651000E+00	  0.011566450	-7.354300E+01
10	  0.011762256	-7.350000E-01	  0.011762256	-6.935800E+01	  0.011762256	6.513000E+00	  0.011762256	-7.186600E+01
11	  0.011958062	-7.440000E-01	  0.011958062	-7.059900E+01	  0.011958062	6.393000E+00	  0.011958062	-7.023100E+01
12	  0.012153869	-7.500000E-01	  0.012153869	-7.182400E+01	  0.012153869	6.253000E+00	  0.012153869	-6.866800E+01
13	  0.012349674	-7.540000E-01	  0.012349674	-7.309200E+01	  0.012349674	6.103000E+00	  0.012349674	-6.709900E+01
14	  0.012545481	-7.560000E-01	  0.012545481	-7.434300E+01	  0.012545481	5.940000E+00	  0.012545481	-6.559800E+01
15	  0.012741288	-7.630000E-01	  0.012741288	-7.557100E+01	  0.012741288	5.830000E+00	  0.012741288	-6.416200E+01
16	  0.012937094	-7.670000E-01	  0.012937094	-7.680800E+01	  0.012937094	5.701000E+00	  0.012937094	-6.275600E+01
17	  0.013132900	-7.750000E-01	  0.013132900	-7.807600E+01	  0.013132900	5.608000E+00	  0.013132900	-6.135100E+01
18	  0.013328707	-7.810000E-01	  0.013328707	-7.932300E+01	  0.013328707	5.501000E+00	  0.013328707	-6.000800E+01
19	  0.013524513	-7.880000E-01	  0.013524513	-8.054900E+01	  0.013524513	5.413000E+00	  0.013524513	-5.872100E+01
20	  0.013720319	-7.920000E-01	  0.013720319	-8.180600E+01	  0.013720319	5.300000E+00	  0.013720319	-5.743500E+01
21	  0.013916126	-8.020000E-01	  0.013916126	-8.305300E+01	  0.013916126	5.240000E+00	  0.013916126	-5.618800E+01
22	  0.014111931	-8.100000E-01	  0.014111931	-8.432300E+01	  0.014111931	5.159000E+00	  0.014111931	-5.495100E+01
23	  0.014307737	-8.200000E-01	  0.014307737	-8.559000E+01	  0.014307737	5.097000E+00	  0.014307737	-5.374400E+01
24	  0.014503544	-8.270000E-01	  0.014503544	-8.684500E+01	  0.014503544	5.026000E+00	  0.014503544	-5.257800E+01
25	  0.014699350	-8.350000E-01	  0.014699350	-8.812800E+01	  0.014699350	4.958000E+00	  0.014699350	-5.141400E+01
26	  0.014895156	-8.470000E-01	  0.014895156	-8.940500E+01	  0.014895156	4.914000E+00	  0.014895156	-5.027900E+01
27	  0.015090963	-8.550000E-01	  0.015090963	-9.068400E+01	  0.015090963	4.849000E+00	  0.015090963	-4.917000E+01
28	  0.015286769	-8.630000E-01	  0.015286769	-9.197000E+01	  0.015286769	4.787000E+00	  0.015286769	-4.807900E+01
29	  0.015482575	-8.650000E-01	  0.015482575	-9.322900E+01	  0.015482575	4.701000E+00	  0.015482575	-4.703600E+01
30	  0.015678382	-8.680000E-01	  0.015678382	-9.450500E+01	  0.015678382	4.622000E+00	  0.015678382	-4.600100E+01
31	  0.015874187	-8.760000E-01	  0.015874187	-9.579100E+01	  0.015874187	4.571000E+00	  0.015874187	-4.497700E+01
32	  0.016069993	-8.810000E-01	  0.016069993	-9.707600E+01	  0.016069993	4.506000E+00	  0.016069993	-4.397400E+01
33	  0.016265800	-8.900000E-01	  0.016265800	-9.836600E+01	  0.016265800	4.464000E+00	  0.016265800	-4.298600E+01
34	  0.016461605	-8.940000E-01	  0.016461605	-9.968500E+01	  0.016461605	4.393000E+00	  0.016461605	-4.199800E+01
35	  0.016657412	-8.990000E-01	  0.016657412	-1.010030E+02	  0.016657412	4.336000E+00	  0.016657412	-4.102900E+01
36	  0.016853219	-9.020000E-01	  0.016853219	-1.023180E+02	  0.016853219	4.268000E+00	  0.016853219	-4.008100E+01
37	  0.017049024	-9.090000E-01	  0.017049024	-1.036480E+02	  0.017049024	4.224000E+00	  0.017049024	-3.913800E+01
38	  0.017244833	-9.160000E-01	  0.017244833	-1.049520E+02	  0.017244833	4.182000E+00	  0.017244833	-3.822900E+01
39	  0.017440638	-9.280000E-01	  0.017440638	-1.062610E+02	  0.017440638	4.163000E+00	  0.017440638	-3.733200E+01
40	  0.017636444	-9.400000E-01	  0.017636444	-1.075740E+02	  0.017636444	4.149000E+00	  0.017636444	-3.644600E+01
41	  0.017832249	-9.530000E-01	  0.017832249	-1.088930E+02	  0.017832249	4.134000E+00	  0.017832249	-3.557200E+01
42	  0.018028056	-9.620000E-01	  0.018028056	-1.102260E+02	  0.018028056	4.107000E+00	  0.018028056	-3.470400E+01
43	  0.018223861	-9.730000E-01	  0.018223861	-1.115660E+02	  0.018223861	4.088000E+00	  0.018223861	-3.384500E+01
44	  0.018419670	-9.820000E-01	  0.018419670	-1.129330E+02	  0.018419670	4.060000E+00	  0.018419670	-3.298400E+01
45	  0.018615475	-9.880000E-01	  0.018615475	-1.142630E+02	  0.018615475	4.025000E+00	  0.018615475	-3.215900E+01
46	  0.018811282	-9.980000E-01	  0.018811282	-1.156240E+02	  0.018811282	4.003000E+00	  0.018811282	-3.132700E+01
47	  0.019007087	-1.005000E+00	  0.019007087	-1.169750E+02	  0.019007087	3.972000E+00	  0.019007087	-3.051300E+01
48	  0.019202894	-1.015000E+00	  0.019202894	-1.183580E+02	  0.019202894	3.954000E+00	  0.019202894	-2.969200E+01
49	  0.019398699	-1.026000E+00	  0.019398699	-1.197360E+02	  0.019398699	3.938000E+00	  0.019398699	-2.888600E+01
50	  0.019594505	-1.035000E+00	  0.019594505	-1.211370E+02	  0.019594505	3.918000E+00	  0.019594505	-2.807700E+01
51	  0.019790314	-1.042000E+00	  0.019790314	-1.225450E+02	  0.019790314	3.893000E+00	  0.019790314	-2.727700E+01
52	  0.019986119	-1.050000E+00	  0.019986119	-1.239320E+02	  0.019986119	3.871000E+00	  0.019986119	-2.649800E+01
53	  0.020181926	-1.052000E+00	  0.020181926	-1.253130E+02	  0.020181926	3.831000E+00	  0.020181926	-2.573400E+01
54	  0.020377731	-1.061000E+00	  0.020377731	-1.267150E+02	  0.020377731	3.816000E+00	  0.020377731	-2.496700E+01
55	  0.020573538	-1.070000E+00	  0.020573538	-1.280910E+02	  0.020573538	3.803000E+00	  0.020573538	-2.422300E+01
56	  0.020769343	-1.083000E+00	  0.020769343	-1.295030E+02	  0.020769343	3.805000E+00	  0.020769343	-2.346700E+01
57	  0.020965151	-1.095000E+00	  0.020965151	-1.309560E+02	  0.020965151	3.801000E+00	  0.020965151	-2.270000E+01
58	  0.021160956	-1.109000E+00	  0.021160956	-1.323750E+02	  0.021160956	3.808000E+00	  0.021160956	-2.195800E+01
59	  0.021356763	-1.121000E+00	  0.021356763	-1.338330E+02	  0.021356763	3.807000E+00	  0.021356763	-2.120400E+01
60	  0.021552568	-1.131000E+00	  0.021552568	-1.352850E+02	  0.021552568	3.799000E+00	  0.021552568	-2.046300E+01
61	  0.021748375	-1.144000E+00	  0.021748375	-1.367400E+02	  0.021748375	3.802000E+00	  0.021748375	-1.972700E+01
62	  0.021944180	-1.157000E+00	  0.021944180	-1.381860E+02	  0.021944180	3.808000E+00	  0.021944180	-1.900300E+01
63	  0.022139989	-1.170000E+00	  0.022139989	-1.396330E+02	  0.022139989	3.816000E+00	  0.022139989	-1.828500E+01
64	  0.022335794	-1.180000E+00	  0.022335794	-1.411300E+02	  0.022335794	3.812000E+00	  0.022335794	-1.755000E+01
65	  0.022531601	-1.191000E+00	  0.022531601	-1.426310E+02	  0.022531601	3.812000E+00	  0.022531601	-1.682000E+01
66	  0.022727406	-1.206000E+00	  0.022727406	-1.441190E+02	  0.022727406	3.827000E+00	  0.022727406	-1.610200E+01
67	  0.022923212	-1.217000E+00	  0.022923212	-1.456380E+02	  0.022923212	3.831000E+00	  0.022923212	-1.537600E+01
68	  0.023119017	-1.225000E+00	  0.023119017	-1.471280E+02	  0.023119017	3.825000E+00	  0.023119017	-1.467000E+01
69	  0.023314826	-1.233000E+00	  0.023314826	-1.486210E+02	  0.023314826	3.823000E+00	  0.023314826	-1.396800E+01
70	  0.023510631	-1.243000E+00	  0.023510631	-1.501360E+02	  0.023510631	3.826000E+00	  0.023510631	-1.326000E+01
71	  0.023706438	-1.259000E+00	  0.023706438	-1.516350E+02	  0.023706438	3.847000E+00	  0.023706438	-1.256500E+01
72	  0.023902243	-1.274000E+00	  0.023902243	-1.531750E+02	  0.023902243	3.869000E+00	  0.023902243	-1.185500E+01
73	  0.024098050	-1.292000E+00	  0.024098050	-1.547090E+02	  0.024098050	3.898000E+00	  0.024098050	-1.115300E+01
74	  0.024293855	-1.309000E+00	  0.024293855	-1.562650E+02	  0.024293855	3.926000E+00	  0.024293855	-1.044400E+01
75	  0.024489662	-1.325000E+00	  0.024489662	-1.578500E+02	  0.024489662	3.951000E+00	  0.024489662	-9.727000E+00
76	  0.024685470	-1.342000E+00	  0.024685470	-1.594130E+02	  0.024685470	3.983000E+00	  0.024685470	-9.024000E+00
77	  0.024881275	-1.360000E+00	  0.024881275	-1.609890E+02	  0.024881275	4.015000E+00	  0.024881275	-8.319000E+00
78	  0.025077082	-1.378000E+00	  0.025077082	-1.625660E+02	  0.025077082	4.051000E+00	  0.025077082	-7.616000E+00
79	  0.025272887	-1.398000E+00	  0.025272887	-1.641670E+02	  0.025272887	4.094000E+00	  0.025272887	-6.906000E+00
80	  0.025468694	-1.420000E+00	  0.025468694	-1.657760E+02	  0.025468694	4.142000E+00	  0.025468694	-6.195000E+00
81	  0.025664499	-1.442000E+00	  0.025664499	-1.674180E+02	  0.025664499	4.191000E+00	  0.025664499	-5.473000E+00
82	  0.025860308	-1.459000E+00	  0.025860308	-1.690700E+02	  0.025860308	4.230000E+00	  0.025860308	-4.749000E+00
83	  0.026056113	-1.478000E+00	  0.026056113	-1.707250E+02	  0.026056113	4.273000E+00	  0.026056113	-4.026000E+00
84	  0.026251920	-1.497000E+00	  0.026251920	-1.723920E+02	  0.026251920	4.317000E+00	  0.026251920	-3.299000E+00
85	  0.026447725	-1.517000E+00	  0.026447725	-1.740550E+02	  0.026447725	4.367000E+00	  0.026447725	-2.576000E+00
86	  0.026643531	-1.538000E+00	  0.026643531	-1.757240E+02	  0.026643531	4.422000E+00	  0.026643531	-1.851000E+00
87	  0.026839336	-1.564000E+00	  0.026839336	-1.774070E+02	  0.026839336	4.493000E+00	  0.026839336	-1.122000E+00
88	  0.027035145	-1.589000E+00	  0.027035145	-1.791150E+02	  0.027035145	4.561000E+00	  0.027035145	-3.820000E-01
89	  0.027230950	-1.611000E+00	  0.027230950	1.791810E+02	  0.027230950	4.626000E+00	  0.027230950	3.540000E-01
90	  0.027426757	-1.635000E+00	  0.027426757	1.774680E+02	  0.027426757	4.696000E+00	  0.027426757	1.094000E+00
91	  0.027622562	-1.658000E+00	  0.027622562	1.757350E+02	  0.027622562	4.765000E+00	  0.027622562	1.844000E+00
92	  0.027818369	-1.686000E+00	  0.027818369	1.739940E+02	  0.027818369	4.851000E+00	  0.027818369	2.598000E+00
93	  0.028014174	-1.716000E+00	  0.028014174	1.722480E+02	  0.028014174	4.945000E+00	  0.028014174	3.354000E+00
94	  0.028209982	-1.744000E+00	  0.028209982	1.704930E+02	  0.028209982	5.037000E+00	  0.028209982	4.115000E+00
95	  0.028405787	-1.773000E+00	  0.028405787	1.687460E+02	  0.028405787	5.136000E+00	  0.028405787	4.874000E+00
96	  0.028601594	-1.800000E+00	  0.028601594	1.669790E+02	  0.028601594	5.231000E+00	  0.028601594	5.644000E+00
97	  0.028797399	-1.829000E+00	  0.028797399	1.652470E+02	  0.028797399	5.334000E+00	  0.028797399	6.400000E+00
98	  0.028993206	-1.858000E+00	  0.028993206	1.635040E+02	  0.028993206	5.438000E+00	  0.028993206	7.163000E+00
99	  0.029189013	-1.886000E+00	  0.029189013	1.617540E+02	  0.029189013	5.546000E+00	  0.029189013	7.932000E+00
100	  0.029384818	-1.919000E+00	  0.029384818	1.599990E+02	  0.029384818	5.669000E+00	  0.029384818	8.706000E+00
101	  0.029580627	-1.953000E+00	  0.029580627	1.582310E+02	  0.029580627	5.802000E+00	  0.029580627	9.489000E+00
102	  0.029776432	-1.989000E+00	  0.029776432	1.564500E+02	  0.029776432	5.945000E+00	  0.029776432	1.028100E+01
103	  0.029972238	-2.026000E+00	  0.029972238	1.546290E+02	  0.029972238	6.097000E+00	  0.029972238	1.109400E+01
104	  0.030168043	-2.064000E+00	  0.030168043	1.528040E+02	  0.030168043	6.254000E+00	  0.030168043	1.191500E+01
105	  0.030363850	-2.100000E+00	  0.030363850	1.509610E+02	  0.030363850	6.412000E+00	  0.030363850	1.274800E+01
106	  0.030559655	-2.139000E+00	  0.030559655	1.491540E+02	  0.030559655	6.584000E+00	  0.030559655	1.357100E+01
107	  0.030755464	-2.179000E+00	  0.030755464	1.473030E+02	  0.030755464	6.769000E+00	  0.030755464	1.441800E+01
108	  0.030951269	-2.221000E+00	  0.030951269	1.454640E+02	  0.030951269	6.962000E+00	  0.030951269	1.526700E+01
109	  0.031147076	-2.260000E+00	  0.031147076	1.436390E+02	  0.031147076	7.153000E+00	  0.031147076	1.611500E+01
110	  0.031342883	-2.302000E+00	  0.031342883	1.417250E+02	  0.031342883	7.365000E+00	  0.031342883	1.701300E+01
111	  0.031538688	-2.345000E+00	  0.031538688	1.398340E+02	  0.031538688	7.589000E+00	  0.031538688	1.790700E+01
112	  0.031734493	-2.387000E+00	  0.031734493	1.378980E+02	  0.031734493	7.817000E+00	  0.031734493	1.883300E+01
113	  0.031930301	-2.427000E+00	  0.031930301	1.359990E+02	  0.031930301	8.050000E+00	  0.031930301	1.975000E+01
114	  0.032126106	-2.467000E+00	  0.032126106	1.340760E+02	  0.032126106	8.291000E+00	  0.032126106	2.068800E+01
115	  0.032321911	-2.506000E+00	  0.032321911	1.321780E+02	  0.032321911	8.538000E+00	  0.032321911	2.162500E+01
116	  0.032517716	-2.544000E+00	  0.032517716	1.302590E+02	  0.032517716	8.795000E+00	  0.032517716	2.258400E+01
117	  0.032713525	-2.581000E+00	  0.032713525	1.283650E+02	  0.032713525	9.056000E+00	  0.032713525	2.354300E+01
118	  0.032909330	-2.624000E+00	  0.032909330	1.264530E+02	  0.032909330	9.352000E+00	  0.032909330	2.452000E+01
119	  0.033105139	-2.672000E+00	  0.033105139	1.245310E+02	  0.033105139	9.678000E+00	  0.033105139	2.551200E+01
120	  0.033300944	-2.718000E+00	  0.033300944	1.226310E+02	  0.033300944	1.001300E+01	  0.033300944	2.650600E+01
121	  0.033496749	-2.772000E+00	  0.033496749	1.206930E+02	  0.033496749	1.039200E+01	  0.033496749	2.752900E+01
122	  0.033692554	-2.824000E+00	  0.033692554	1.187220E+02	  0.033692554	1.078800E+01	  0.033692554	2.858500E+01
123	  0.033888362	-2.875000E+00	  0.033888362	1.167260E+02	  0.033888362	1.119800E+01	  0.033888362	2.967300E+01
124	  0.034084171	-2.921000E+00	  0.034084171	1.147040E+02	  0.034084171	1.161800E+01	  0.034084171	3.079400E+01
125	  0.034279976	-2.964000E+00	  0.034279976	1.126820E+02	  0.034279976	1.204500E+01	  0.034279976	3.193800E+01
126	  0.034475781	-3.007000E+00	  0.034475781	1.105800E+02	  0.034475781	1.250500E+01	  0.034475781	3.314900E+01
127	  0.034671586	-3.047000E+00	  0.034671586	1.085390E+02	  0.034671586	1.297100E+01	  0.034671586	3.434800E+01
128	  0.034867391	-3.084000E+00	  0.034867391	1.065130E+02	  0.034867391	1.345000E+01	  0.034867391	3.556300E+01
129	  0.035063203	-3.118000E+00	  0.035063203	1.044810E+02	  0.035063203	1.394600E+01	  0.035063203	3.680800E+01
130	  0.035259008	-3.146000E+00	  0.035259008	1.024300E+02	  0.035259008	1.444300E+01	  0.035259008	3.809900E+01
131	  0.035454813	-3.178000E+00	  0.035454813	1.004220E+02	  0.035454813	1.498300E+01	  0.035454813	3.938300E+01
132	  0.035650618	-3.206000E+00	  0.035650618	9.841300E+01	  0.035650618	1.553700E+01	  0.035650618	4.070100E+01
133	  0.035846427	-3.236000E+00	  0.035846427	9.640200E+01	  0.035846427	1.613400E+01	  0.035846427	4.204600E+01
134	  0.036042232	-3.264000E+00	  0.036042232	9.444700E+01	  0.036042232	1.674000E+01	  0.036042232	4.338500E+01
135	  0.036238037	-3.291000E+00	  0.036238037	9.246600E+01	  0.036238037	1.739400E+01	  0.036238037	4.477200E+01
136	  0.036433842	-3.312000E+00	  0.036433842	9.049800E+01	  0.036433842	1.804700E+01	  0.036433842	4.619600E+01
137	  0.036629651	-3.337000E+00	  0.036629651	8.852000E+01	  0.036629651	1.877100E+01	  0.036629651	4.765100E+01
138	  0.036825456	-3.359000E+00	  0.036825456	8.650800E+01	  0.036825456	1.953500E+01	  0.036825456	4.917700E+01
139	  0.037021261	-3.378000E+00	  0.037021261	8.445700E+01	  0.037021261	2.035000E+01	  0.037021261	5.078000E+01
140	  0.037217066	-3.389000E+00	  0.037217066	8.231200E+01	  0.037217066	2.121300E+01	  0.037217066	5.252600E+01
141	  0.037412878	-3.397000E+00	  0.037412878	8.008500E+01	  0.037412878	2.215600E+01	  0.037412878	5.440600E+01
142	  0.037608683	-3.394000E+00	  0.037608683	7.772200E+01	  0.037608683	2.317700E+01	  0.037608683	5.650100E+01
143	  0.037804488	-3.400000E+00	  0.037804488	7.517200E+01	  0.037804488	2.443400E+01	  0.037804488	5.882300E+01
144	  0.038000293	-3.418000E+00	  0.038000293	7.241300E+01	  0.038000293	2.600900E+01	  0.038000293	6.139600E+01
145	  0.038196102	-3.467000E+00	  0.038196102	6.956800E+01	  0.038196102	2.800800E+01	  0.038196102	6.403900E+01
146	  0.038391907	-3.551000E+00	  0.038391907	6.672700E+01	  0.038391907	3.047600E+01	  0.038391907	6.660000E+01
147	  0.038587712	-3.669000E+00	  0.038587712	6.403300E+01	  0.038587712	3.333000E+01	  0.038587712	6.886900E+01
148	  0.038783520	-3.797000E+00	  0.038783520	6.161900E+01	  0.038783520	3.628600E+01	  0.038783520	7.075100E+01
149	  0.038979325	-3.923000E+00	  0.038979325	5.942200E+01	  0.038979325	3.926100E+01	  0.038979325	7.233700E+01
150	  0.039175130	-4.040000E+00	  0.039175130	5.742100E+01	  0.039175130	4.216800E+01	  0.039175130	7.369300E+01
151	  0.039370935	-4.145000E+00	  0.039370935	5.548600E+01	  0.039370935	4.509900E+01	  0.039370935	7.497700E+01
152	  0.039566744	-4.237000E+00	  0.039566744	5.361700E+01	  0.039566744	4.803100E+01	  0.039566744	7.621000E+01
153	  0.039762549	-4.322000E+00	  0.039762549	5.171800E+01	  0.039762549	5.114000E+01	  0.039762549	7.743300E+01
154	  0.039958358	-4.401000E+00	  0.039958358	4.984300E+01	  0.039958358	5.436400E+01	  0.039958358	7.857900E+01
155	  0.040154163	-4.470000E+00	  0.040154163	4.789600E+01	  0.040154163	5.782600E+01	  0.040154163	7.979300E+01
156	  0.040349972	-4.538000E+00	  0.040349972	4.595600E+01	  0.040349972	6.149400E+01	  0.040349972	8.086700E+01
157	  0.040545776	-4.603000E+00	  0.040545776	4.399900E+01	  0.040545776	6.540400E+01	  0.040545776	8.183000E+01
158	  0.040741581	-4.658000E+00	  0.040741581	4.199700E+01	  0.040741581	6.958300E+01	  0.040741581	8.278200E+01
159	  0.040937386	-4.718000E+00	  0.040937386	4.004400E+01	  0.040937386	7.394100E+01	  0.040937386	8.341100E+01
160	  0.041133195	-4.769000E+00	  0.041133195	3.805800E+01	  0.041133195	7.858500E+01	  0.041133195	8.393300E+01
161	  0.041329000	-4.821000E+00	  0.041329000	3.605900E+01	  0.041329000	8.351900E+01	  0.041329000	8.416400E+01
162	  0.041524805	-4.866000E+00	  0.041524805	3.402600E+01	  0.041524805	8.877500E+01	  0.041524805	8.419700E+01
163	  0.041720610	-4.912000E+00	  0.041720610	3.201300E+01	  0.041720610	9.424000E+01	  0.041720610	8.380200E+01
164	  0.041916419	-4.947000E+00	  0.041916419	3.002800E+01	  0.041916419	9.985600E+01	  0.041916419	8.315200E+01
165	  0.042112224	-4.990000E+00	  0.042112224	2.803200E+01	  0.042112224	1.057080E+02	  0.042112224	8.188600E+01
166	  0.042308029	-5.029000E+00	  0.042308029	2.605700E+01	  0.042308029	1.116570E+02	  0.042308029	8.015300E+01
167	  0.042503837	-5.066000E+00	  0.042503837	2.410800E+01	  0.042503837	1.176350E+02	  0.042503837	7.788600E+01
168	  0.042699646	-5.104000E+00	  0.042699646	2.215400E+01	  0.042699646	1.236520E+02	  0.042699646	7.494900E+01
169	  0.042895451	-5.142000E+00	  0.042895451	2.017500E+01	  0.042895451	1.296980E+02	  0.042895451	7.130900E+01
170	  0.043091256	-5.178000E+00	  0.043091256	1.820700E+01	  0.043091256	1.355830E+02	  0.043091256	6.701700E+01
171	  0.043287061	-5.214000E+00	  0.043287061	1.624600E+01	  0.043287061	1.411870E+02	  0.043287061	6.201000E+01
172	  0.043482870	-5.246000E+00	  0.043482870	1.431800E+01	  0.043482870	1.463690E+02	  0.043482870	5.643200E+01
173	  0.043678675	-5.283000E+00	  0.043678675	1.236200E+01	  0.043678675	1.510710E+02	  0.043678675	5.003000E+01
174	  0.043874480	-5.316000E+00	  0.043874480	1.042100E+01	  0.043874480	1.551930E+02	  0.043874480	4.311900E+01
175	  0.044070289	-5.353000E+00	  0.044070289	8.472000E+00	  0.044070289	1.585300E+02	  0.044070289	3.559900E+01
176	  0.044266094	-5.387000E+00	  0.044266094	6.524000E+00	  0.044266094	1.611130E+02	  0.044266094	2.770300E+01
177	  0.044461899	-5.416000E+00	  0.044461899	4.579000E+00	  0.044461899	1.629230E+02	  0.044461899	1.956300E+01
178	  0.044657703	-5.447000E+00	  0.044657703	2.677000E+00	  0.044657703	1.637600E+02	  0.044657703	1.143300E+01
179	  0.044853516	-5.476000E+00	  0.044853516	7.370000E-01	  0.044853516	1.637630E+02	  0.044853516	3.130000E+00
180	  0.045049321	-5.500000E+00	  0.045049321	-1.193000E+00	  0.045049321	1.629900E+02	  0.045049321	-5.019000E+00
181	  0.045245126	-5.524000E+00	  0.045245126	-3.111000E+00	  0.045245126	1.613560E+02	  0.045245126	-1.288300E+01
182	  0.045440931	-5.548000E+00	  0.045440931	-4.973000E+00	  0.045440931	1.590040E+02	  0.045440931	-2.018100E+01
183	  0.045636740	-5.570000E+00	  0.045636740	-6.867000E+00	  0.045636740	1.559790E+02	  0.045636740	-2.718200E+01
184	  0.045832545	-5.596000E+00	  0.045832545	-8.731000E+00	  0.045832545	1.523170E+02	  0.045832545	-3.351700E+01
185	  0.046028350	-5.616000E+00	  0.046028350	-1.059200E+01	  0.046028350	1.483150E+02	  0.046028350	-3.936000E+01
186	  0.046224155	-5.639000E+00	  0.046224155	-1.246300E+01	  0.046224155	1.438610E+02	  0.046224155	-4.461900E+01
187	  0.046419963	-5.654000E+00	  0.046419963	-1.430400E+01	  0.046419963	1.393090E+02	  0.046419963	-4.931100E+01
188	  0.046615768	-5.675000E+00	  0.046615768	-1.617500E+01	  0.046615768	1.344000E+02	  0.046615768	-5.342000E+01
189	  0.046811573	-5.691000E+00	  0.046811573	-1.800500E+01	  0.046811573	1.295250E+02	  0.046811573	-5.694200E+01
190	  0.047007378	-5.709000E+00	  0.047007378	-1.984500E+01	  0.047007378	1.245420E+02	  0.047007378	-5.991500E+01
191	  0.047203191	-5.722000E+00	  0.047203191	-2.167500E+01	  0.047203191	1.196360E+02	  0.047203191	-6.245500E+01
192	  0.047398996	-5.736000E+00	  0.047398996	-2.349200E+01	  0.047398996	1.147990E+02	  0.047398996	-6.449700E+01
193	  0.047594801	-5.750000E+00	  0.047594801	-2.524200E+01	  0.047594801	1.102180E+02	  0.047594801	-6.607000E+01
194	  0.047790606	-5.757000E+00	  0.047790606	-2.702200E+01	  0.047790606	1.056980E+02	  0.047790606	-6.739800E+01
195	  0.047986414	-5.777000E+00	  0.047986414	-2.877400E+01	  0.047986414	1.013250E+02	  0.047986414	-6.818200E+01
196	  0.048182219	-5.782000E+00	  0.048182219	-3.048100E+01	  0.048182219	9.725300E+01	  0.048182219	-6.889200E+01
197	  0.048378024	-5.802000E+00	  0.048378024	-3.219200E+01	  0.048378024	9.328400E+01	  0.048378024	-6.913900E+01
198	  0.048573833	-5.811000E+00	  0.048573833	-3.391900E+01	  0.048573833	8.946000E+01	  0.048573833	-6.932700E+01
199	  0.048769638	-5.823000E+00	  0.048769638	-3.566100E+01	  0.048769638	8.576300E+01	  0.048769638	-6.927300E+01
200	  0.048965443	-5.837000E+00	  0.048965443	-3.736200E+01	  0.048965443	8.231700E+01	  0.048965443	-6.901200E+01
201	  0.049161248	-5.844000E+00	  0.049161248	-3.906700E+01	  0.049161248	7.901500E+01	  0.049161248	-6.871000E+01
202	  0.049357057	-5.854000E+00	  0.049357057	-4.072800E+01	  0.049357057	7.595300E+01	  0.049357057	-6.823600E+01
203	  0.049552862	-5.865000E+00	  0.049552862	-4.242100E+01	  0.049552862	7.298200E+01	  0.049552862	-6.764700E+01
204	  0.049748670	-5.873000E+00	  0.049748670	-4.408000E+01	  0.049748670	7.020900E+01	  0.049748670	-6.700500E+01
205	  0.049944475	-5.882000E+00	  0.049944475	-4.573600E+01	  0.049944475	6.757800E+01	  0.049944475	-6.627600E+01
206	  0.050140284	-5.891000E+00	  0.050140284	-4.738700E+01	  0.050140284	6.508600E+01	  0.050140284	-6.548100E+01
207	  0.050336089	-5.896000E+00	  0.050336089	-4.906200E+01	  0.050336089	6.266900E+01	  0.050336089	-6.465900E+01
208	  0.050531894	-5.900000E+00	  0.050531894	-5.070500E+01	  0.050531894	6.041600E+01	  0.050531894	-6.380900E+01
209	  0.050727699	-5.901000E+00	  0.050727699	-5.233600E+01	  0.050727699	5.828100E+01	  0.050727699	-6.294100E+01
210	  0.050923508	-5.903000E+00	  0.050923508	-5.391800E+01	  0.050923508	5.631000E+01	  0.050923508	-6.206100E+01
211	  0.051119313	-5.906000E+00	  0.051119313	-5.549900E+01	  0.051119313	5.443600E+01	  0.051119313	-6.115400E+01
212	  0.051315118	-5.907000E+00	  0.051315118	-5.708900E+01	  0.051315118	5.263700E+01	  0.051315118	-6.022300E+01
213	  0.051510923	-5.908000E+00	  0.051510923	-5.857700E+01	  0.051510923	5.103400E+01	  0.051510923	-5.933200E+01
214	  0.051706731	-5.912000E+00	  0.051706731	-6.011700E+01	  0.051706731	4.946000E+01	  0.051706731	-5.838100E+01
215	  0.051902536	-5.919000E+00	  0.051902536	-6.162600E+01	  0.051902536	4.800100E+01	  0.051902536	-5.742100E+01
216	  0.052098341	-5.921000E+00	  0.052098341	-6.313300E+01	  0.052098341	4.659200E+01	  0.052098341	-5.648700E+01
217	  0.052294150	-5.925000E+00	  0.052294150	-6.465200E+01	  0.052294150	4.524400E+01	  0.052294150	-5.552800E+01
218	  0.052489959	-5.934000E+00	  0.052489959	-6.620700E+01	  0.052489959	4.394700E+01	  0.052489959	-5.451900E+01
219	  0.052685764	-5.938000E+00	  0.052685764	-6.771800E+01	  0.052685764	4.273100E+01	  0.052685764	-5.355900E+01
220	  0.052881569	-5.942000E+00	  0.052881569	-6.921300E+01	  0.052881569	4.157800E+01	  0.052881569	-5.261700E+01
221	  0.053077377	-5.942000E+00	  0.053077377	-7.070700E+01	  0.053077377	4.046200E+01	  0.053077377	-5.169500E+01
222	  0.053273182	-5.943000E+00	  0.053273182	-7.221600E+01	  0.053273182	3.939000E+01	  0.053273182	-5.075800E+01
223	  0.053468987	-5.945000E+00	  0.053468987	-7.373000E+01	  0.053468987	3.836400E+01	  0.053468987	-4.982100E+01
224	  0.053664792	-5.944000E+00	  0.053664792	-7.520100E+01	  0.053664792	3.740200E+01	  0.053664792	-4.892400E+01
225	  0.053860601	-5.936000E+00	  0.053860601	-7.667000E+01	  0.053860601	3.645000E+01	  0.053860601	-4.806400E+01
226	  0.054056406	-5.932000E+00	  0.054056406	-7.812800E+01	  0.054056406	3.556100E+01	  0.054056406	-4.719500E+01
227	  0.054252211	-5.932000E+00	  0.054252211	-7.955700E+01	  0.054252211	3.474200E+01	  0.054252211	-4.633500E+01
228	  0.054448016	-5.922000E+00	  0.054448016	-8.093500E+01	  0.054448016	3.394300E+01	  0.054448016	-4.554600E+01
229	  0.054643828	-5.919000E+00	  0.054643828	-8.234400E+01	  0.054643828	3.318500E+01	  0.054643828	-4.471900E+01
230	  0.054839633	-5.918000E+00	  0.054839633	-8.366300E+01	  0.054839633	3.251000E+01	  0.054839633	-4.394300E+01
231	  0.055035438	-5.917000E+00	  0.055035438	-8.505800E+01	  0.055035438	3.182700E+01	  0.055035438	-4.312600E+01
232	  0.055231243	-5.914000E+00	  0.055231243	-8.636100E+01	  0.055231243	3.120100E+01	  0.055231243	-4.237800E+01
233	  0.055427052	-5.917000E+00	  0.055427052	-8.769300E+01	  0.055427052	3.061100E+01	  0.055427052	-4.159900E+01
234	  0.055622857	-5.917000E+00	  0.055622857	-8.905500E+01	  0.055622857	3.001600E+01	  0.055622857	-4.082000E+01
235	  0.055818662	-5.915000E+00	  0.055818662	-9.039600E+01	  0.055818662	2.944500E+01	  0.055818662	-4.006500E+01
236	  0.056014467	-5.918000E+00	  0.056014467	-9.170500E+01	  0.056014467	2.892600E+01	  0.056014467	-3.932100E+01
237	  0.056210276	-5.916000E+00	  0.056210276	-9.306300E+01	  0.056210276	2.839000E+01	  0.056210276	-3.856800E+01
238	  0.056406081	-5.919000E+00	  0.056406081	-9.439300E+01	  0.056406081	2.790200E+01	  0.056406081	-3.782600E+01
239	  0.056601886	-5.917000E+00	  0.056601886	-9.567600E+01	  0.056601886	2.743100E+01	  0.056601886	-3.712700E+01
240	  0.056797691	-5.913000E+00	  0.056797691	-9.700800E+01	  0.056797691	2.695000E+01	  0.056797691	-3.641400E+01
241	  0.056993503	-5.909000E+00	  0.056993503	-9.833300E+01	  0.056993503	2.649100E+01	  0.056993503	-3.570800E+01
242	  0.057189308	-5.899000E+00	  0.057189308	-9.963400E+01	  0.057189308	2.603400E+01	  0.057189308	-3.503500E+01
243	  0.057385113	-5.897000E+00	  0.057385113	-1.009060E+02	  0.057385113	2.562900E+01	  0.057385113	-3.436400E+01
244	  0.057580918	-5.895000E+00	  0.057580918	-1.021430E+02	  0.057580918	2.524700E+01	  0.057580918	-3.371900E+01
245	  0.057776727	-5.887000E+00	  0.057776727	-1.034060E+02	  0.057776727	2.485400E+01	  0.057776727	-3.307400E+01
246	  0.057972532	-5.889000E+00	  0.057972532	-1.046210E+02	  0.057972532	2.451600E+01	  0.057972532	-3.244300E+01
247	  0.058168337	-5.877000E+00	  0.058168337	-1.058380E+02	  0.058168337	2.414200E+01	  0.058168337	-3.184000E+01
248	  0.058364145	-5.880000E+00	  0.058364145	-1.070370E+02	  0.058364145	2.383800E+01	  0.058364145	-3.122300E+01
249	  0.058559950	-5.876000E+00	  0.058559950	-1.082540E+02	  0.058559950	2.351400E+01	  0.058559950	-3.061500E+01
250	  0.058755755	-5.873000E+00	  0.058755755	-1.094360E+02	  0.058755755	2.321100E+01	  0.058755755	-3.002700E+01
251	  0.058951560	-5.880000E+00	  0.058951560	-1.106420E+02	  0.058951560	2.294600E+01	  0.058951560	-2.941600E+01
252	  0.059147369	-5.880000E+00	  0.059147369	-1.118430E+02	  0.059147369	2.266500E+01	  0.059147369	-2.882400E+01
253	  0.059343174	-5.876000E+00	  0.059343174	-1.130560E+02	  0.059343174	2.238200E+01	  0.059343174	-2.823500E+01
254	  0.059538983	-5.873000E+00	  0.059538983	-1.142690E+02	  0.059538983	2.211000E+01	  0.059538983	-2.764900E+01
255	  0.059734788	-5.878000E+00	  0.059734788	-1.154700E+02	  0.059734788	2.187200E+01	  0.059734788	-2.706300E+01
256	  0.059930597	-5.874000E+00	  0.059930597	-1.166440E+02	  0.059930597	2.162200E+01	  0.059930597	-2.650600E+01
257	  0.060126401	-5.875000E+00	  0.060126401	-1.178240E+02	  0.060126401	2.139200E+01	  0.060126401	-2.594300E+01
258	  0.060322206	-5.872000E+00	  0.060322206	-1.190070E+02	  0.060322206	2.115700E+01	  0.060322206	-2.538800E+01
259	  0.060518011	-5.873000E+00	  0.060518011	-1.201970E+02	  0.060518011	2.093900E+01	  0.060518011	-2.482900E+01
260	  0.060713820	-5.865000E+00	  0.060713820	-1.213400E+02	  0.060713820	2.071300E+01	  0.060713820	-2.430600E+01
261	  0.060909625	-5.859000E+00	  0.060909625	-1.225250E+02	  0.060909625	2.048800E+01	  0.060909625	-2.376400E+01
262	  0.061105430	-5.856000E+00	  0.061105430	-1.236830E+02	  0.061105430	2.028500E+01	  0.061105430	-2.323500E+01
263	  0.061301235	-5.852000E+00	  0.061301235	-1.248390E+02	  0.061301235	2.008500E+01	  0.061301235	-2.271100E+01
264	  0.061497044	-5.848000E+00	  0.061497044	-1.259280E+02	  0.061497044	1.990400E+01	  0.061497044	-2.221900E+01
265	  0.061692849	-5.845000E+00	  0.061692849	-1.270450E+02	  0.061692849	1.972500E+01	  0.061692849	-2.171700E+01
266	  0.061888654	-5.838000E+00	  0.061888654	-1.281410E+02	  0.061888654	1.954300E+01	  0.061888654	-2.123100E+01
267	  0.062084462	-5.838000E+00	  0.062084462	-1.292320E+02	  0.062084462	1.938700E+01	  0.062084462	-2.074300E+01
268	  0.062280271	-5.833000E+00	  0.062280271	-1.303370E+02	  0.062280271	1.922100E+01	  0.062280271	-2.025700E+01
269	  0.062476076	-5.830000E+00	  0.062476076	-1.314020E+02	  0.062476076	1.907000E+01	  0.062476076	-1.978800E+01
270	  0.062671877	-5.827000E+00	  0.062671877	-1.325190E+02	  0.062671877	1.891600E+01	  0.062671877	-1.929900E+01
271	  0.062867686	-5.827000E+00	  0.062867686	-1.336090E+02	  0.062867686	1.877900E+01	  0.062867686	-1.882200E+01
272	  0.063063495	-5.827000E+00	  0.063063495	-1.346860E+02	  0.063063495	1.864700E+01	  0.063063495	-1.835300E+01
273	  0.063259304	-5.827000E+00	  0.063259304	-1.357900E+02	  0.063259304	1.851800E+01	  0.063259304	-1.787400E+01
274	  0.063455105	-5.824000E+00	  0.063455105	-1.368850E+02	  0.063455105	1.838700E+01	  0.063455105	-1.740400E+01
275	  0.063650914	-5.823000E+00	  0.063650914	-1.379450E+02	  0.063650914	1.826700E+01	  0.063650914	-1.695000E+01
276	  0.063846722	-5.812000E+00	  0.063846722	-1.390310E+02	  0.063846722	1.811900E+01	  0.063846722	-1.649400E+01
277	  0.064042524	-5.815000E+00	  0.064042524	-1.401050E+02	  0.064042524	1.801800E+01	  0.064042524	-1.603500E+01
278	  0.064238332	-5.810000E+00	  0.064238332	-1.412030E+02	  0.064238332	1.789600E+01	  0.064238332	-1.557300E+01
279	  0.064434141	-5.809000E+00	  0.064434141	-1.422400E+02	  0.064434141	1.779400E+01	  0.064434141	-1.513600E+01
280	  0.064629942	-5.805000E+00	  0.064629942	-1.432950E+02	  0.064629942	1.768400E+01	  0.064629942	-1.469600E+01
281	  0.064825751	-5.801000E+00	  0.064825751	-1.443350E+02	  0.064825751	1.758000E+01	  0.064825751	-1.426200E+01
282	  0.065021552	-5.801000E+00	  0.065021552	-1.453410E+02	  0.065021552	1.749500E+01	  0.065021552	-1.384200E+01
283	  0.065217361	-5.801000E+00	  0.065217361	-1.463740E+02	  0.065217361	1.740800E+01	  0.065217361	-1.341300E+01
284	  0.065413170	-5.804000E+00	  0.065413170	-1.473760E+02	  0.065413170	1.733500E+01	  0.065413170	-1.299700E+01
285	  0.065608978	-5.800000E+00	  0.065608978	-1.484260E+02	  0.065608978	1.724400E+01	  0.065608978	-1.256600E+01
286	  0.065804780	-5.802000E+00	  0.065804780	-1.494190E+02	  0.065804780	1.717800E+01	  0.065804780	-1.215600E+01
287	  0.066000588	-5.806000E+00	  0.066000588	-1.504250E+02	  0.066000588	1.711600E+01	  0.066000588	-1.174200E+01
288	  0.066196397	-5.804000E+00	  0.066196397	-1.514330E+02	  0.066196397	1.704100E+01	  0.066196397	-1.133100E+01
289	  0.066392198	-5.804000E+00	  0.066392198	-1.524520E+02	  0.066392198	1.697300E+01	  0.066392198	-1.091600E+01
290	  0.066588007	-5.806000E+00	  0.066588007	-1.534580E+02	  0.066588007	1.691500E+01	  0.066588007	-1.050600E+01
291	  0.066783816	-5.803000E+00	  0.066783816	-1.544610E+02	  0.066783816	1.684700E+01	  0.066783816	-1.010100E+01
292	  0.066979617	-5.806000E+00	  0.066979617	-1.554590E+02	  0.066979617	1.679600E+01	  0.066979617	-9.697000E+00
293	  0.067175426	-5.807000E+00	  0.067175426	-1.564280E+02	  0.067175426	1.674500E+01	  0.067175426	-9.306000E+00
294	  0.067371234	-5.808000E+00	  0.067371234	-1.574370E+02	  0.067371234	1.669300E+01	  0.067371234	-8.900000E+00
295	  0.067567036	-5.811000E+00	  0.067567036	-1.584270E+02	  0.067567036	1.665100E+01	  0.067567036	-8.502000E+00
296	  0.067762844	-5.812000E+00	  0.067762844	-1.594130E+02	  0.067762844	1.660700E+01	  0.067762844	-8.107000E+00
297	  0.067958646	-5.814000E+00	  0.067958646	-1.603580E+02	  0.067958646	1.656900E+01	  0.067958646	-7.729000E+00
298	  0.068154462	-5.811000E+00	  0.068154462	-1.613640E+02	  0.068154462	1.651800E+01	  0.068154462	-7.329000E+00
299	  0.068350263	-5.816000E+00	  0.068350263	-1.623210E+02	  0.068350263	1.649100E+01	  0.068350263	-6.947000E+00
300	  0.068546072	-5.812000E+00	  0.068546072	-1.632880E+02	  0.068546072	1.644200E+01	  0.068546072	-6.564000E+00
301	  0.068741873	-5.812000E+00	  0.068741873	-1.642290E+02	  0.068741873	1.640900E+01	  0.068741873	-6.191000E+00
302	  0.068937682	-5.817000E+00	  0.068937682	-1.651690E+02	  0.068937682	1.638900E+01	  0.068937682	-5.818000E+00
303	  0.069133483	-5.818000E+00	  0.069133483	-1.661280E+02	  0.069133483	1.636000E+01	  0.069133483	-5.439000E+00
304	  0.069329299	-5.819000E+00	  0.069329299	-1.670630E+02	  0.069329299	1.633400E+01	  0.069329299	-5.070000E+00
305	  0.069525100	-5.824000E+00	  0.069525100	-1.680370E+02	  0.069525100	1.632200E+01	  0.069525100	-4.685000E+00
306	  0.069720909	-5.827000E+00	  0.069720909	-1.689510E+02	  0.069720909	1.630500E+01	  0.069720909	-4.325000E+00
307	  0.069916710	-5.829000E+00	  0.069916710	-1.698570E+02	  0.069916710	1.628900E+01	  0.069916710	-3.969000E+00
308	  0.070112519	-5.834000E+00	  0.070112519	-1.707600E+02	  0.070112519	1.628200E+01	  0.070112519	-3.614000E+00
309	  0.070308320	-5.834000E+00	  0.070308320	-1.717380E+02	  0.070308320	1.626300E+01	  0.070308320	-3.230000E+00
310	  0.070504129	-5.840000E+00	  0.070504129	-1.726180E+02	  0.070504129	1.626400E+01	  0.070504129	-2.885000E+00
311	  0.070699938	-5.835000E+00	  0.070699938	-1.735700E+02	  0.070699938	1.623700E+01	  0.070699938	-2.513000E+00
312	  0.070895746	-5.841000E+00	  0.070895746	-1.744640E+02	  0.070895746	1.624000E+01	  0.070895746	-2.162000E+00
313	  0.071091555	-5.844000E+00	  0.071091555	-1.753610E+02	  0.071091555	1.623900E+01	  0.071091555	-1.811000E+00
314	  0.071287356	-5.850000E+00	  0.071287356	-1.762650E+02	  0.071287356	1.624500E+01	  0.071287356	-1.458000E+00
315	  0.071483165	-5.855000E+00	  0.071483165	-1.771680E+02	  0.071483165	1.625100E+01	  0.071483165	-1.105000E+00
316	  0.071678966	-5.857000E+00	  0.071678966	-1.780500E+02	  0.071678966	1.625300E+01	  0.071678966	-7.600000E-01
317	  0.071874775	-5.864000E+00	  0.071874775	-1.789280E+02	  0.071874775	1.626700E+01	  0.071874775	-4.180000E-01
318	  0.072070576	-5.870000E+00	  0.072070576	-1.798380E+02	  0.072070576	1.628200E+01	  0.072070576	-6.200000E-02
319	  0.072266392	-5.874000E+00	  0.072266392	1.793090E+02	  0.072266392	1.629200E+01	  0.072266392	2.690000E-01
320	  0.072462194	-5.881000E+00	  0.072462194	1.784370E+02	  0.072462194	1.631300E+01	  0.072462194	6.090000E-01
321	  0.072658002	-5.885000E+00	  0.072658002	1.775630E+02	  0.072658002	1.632600E+01	  0.072658002	9.500000E-01
322	  0.072853811	-5.898000E+00	  0.072853811	1.766800E+02	  0.072853811	1.636400E+01	  0.072853811	1.293000E+00
323	  0.073049612	-5.904000E+00	  0.073049612	1.758310E+02	  0.073049612	1.638700E+01	  0.073049612	1.624000E+00
324	  0.073245421	-5.911000E+00	  0.073245421	1.749460E+02	  0.073245421	1.641400E+01	  0.073245421	1.969000E+00
325	  0.073441222	-5.912000E+00	  0.073441222	1.740940E+02	  0.073441222	1.642900E+01	  0.073441222	2.301000E+00
326	  0.073637031	-5.923000E+00	  0.073637031	1.732540E+02	  0.073637031	1.646900E+01	  0.073637031	2.627000E+00
327	  0.073832840	-5.932000E+00	  0.073832840	1.723830E+02	  0.073832840	1.650600E+01	  0.073832840	2.967000E+00
328	  0.074028648	-5.942000E+00	  0.074028648	1.715350E+02	  0.074028648	1.654700E+01	  0.074028648	3.296000E+00
329	  0.074224450	-5.947000E+00	  0.074224450	1.707010E+02	  0.074224450	1.657500E+01	  0.074224450	3.621000E+00
330	  0.074420258	-5.961000E+00	  0.074420258	1.698430E+02	  0.074420258	1.663000E+01	  0.074420258	3.955000E+00
331	  0.074616060	-5.966000E+00	  0.074616060	1.690040E+02	  0.074616060	1.666500E+01	  0.074616060	4.282000E+00
332	  0.074811868	-5.973000E+00	  0.074811868	1.681710E+02	  0.074811868	1.670300E+01	  0.074811868	4.606000E+00
333	  0.075007670	-5.987000E+00	  0.075007670	1.673440E+02	  0.075007670	1.676300E+01	  0.075007670	4.928000E+00
334	  0.075203478	-5.995000E+00	  0.075203478	1.664810E+02	  0.075203478	1.680900E+01	  0.075203478	5.264000E+00
335	  0.075399294	-6.004000E+00	  0.075399294	1.656730E+02	  0.075399294	1.685900E+01	  0.075399294	5.579000E+00
336	  0.075595096	-6.015000E+00	  0.075595096	1.648890E+02	  0.075595096	1.691300E+01	  0.075595096	5.884000E+00
337	  0.075790904	-6.030000E+00	  0.075790904	1.640580E+02	  0.075790904	1.698200E+01	  0.075790904	6.207000E+00
338	  0.075986706	-6.042000E+00	  0.075986706	1.632360E+02	  0.075986706	1.704300E+01	  0.075986706	6.527000E+00
339	  0.076182514	-6.050000E+00	  0.076182514	1.623980E+02	  0.076182514	1.709900E+01	  0.076182514	6.854000E+00
340	  0.076378316	-6.063000E+00	  0.076378316	1.615770E+02	  0.076378316	1.716500E+01	  0.076378316	7.174000E+00
341	  0.076574124	-6.072000E+00	  0.076574124	1.607620E+02	  0.076574124	1.722600E+01	  0.076574124	7.492000E+00
342	  0.076769926	-6.085000E+00	  0.076769926	1.599380E+02	  0.076769926	1.729800E+01	  0.076769926	7.813000E+00
343	  0.076965742	-6.098000E+00	  0.076965742	1.591310E+02	  0.076965742	1.737000E+01	  0.076965742	8.128000E+00
344	  0.077161543	-6.109000E+00	  0.077161543	1.583450E+02	  0.077161543	1.743900E+01	  0.077161543	8.435000E+00
345	  0.077357352	-6.122000E+00	  0.077357352	1.575550E+02	  0.077357352	1.751400E+01	  0.077357352	8.744000E+00
346	  0.077553153	-6.135000E+00	  0.077553153	1.567630E+02	  0.077553153	1.759000E+01	  0.077553153	9.053000E+00
347	  0.077748962	-6.144000E+00	  0.077748962	1.559510E+02	  0.077748962	1.765900E+01	  0.077748962	9.372000E+00
348	  0.077944770	-6.157000E+00	  0.077944770	1.552150E+02	  0.077944770	1.773900E+01	  0.077944770	9.659000E+00
349	  0.078140572	-6.170000E+00	  0.078140572	1.543960E+02	  0.078140572	1.782300E+01	  0.078140572	9.980000E+00
350	  0.078336388	-6.186000E+00	  0.078336388	1.536010E+02	  0.078336388	1.791500E+01	  0.078336388	1.029000E+01
351	  0.078532189	-6.205000E+00	  0.078532189	1.527850E+02	  0.078532189	1.801800E+01	  0.078532189	1.060700E+01
352	  0.078727998	-6.218000E+00	  0.078727998	1.520300E+02	  0.078727998	1.810400E+01	  0.078727998	1.090300E+01
353	  0.078923799	-6.234000E+00	  0.078923799	1.512400E+02	  0.078923799	1.820000E+01	  0.078923799	1.121200E+01
354	  0.079119608	-6.257000E+00	  0.079119608	1.504860E+02	  0.079119608	1.831500E+01	  0.079119608	1.150400E+01
355	  0.079315409	-6.270000E+00	  0.079315409	1.496640E+02	  0.079315409	1.841300E+01	  0.079315409	1.182600E+01
356	  0.079511218	-6.287000E+00	  0.079511218	1.488980E+02	  0.079511218	1.851700E+01	  0.079511218	1.212600E+01
357	  0.079707019	-6.300000E+00	  0.079707019	1.481050E+02	  0.079707019	1.861400E+01	  0.079707019	1.243800E+01
358	  0.079902835	-6.319000E+00	  0.079902835	1.473090E+02	  0.079902835	1.873000E+01	  0.079902835	1.274900E+01
359	  0.080098644	-6.337000E+00	  0.080098644	1.465100E+02	  0.080098644	1.884600E+01	  0.080098644	1.306100E+01
360	  0.080294445	-6.350000E+00	  0.080294445	1.457250E+02	  0.080294445	1.894900E+01	  0.080294445	1.337100E+01
361	  0.080490254	-6.367000E+00	  0.080490254	1.449190E+02	  0.080490254	1.906600E+01	  0.080490254	1.368800E+01
362	  0.080686055	-6.392000E+00	  0.080686055	1.441580E+02	  0.080686055	1.920300E+01	  0.080686055	1.398200E+01
363	  0.080881864	-6.404000E+00	  0.080881864	1.433520E+02	  0.080881864	1.931100E+01	  0.080881864	1.430200E+01
364	  0.081077665	-6.418000E+00	  0.081077665	1.425660E+02	  0.081077665	1.942800E+01	  0.081077665	1.461300E+01
365	  0.081273474	-6.440000E+00	  0.081273474	1.418060E+02	  0.081273474	1.956200E+01	  0.081273474	1.490800E+01
366	  0.081469283	-6.457000E+00	  0.081469283	1.409910E+02	  0.081469283	1.969300E+01	  0.081469283	1.523000E+01
367	  0.081665091	-6.472000E+00	  0.081665091	1.402410E+02	  0.081665091	1.981300E+01	  0.081665091	1.552600E+01
368	  0.081860892	-6.488000E+00	  0.081860892	1.394440E+02	  0.081860892	1.994100E+01	  0.081860892	1.584200E+01
369	  0.082056701	-6.510000E+00	  0.082056701	1.387030E+02	  0.082056701	2.008600E+01	  0.082056701	1.613000E+01
370	  0.082252502	-6.529000E+00	  0.082252502	1.379110E+02	  0.082252502	2.022800E+01	  0.082252502	1.644200E+01
371	  0.082448311	-6.548000E+00	  0.082448311	1.372100E+02	  0.082448311	2.036000E+01	  0.082448311	1.671700E+01
372	  0.082644112	-6.570000E+00	  0.082644112	1.364460E+02	  0.082644112	2.051300E+01	  0.082644112	1.701500E+01
373	  0.082839929	-6.591000E+00	  0.082839929	1.356740E+02	  0.082839929	2.066500E+01	  0.082839929	1.731700E+01
374	  0.083035737	-6.613000E+00	  0.083035737	1.348990E+02	  0.083035737	2.082500E+01	  0.083035737	1.762000E+01
375	  0.083231539	-6.635000E+00	  0.083231539	1.341410E+02	  0.083231539	2.098300E+01	  0.083231539	1.791500E+01
376	  0.083427347	-6.660000E+00	  0.083427347	1.333820E+02	  0.083427347	2.115000E+01	  0.083427347	1.821000E+01
377	  0.083623149	-6.680000E+00	  0.083623149	1.326020E+02	  0.083623149	2.131400E+01	  0.083623149	1.851600E+01
378	  0.083818957	-6.701000E+00	  0.083818957	1.318730E+02	  0.083818957	2.147300E+01	  0.083818957	1.880100E+01
379	  0.084014758	-6.718000E+00	  0.084014758	1.310910E+02	  0.084014758	2.163100E+01	  0.084014758	1.911200E+01
380	  0.084210567	-6.737000E+00	  0.084210567	1.303920E+02	  0.084210567	2.178500E+01	  0.084210567	1.938700E+01
381	  0.084406376	-6.760000E+00	  0.084406376	1.296850E+02	  0.084406376	2.195400E+01	  0.084406376	1.966100E+01
382	  0.084602185	-6.783000E+00	  0.084602185	1.289920E+02	  0.084602185	2.212300E+01	  0.084602185	1.992900E+01
383	  0.084797986	-6.803000E+00	  0.084797986	1.282260E+02	  0.084797986	2.229700E+01	  0.084797986	2.023100E+01
384	  0.084993795	-6.834000E+00	  0.084993795	1.275280E+02	  0.084993795	2.249400E+01	  0.084993795	2.049200E+01
385	  0.085189603	-6.852000E+00	  0.085189603	1.268110E+02	  0.085189603	2.266100E+01	  0.085189603	2.077500E+01
386	  0.085385405	-6.876000E+00	  0.085385405	1.261260E+02	  0.085385405	2.284300E+01	  0.085385405	2.103700E+01
387	  0.085581213	-6.904000E+00	  0.085581213	1.254070E+02	  0.085581213	2.304300E+01	  0.085581213	2.131000E+01
388	  0.085777014	-6.929000E+00	  0.085777014	1.247430E+02	  0.085777014	2.322800E+01	  0.085777014	2.156200E+01
389	  0.085972831	-6.957000E+00	  0.085972831	1.240560E+02	  0.085972831	2.342700E+01	  0.085972831	2.182100E+01
390	  0.086168632	-6.987000E+00	  0.086168632	1.233940E+02	  0.086168632	2.363000E+01	  0.086168632	2.206500E+01
391	  0.086364441	-7.018000E+00	  0.086364441	1.227110E+02	  0.086364441	2.384100E+01	  0.086364441	2.231800E+01
392	  0.086560242	-7.048000E+00	  0.086560242	1.219810E+02	  0.086560242	2.406300E+01	  0.086560242	2.259000E+01
393	  0.086756051	-7.070000E+00	  0.086756051	1.212980E+02	  0.086756051	2.425700E+01	  0.086756051	2.285200E+01
394	  0.086951852	-7.099000E+00	  0.086951852	1.206010E+02	  0.086951852	2.447300E+01	  0.086951852	2.311100E+01
395	  0.087147661	-7.131000E+00	  0.087147661	1.199320E+02	  0.087147661	2.469600E+01	  0.087147661	2.335300E+01
396	  0.087343477	-7.158000E+00	  0.087343477	1.192230E+02	  0.087343477	2.491700E+01	  0.087343477	2.361800E+01
397	  0.087539278	-7.185000E+00	  0.087539278	1.185380E+02	  0.087539278	2.513500E+01	  0.087539278	2.387200E+01
398	  0.087735087	-7.215000E+00	  0.087735087	1.179150E+02	  0.087735087	2.535000E+01	  0.087735087	2.409600E+01
399	  0.087930888	-7.246000E+00	  0.087930888	1.172530E+02	  0.087930888	2.558100E+01	  0.087930888	2.433300E+01
400	  0.088126697	-7.277000E+00	  0.088126697	1.165560E+02	  0.088126697	2.581900E+01	  0.088126697	2.458600E+01
401	  0.088322498	-7.306000E+00	  0.088322498	1.159090E+02	  0.088322498	2.604500E+01	  0.088322498	2.481900E+01
402	  0.088518307	-7.337000E+00	  0.088518307	1.152850E+02	  0.088518307	2.627600E+01	  0.088518307	2.503600E+01
403	  0.088714108	-7.366000E+00	  0.088714108	1.146300E+02	  0.088714108	2.650600E+01	  0.088714108	2.527200E+01
404	  0.088909924	-7.399000E+00	  0.088909924	1.140100E+02	  0.088909924	2.674600E+01	  0.088909924	2.548300E+01
405	  0.089105725	-7.427000E+00	  0.089105725	1.133780E+02	  0.089105725	2.697700E+01	  0.089105725	2.570700E+01
406	  0.089301534	-7.464000E+00	  0.089301534	1.127960E+02	  0.089301534	2.722200E+01	  0.089301534	2.589500E+01
407	  0.089497335	-7.498000E+00	  0.089497335	1.121740E+02	  0.089497335	2.747100E+01	  0.089497335	2.610400E+01
408	  0.089693144	-7.531000E+00	  0.089693144	1.115520E+02	  0.089693144	2.772200E+01	  0.089693144	2.631000E+01
409	  0.089888945	-7.568000E+00	  0.089888945	1.109130E+02	  0.089888945	2.798800E+01	  0.089888945	2.651800E+01
410	  0.090084754	-7.604000E+00	  0.090084754	1.103050E+02	  0.090084754	2.824700E+01	  0.090084754	2.671300E+01
411	  0.090280563	-7.638000E+00	  0.090280563	1.097160E+02	  0.090280563	2.849900E+01	  0.090280563	2.690100E+01
412	  0.090476371	-7.673000E+00	  0.090476371	1.090860E+02	  0.090476371	2.876400E+01	  0.090476371	2.710500E+01
413	  0.090672180	-7.712000E+00	  0.090672180	1.085570E+02	  0.090672180	2.901800E+01	  0.090672180	2.725600E+01
414	  0.090867981	-7.745000E+00	  0.090867981	1.079510E+02	  0.090867981	2.927700E+01	  0.090867981	2.745000E+01
415	  0.091063790	-7.778000E+00	  0.091063790	1.074140E+02	  0.091063790	2.952000E+01	  0.091063790	2.761200E+01
416	  0.091259591	-7.816000E+00	  0.091259591	1.068020E+02	  0.091259591	2.980000E+01	  0.091259591	2.779600E+01
417	  0.091455400	-7.848000E+00	  0.091455400	1.062940E+02	  0.091455400	3.003600E+01	  0.091455400	2.794500E+01
418	  0.091651201	-7.878000E+00	  0.091651201	1.057420E+02	  0.091651201	3.028100E+01	  0.091651201	2.811600E+01
419	  0.091847017	-7.917000E+00	  0.091847017	1.052180E+02	  0.091847017	3.054400E+01	  0.091847017	2.825500E+01
420	  0.092042819	-7.950000E+00	  0.092042819	1.047270E+02	  0.092042819	3.078300E+01	  0.092042819	2.839100E+01
421	  0.092238627	-7.984000E+00	  0.092238627	1.042360E+02	  0.092238627	3.102600E+01	  0.092238627	2.852400E+01
422	  0.092434436	-8.015000E+00	  0.092434436	1.037530E+02	  0.092434436	3.125900E+01	  0.092434436	2.865900E+01
423	  0.092630237	-8.053000E+00	  0.092630237	1.032750E+02	  0.092630237	3.151200E+01	  0.092630237	2.877500E+01
424	  0.092826046	-8.090000E+00	  0.092826046	1.028310E+02	  0.092826046	3.175400E+01	  0.092826046	2.887700E+01
425	  0.093021847	-8.127000E+00	  0.093021847	1.023630E+02	  0.093021847	3.200100E+01	  0.093021847	2.899000E+01
426	  0.093217656	-8.166000E+00	  0.093217656	1.018990E+02	  0.093217656	3.225800E+01	  0.093217656	2.909100E+01
427	  0.093413465	-8.200000E+00	  0.093413465	1.014310E+02	  0.093413465	3.250100E+01	  0.093413465	2.920700E+01
428	  0.093609273	-8.228000E+00	  0.093609273	1.009850E+02	  0.093609273	3.272300E+01	  0.093609273	2.932400E+01
429	  0.093805075	-8.263000E+00	  0.093805075	1.005340E+02	  0.093805075	3.296800E+01	  0.093805075	2.942500E+01
430	  0.094000883	-8.296000E+00	  0.094000883	1.001160E+02	  0.094000883	3.319600E+01	  0.094000883	2.951800E+01
431	  0.094196685	-8.333000E+00	  0.094196685	9.964800E+01	  0.094196685	3.345400E+01	  0.094196685	2.961800E+01
432	  0.094392493	-8.359000E+00	  0.094392493	9.924300E+01	  0.094392493	3.366300E+01	  0.094392493	2.971700E+01
433	  0.094588295	-8.391000E+00	  0.094588295	9.879100E+01	  0.094588295	3.390500E+01	  0.094588295	2.982000E+01
434	  0.094784103	-8.416000E+00	  0.094784103	9.842500E+01	  0.094784103	3.409700E+01	  0.094784103	2.990600E+01
435	  0.094979919	-8.443000E+00	  0.094979919	9.802000E+01	  0.094979919	3.431200E+01	  0.094979919	2.999800E+01
436	  0.095175721	-8.464000E+00	  0.095175721	9.759600E+01	  0.095175721	3.451800E+01	  0.095175721	3.011300E+01
437	  0.095371529	-8.482000E+00	  0.095371529	9.717600E+01	  0.095371529	3.471800E+01	  0.095371529	3.023200E+01
438	  0.095567331	-8.519000E+00	  0.095567331	9.676600E+01	  0.095567331	3.496300E+01	  0.095567331	3.029900E+01
439	  0.095763139	-8.547000E+00	  0.095763139	9.635900E+01	  0.095763139	3.518500E+01	  0.095763139	3.038600E+01
440	  0.095958941	-8.571000E+00	  0.095958941	9.598900E+01	  0.095958941	3.538200E+01	  0.095958941	3.046900E+01
441	  0.096154749	-8.594000E+00	  0.096154749	9.562100E+01	  0.096154749	3.557900E+01	  0.096154749	3.055100E+01
442	  0.096350558	-8.610000E+00	  0.096350558	9.520500E+01	  0.096350558	3.577800E+01	  0.096350558	3.066700E+01
443	  0.096546367	-8.638000E+00	  0.096546367	9.480900E+01	  0.096546367	3.599900E+01	  0.096546367	3.074600E+01
444	  0.096742168	-8.660000E+00	  0.096742168	9.443400E+01	  0.096742168	3.619900E+01	  0.096742168	3.082900E+01
445	  0.096937977	-8.685000E+00	  0.096937977	9.404300E+01	  0.096937977	3.641300E+01	  0.096937977	3.091100E+01
446	  0.097133778	-8.705000E+00	  0.097133778	9.363300E+01	  0.097133778	3.662400E+01	  0.097133778	3.101100E+01
447	  0.097329587	-8.720000E+00	  0.097329587	9.322200E+01	  0.097329587	3.682600E+01	  0.097329587	3.112100E+01
448	  0.097525395	-8.739000E+00	  0.097525395	9.287400E+01	  0.097525395	3.701200E+01	  0.097525395	3.120000E+01
449	  0.097721197	-8.761000E+00	  0.097721197	9.249000E+01	  0.097721197	3.721900E+01	  0.097721197	3.128300E+01
450	  0.097917013	-8.776000E+00	  0.097917013	9.210500E+01	  0.097917013	3.741300E+01	  0.097917013	3.138200E+01
451	  0.098112814	-8.804000E+00	  0.098112814	9.177500E+01	  0.098112814	3.761500E+01	  0.098112814	3.142700E+01
452	  0.098308623	-8.813000E+00	  0.098308623	9.136100E+01	  0.098308623	3.781000E+01	  0.098308623	3.154900E+01
453	  0.098504424	-8.827000E+00	  0.098504424	9.101900E+01	  0.098504424	3.798500E+01	  0.098504424	3.163600E+01
454	  0.098700233	-8.837000E+00	  0.098700233	9.067600E+01	  0.098700233	3.815200E+01	  0.098700233	3.173100E+01
455	  0.098896034	-8.851000E+00	  0.098896034	9.028900E+01	  0.098896034	3.835000E+01	  0.098896034	3.183000E+01
456	  0.099091843	-8.868000E+00	  0.099091843	8.996700E+01	  0.099091843	3.852700E+01	  0.099091843	3.189800E+01
457	  0.099287644	-8.879000E+00	  0.099287644	8.961300E+01	  0.099287644	3.870500E+01	  0.099287644	3.199100E+01
458	  0.099483460	-8.893000E+00	  0.099483460	8.924600E+01	  0.099483460	3.889700E+01	  0.099483460	3.208000E+01
459	  0.099679269	-8.903000E+00	  0.099679269	8.894000E+01	  0.099679269	3.905400E+01	  0.099679269	3.215900E+01
460	  0.099875070	-8.917000E+00	  0.099875070	8.856900E+01	  0.099875070	3.925100E+01	  0.099875070	3.224600E+01
461	  0.100070879	-8.927000E+00	  0.100070879	8.829000E+01	  0.100070879	3.939600E+01	  0.100070879	3.231700E+01
462	  0.100266680	-8.929000E+00	  0.100266680	8.797500E+01	  0.100266680	3.954300E+01	  0.100266680	3.241800E+01
463	  0.100462489	-8.942000E+00	  0.100462489	8.758500E+01	  0.100462489	3.974600E+01	  0.100462489	3.251700E+01
464	  0.100658290	-8.953000E+00	  0.100658290	8.722900E+01	  0.100658290	3.993200E+01	  0.100658290	3.260600E+01
465	  0.100854106	-8.967000E+00	  0.100854106	8.691200E+01	  0.100854106	4.010800E+01	  0.100854106	3.267300E+01
466	  0.101049908	-8.965000E+00	  0.101049908	8.664700E+01	  0.101049908	4.022600E+01	  0.101049908	3.276700E+01
467	  0.101245716	-8.973000E+00	  0.101245716	8.633600E+01	  0.101245716	4.038700E+01	  0.101245716	3.285100E+01
468	  0.101441517	-8.983000E+00	  0.101441517	8.601900E+01	  0.101441517	4.055700E+01	  0.101441517	3.292600E+01
469	  0.101637326	-8.986000E+00	  0.101637326	8.566300E+01	  0.101637326	4.073100E+01	  0.101637326	3.303700E+01
470	  0.101833127	-8.993000E+00	  0.101833127	8.534000E+01	  0.101833127	4.089900E+01	  0.101833127	3.312400E+01
471	  0.102028936	-8.987000E+00	  0.102028936	8.497600E+01	  0.102028936	4.105700E+01	  0.102028936	3.326600E+01
472	  0.102224737	-8.996000E+00	  0.102224737	8.467000E+01	  0.102224737	4.122500E+01	  0.102224737	3.333800E+01
473	  0.102420554	-8.994000E+00	  0.102420554	8.433800E+01	  0.102420554	4.137800E+01	  0.102420554	3.345800E+01
474	  0.102616362	-8.995000E+00	  0.102616362	8.395000E+01	  0.102616362	4.157100E+01	  0.102616362	3.358100E+01
475	  0.102812164	-9.004000E+00	  0.102812164	8.361400E+01	  0.102812164	4.175400E+01	  0.102812164	3.366500E+01
476	  0.103007972	-8.999000E+00	  0.103007972	8.327500E+01	  0.103007972	4.191000E+01	  0.103007972	3.379300E+01
477	  0.103203773	-9.002000E+00	  0.103203773	8.295100E+01	  0.103203773	4.207800E+01	  0.103203773	3.388700E+01
478	  0.103399582	-8.991000E+00	  0.103399582	8.255800E+01	  0.103399582	4.225000E+01	  0.103399582	3.405500E+01
479	  0.103595383	-8.993000E+00	  0.103595383	8.221700E+01	  0.103595383	4.242700E+01	  0.103595383	3.415800E+01
480	  0.103791192	-8.995000E+00	  0.103791192	8.186400E+01	  0.103791192	4.260900E+01	  0.103791192	3.426700E+01
481	  0.103987001	-8.985000E+00	  0.103987001	8.149300E+01	  0.103987001	4.277900E+01	  0.103987001	3.442000E+01
482	  0.104182810	-8.982000E+00	  0.104182810	8.110000E+01	  0.104182810	4.297500E+01	  0.104182810	3.455700E+01
483	  0.104378611	-8.969000E+00	  0.104378611	8.068600E+01	  0.104378611	4.316300E+01	  0.104378611	3.473600E+01
484	  0.104574420	-8.971000E+00	  0.104574420	8.027400E+01	  0.104574420	4.338400E+01	  0.104574420	3.486100E+01
485	  0.104770228	-8.955000E+00	  0.104770228	7.997900E+01	  0.104770228	4.350700E+01	  0.104770228	3.501000E+01
486	  0.104966030	-8.953000E+00	  0.104966030	7.953100E+01	  0.104966030	4.374100E+01	  0.104966030	3.516100E+01
487	  0.105161838	-8.943000E+00	  0.105161838	7.911600E+01	  0.105161838	4.394500E+01	  0.105161838	3.532800E+01
488	  0.105357639	-8.941000E+00	  0.105357639	7.871100E+01	  0.105357639	4.416100E+01	  0.105357639	3.546400E+01
489	  0.105553456	-8.916000E+00	  0.105553456	7.825900E+01	  0.105553456	4.435700E+01	  0.105553456	3.569700E+01
490	  0.105749257	-8.915000E+00	  0.105749257	7.790000E+01	  0.105749257	4.455300E+01	  0.105749257	3.581500E+01
491	  0.105945066	-8.900000E+00	  0.105945066	7.752900E+01	  0.105945066	4.473000E+01	  0.105945066	3.598600E+01
492	  0.106140867	-8.878000E+00	  0.106140867	7.699000E+01	  0.106140867	4.499000E+01	  0.106140867	3.623500E+01
493	  0.106336676	-8.860000E+00	  0.106336676	7.659300E+01	  0.106336676	4.517900E+01	  0.106336676	3.642900E+01
494	  0.106532477	-8.862000E+00	  0.106532477	7.612800E+01	  0.106532477	4.545300E+01	  0.106532477	3.656300E+01
495	  0.106728286	-8.841000E+00	  0.106728286	7.572800E+01	  0.106728286	4.564200E+01	  0.106728286	3.677000E+01
496	  0.106924094	-8.824000E+00	  0.106924094	7.525900E+01	  0.106924094	4.588400E+01	  0.106924094	3.698100E+01
497	  0.107119903	-8.811000E+00	  0.107119903	7.483600E+01	  0.107119903	4.611100E+01	  0.107119903	3.715900E+01
498	  0.107315712	-8.797000E+00	  0.107315712	7.431400E+01	  0.107315712	4.639700E+01	  0.107315712	3.737300E+01
499	  0.107511513	-8.774000E+00	  0.107511513	7.389500E+01	  0.107511513	4.660400E+01	  0.107511513	3.759700E+01
500	  0.107707322	-8.756000E+00	  0.107707322	7.338800E+01	  0.107707322	4.688100E+01	  0.107707322	3.782100E+01
501	  0.107903123	-8.738000E+00	  0.107903123	7.295200E+01	  0.107903123	4.711700E+01	  0.107903123	3.802600E+01
