! Anritsu VNA Master:             	Model: MS2036C/10/77
! SN:             	1601066
! /card0/usr/255.ew.sma.r50.v2.2_1.txt
! Existing Calibration Information:
! TYPE:             	Current Settings	Active Cal Settings
! TIME:             	12/17/2017 06:30:23 PM	12/17/2017 06:11:23 PM
! INTERNAL TEMP:    	43.8 C	43.8 C
! # POINTS:         	501	501
! START FREQ:       	10.000 MHz	10.000 MHz
! STOP FREQ:        	107.903 125 MHz	107.903 125 MHz
! SOURCE POWER:     	High	High
! IFBW:             	100 Hz	100 Hz
! AVG FACTOR:       	  1 	  1 
! REF PLANE 1:      	0 mm	0 mm
! REF PLANE 2:      	0 mm	0 mm
! CAL TYPE:         	Full S11	Full S11
! CAL METHOD:       	SOLT	SOLT
! CAL LINE TYPE:    	Coax	Coax
! DUT PORT 1:       	K-Conn(F)	K-Conn(F)
! DUT PORT 2:       	K-Conn(F)	K-Conn(F)
! CAL STATUS:       	OK: Accuracy High	--
! PROP-V:       	0.700
! CABLE LOSS:       	0.000 dB/m
! REF IMPEDANCE:       	50.0
! Trace Specific Parameters:	TR1	TR2	TR3	TR4
! TRACE.#.Y (GRAPH TYPE)	LOG MAG	PHASE	REAL IMPEDANCE	IMAGINARY IMPEDANCE
! TRACE.#.X 	FREQ.GHZ	FREQ.GHZ	FREQ.GHZ	FREQ.GHZ
! S-PARAMETER	S11	S11	S11	S11
! SMOOTH/APERTURE %	0	0	0	0
! WINDOW	NSL	NSL	NSL	NSL
! GATING	OFF	OFF	OFF	OFF
! FGTD	OFF	OFF	OFF	OFF
Marker Information per Trace:	TR1	TR2	TR3	TR4
!MK1	--	--	--	--
!MK2	--	--	--	--
!MK3	--	--	--	--
!MK4	--	--	--	--
!MK5	--	--	--	--
!MK6	--	--	--	--
!MK7	--	--	--	--
!MK8	--	--	--	--
PNT	TR1.FREQ.GHZ	TR1.LOG MAG.dB	TR2.FREQ.GHZ	TR2.PHASE.deg	TR3.FREQ.GHZ	TR3.REAL IMPEDANCE.ohm	TR4.FREQ.GHZ	TR4.IMAGINARY IMPEDANCE.ohm
1	  0.010000000	-4.407400E+01	  0.010000000	6.119800E+01	  0.010000000	5.029900E+01	  0.010000000	5.510000E-01
2	  0.010195807	-4.378400E+01	  0.010195807	6.191600E+01	  0.010195807	5.030200E+01	  0.010195807	5.740000E-01
3	  0.010391613	-4.375800E+01	  0.010391613	6.268900E+01	  0.010391613	5.029500E+01	  0.010391613	5.790000E-01
4	  0.010587418	-4.367100E+01	  0.010587418	6.326100E+01	  0.010587418	5.029200E+01	  0.010587418	5.880000E-01
5	  0.010783225	-4.345600E+01	  0.010783225	6.265700E+01	  0.010783225	5.030500E+01	  0.010783225	6.000000E-01
6	  0.010979031	-4.315700E+01	  0.010979031	6.428500E+01	  0.010979031	5.029800E+01	  0.010979031	6.300000E-01
7	  0.011174837	-4.285700E+01	  0.011174837	6.494300E+01	  0.011174837	5.030100E+01	  0.011174837	6.550000E-01
8	  0.011370643	-4.277300E+01	  0.011370643	6.501700E+01	  0.011370643	5.030300E+01	  0.011370643	6.620000E-01
9	  0.011566450	-4.273300E+01	  0.011566450	6.474400E+01	  0.011566450	5.030800E+01	  0.011566450	6.640000E-01
10	  0.011762256	-4.273800E+01	  0.011762256	6.596900E+01	  0.011762256	5.029300E+01	  0.011762256	6.700000E-01
11	  0.011958062	-4.242600E+01	  0.011958062	6.622000E+01	  0.011958062	5.030100E+01	  0.011958062	6.960000E-01
12	  0.012153869	-4.242900E+01	  0.012153869	6.566600E+01	  0.012153869	5.030700E+01	  0.012153869	6.930000E-01
13	  0.012349674	-4.248700E+01	  0.012349674	6.721800E+01	  0.012349674	5.028600E+01	  0.012349674	6.960000E-01
14	  0.012545481	-4.234000E+01	  0.012545481	6.723000E+01	  0.012545481	5.029100E+01	  0.012545481	7.080000E-01
15	  0.012741288	-4.225900E+01	  0.012741288	6.802900E+01	  0.012741288	5.028400E+01	  0.012741288	7.190000E-01
16	  0.012937094	-4.234300E+01	  0.012937094	6.569200E+01	  0.012937094	5.031000E+01	  0.012937094	7.000000E-01
17	  0.013132900	-4.227700E+01	  0.013132900	6.755900E+01	  0.013132900	5.028900E+01	  0.013132900	7.150000E-01
18	  0.013328707	-4.226200E+01	  0.013328707	6.864900E+01	  0.013328707	5.027600E+01	  0.013328707	7.210000E-01
19	  0.013524513	-4.206000E+01	  0.013524513	6.911200E+01	  0.013524513	5.027600E+01	  0.013524513	7.410000E-01
20	  0.013720319	-4.223500E+01	  0.013720319	6.996700E+01	  0.013720319	5.026000E+01	  0.013720319	7.300000E-01
21	  0.013916126	-4.203000E+01	  0.013916126	6.993500E+01	  0.013916126	5.026600E+01	  0.013916126	7.470000E-01
22	  0.014111931	-4.227100E+01	  0.014111931	6.878300E+01	  0.014111931	5.027400E+01	  0.014111931	7.210000E-01
23	  0.014307737	-4.231800E+01	  0.014307737	6.937000E+01	  0.014307737	5.026500E+01	  0.014307737	7.200000E-01
24	  0.014503544	-4.230200E+01	  0.014503544	6.851300E+01	  0.014503544	5.027600E+01	  0.014503544	7.170000E-01
25	  0.014699350	-4.234200E+01	  0.014699350	6.888600E+01	  0.014699350	5.027000E+01	  0.014699350	7.160000E-01
26	  0.014895156	-4.222000E+01	  0.014895156	6.770900E+01	  0.014895156	5.028900E+01	  0.014895156	7.200000E-01
27	  0.015090963	-4.213800E+01	  0.015090963	6.629200E+01	  0.015090963	5.031000E+01	  0.015090963	7.200000E-01
28	  0.015286769	-4.204100E+01	  0.015286769	6.734300E+01	  0.015286769	5.030000E+01	  0.015286769	7.330000E-01
29	  0.015482575	-4.207100E+01	  0.015482575	6.634200E+01	  0.015482575	5.031100E+01	  0.015482575	7.260000E-01
30	  0.015678382	-4.220000E+01	  0.015678382	6.524600E+01	  0.015678382	5.032100E+01	  0.015678382	7.090000E-01
31	  0.015874187	-4.185100E+01	  0.015874187	6.480200E+01	  0.015874187	5.033900E+01	  0.015874187	7.360000E-01
32	  0.016069993	-4.194800E+01	  0.016069993	6.574400E+01	  0.016069993	5.032300E+01	  0.016069993	7.330000E-01
33	  0.016265800	-4.169000E+01	  0.016265800	6.487700E+01	  0.016265800	5.034500E+01	  0.016265800	7.500000E-01
34	  0.016461605	-4.182800E+01	  0.016461605	6.387500E+01	  0.016461605	5.035200E+01	  0.016461605	7.320000E-01
35	  0.016657412	-4.153700E+01	  0.016657412	6.280400E+01	  0.016657412	5.037800E+01	  0.016657412	7.500000E-01
36	  0.016853219	-4.153900E+01	  0.016853219	6.313500E+01	  0.016853219	5.037400E+01	  0.016853219	7.520000E-01
37	  0.017049024	-4.138000E+01	  0.017049024	6.293600E+01	  0.017049024	5.038300E+01	  0.017049024	7.650000E-01
38	  0.017244833	-4.128200E+01	  0.017244833	6.216400E+01	  0.017244833	5.039800E+01	  0.017244833	7.690000E-01
39	  0.017440638	-4.115900E+01	  0.017440638	6.273800E+01	  0.017440638	5.039600E+01	  0.017440638	7.840000E-01
40	  0.017636444	-4.100200E+01	  0.017636444	6.254400E+01	  0.017636444	5.040600E+01	  0.017636444	7.970000E-01
41	  0.017832249	-4.079100E+01	  0.017832249	6.307000E+01	  0.017832249	5.040800E+01	  0.017832249	8.200000E-01
42	  0.018028056	-4.070300E+01	  0.018028056	6.206100E+01	  0.018028056	5.042700E+01	  0.018028056	8.210000E-01
43	  0.018223861	-4.042500E+01	  0.018223861	6.406600E+01	  0.018223861	5.041000E+01	  0.018223861	8.630000E-01
44	  0.018419670	-4.046500E+01	  0.018419670	6.399300E+01	  0.018419670	5.040900E+01	  0.018419670	8.580000E-01
45	  0.018615475	-4.034300E+01	  0.018615475	6.423100E+01	  0.018615475	5.041200E+01	  0.018615475	8.720000E-01
46	  0.018811282	-4.033900E+01	  0.018811282	6.466100E+01	  0.018811282	5.040500E+01	  0.018811282	8.760000E-01
47	  0.019007087	-4.030900E+01	  0.019007087	6.472900E+01	  0.019007087	5.040500E+01	  0.019007087	8.790000E-01
48	  0.019202894	-4.024500E+01	  0.019202894	6.564300E+01	  0.019202894	5.039400E+01	  0.019202894	8.920000E-01
49	  0.019398699	-4.014600E+01	  0.019398699	6.479800E+01	  0.019398699	5.041200E+01	  0.019398699	8.970000E-01
50	  0.019594505	-4.026700E+01	  0.019594505	6.524300E+01	  0.019594505	5.039900E+01	  0.019594505	8.870000E-01
51	  0.019790314	-4.015100E+01	  0.019790314	6.632500E+01	  0.019790314	5.038700E+01	  0.019790314	9.070000E-01
52	  0.019986119	-4.005300E+01	  0.019986119	6.658200E+01	  0.019986119	5.038800E+01	  0.019986119	9.190000E-01
53	  0.020181926	-4.016900E+01	  0.020181926	6.594700E+01	  0.020181926	5.039300E+01	  0.020181926	9.020000E-01
54	  0.020377731	-4.037200E+01	  0.020377731	6.738500E+01	  0.020377731	5.036100E+01	  0.020377731	8.900000E-01
55	  0.020573538	-4.017000E+01	  0.020573538	6.757800E+01	  0.020573538	5.036700E+01	  0.020573538	9.130000E-01
56	  0.020769343	-4.017500E+01	  0.020769343	6.875200E+01	  0.020769343	5.034700E+01	  0.020769343	9.190000E-01
57	  0.020965151	-4.034000E+01	  0.020965151	6.787900E+01	  0.020965151	5.035500E+01	  0.020965151	8.970000E-01
58	  0.021160956	-4.040800E+01	  0.021160956	6.718600E+01	  0.021160956	5.036300E+01	  0.021160956	8.850000E-01
59	  0.021356763	-4.029000E+01	  0.021356763	6.744700E+01	  0.021356763	5.036400E+01	  0.021356763	8.990000E-01
60	  0.021552568	-4.059800E+01	  0.021552568	6.802900E+01	  0.021552568	5.034200E+01	  0.021552568	8.710000E-01
61	  0.021748375	-4.049600E+01	  0.021748375	6.842600E+01	  0.021748375	5.034000E+01	  0.021748375	8.840000E-01
62	  0.021944180	-4.064900E+01	  0.021944180	6.687600E+01	  0.021944180	5.035800E+01	  0.021944180	8.590000E-01
63	  0.022139989	-4.067800E+01	  0.022139989	6.585000E+01	  0.022139989	5.037200E+01	  0.022139989	8.500000E-01
64	  0.022335794	-4.076600E+01	  0.022335794	6.568800E+01	  0.022335794	5.037100E+01	  0.022335794	8.400000E-01
65	  0.022531601	-4.094800E+01	  0.022531601	6.496600E+01	  0.022531601	5.037400E+01	  0.022531601	8.180000E-01
66	  0.022727406	-4.083500E+01	  0.022727406	6.445900E+01	  0.022727406	5.038600E+01	  0.022727406	8.250000E-01
67	  0.022923212	-4.077700E+01	  0.022923212	6.334600E+01	  0.022923212	5.040500E+01	  0.022923212	8.230000E-01
68	  0.023119017	-4.073300E+01	  0.023119017	6.227200E+01	  0.023119017	5.042200E+01	  0.023119017	8.200000E-01
69	  0.023314826	-4.083600E+01	  0.023314826	6.120200E+01	  0.023314826	5.043300E+01	  0.023314826	8.020000E-01
70	  0.023510631	-4.074600E+01	  0.023510631	5.949000E+01	  0.023510631	5.046100E+01	  0.023510631	7.970000E-01
71	  0.023706438	-4.058900E+01	  0.023706438	5.873500E+01	  0.023706438	5.048000E+01	  0.023706438	8.060000E-01
72	  0.023902243	-4.054600E+01	  0.023902243	5.856700E+01	  0.023902243	5.048500E+01	  0.023902243	8.090000E-01
73	  0.024098050	-4.062000E+01	  0.024098050	5.777100E+01	  0.024098050	5.049200E+01	  0.024098050	7.950000E-01
74	  0.024293855	-4.041000E+01	  0.024293855	5.679500E+01	  0.024293855	5.051800E+01	  0.024293855	8.060000E-01
75	  0.024489662	-4.020000E+01	  0.024489662	5.606000E+01	  0.024489662	5.054100E+01	  0.024489662	8.190000E-01
76	  0.024685470	-4.018500E+01	  0.024685470	5.504200E+01	  0.024685470	5.055700E+01	  0.024685470	8.110000E-01
77	  0.024881275	-3.995000E+01	  0.024881275	5.513800E+01	  0.024881275	5.057100E+01	  0.024881275	8.340000E-01
78	  0.025077082	-3.981600E+01	  0.025077082	5.413100E+01	  0.025077082	5.059500E+01	  0.025077082	8.370000E-01
79	  0.025272887	-3.963100E+01	  0.025272887	5.338400E+01	  0.025272887	5.061900E+01	  0.025272887	8.470000E-01
80	  0.025468694	-3.959300E+01	  0.025468694	5.344500E+01	  0.025468694	5.062000E+01	  0.025468694	8.520000E-01
81	  0.025664499	-3.942800E+01	  0.025664499	5.338100E+01	  0.025664499	5.063300E+01	  0.025664499	8.680000E-01
82	  0.025860308	-3.939100E+01	  0.025860308	5.367300E+01	  0.025860308	5.063100E+01	  0.025860308	8.750000E-01
83	  0.026056113	-3.920100E+01	  0.026056113	5.343400E+01	  0.026056113	5.064900E+01	  0.026056113	8.920000E-01
84	  0.026251920	-3.912100E+01	  0.026251920	5.437900E+01	  0.026251920	5.064000E+01	  0.026251920	9.100000E-01
85	  0.026447725	-3.892200E+01	  0.026447725	5.428700E+01	  0.026447725	5.065600E+01	  0.026447725	9.310000E-01
86	  0.026643531	-3.899400E+01	  0.026643531	5.393200E+01	  0.026643531	5.065600E+01	  0.026643531	9.190000E-01
87	  0.026839336	-3.879100E+01	  0.026839336	5.478200E+01	  0.026839336	5.065800E+01	  0.026839336	9.510000E-01
88	  0.027035145	-3.866900E+01	  0.027035145	5.534300E+01	  0.027035145	5.065700E+01	  0.027035145	9.710000E-01
89	  0.027230950	-3.857200E+01	  0.027230950	5.506400E+01	  0.027230950	5.066900E+01	  0.027230950	9.790000E-01
90	  0.027426757	-3.850500E+01	  0.027426757	5.513000E+01	  0.027426757	5.067400E+01	  0.027426757	9.870000E-01
91	  0.027622562	-3.856300E+01	  0.027622562	5.651800E+01	  0.027622562	5.064500E+01	  0.027622562	9.960000E-01
92	  0.027818369	-3.846800E+01	  0.027818369	5.591800E+01	  0.027818369	5.066200E+01	  0.027818369	1.001000E+00
93	  0.028014174	-3.848400E+01	  0.028014174	5.614400E+01	  0.028014174	5.065700E+01	  0.028014174	1.001000E+00
94	  0.028209982	-3.842400E+01	  0.028209982	5.654100E+01	  0.028209982	5.065500E+01	  0.028209982	1.013000E+00
95	  0.028405787	-3.849600E+01	  0.028405787	5.654100E+01	  0.028405787	5.064900E+01	  0.028405787	1.004000E+00
96	  0.028601594	-3.850600E+01	  0.028601594	5.706200E+01	  0.028601594	5.063900E+01	  0.028601594	1.009000E+00
97	  0.028797399	-3.857600E+01	  0.028797399	5.647100E+01	  0.028797399	5.064500E+01	  0.028797399	9.940000E-01
98	  0.028993206	-3.873600E+01	  0.028993206	5.657400E+01	  0.028993206	5.063100E+01	  0.028993206	9.770000E-01
99	  0.029189013	-3.865200E+01	  0.029189013	5.699100E+01	  0.029189013	5.063000E+01	  0.029189013	9.910000E-01
100	  0.029384818	-3.871500E+01	  0.029384818	5.673600E+01	  0.029384818	5.063000E+01	  0.029384818	9.810000E-01
101	  0.029580627	-3.873500E+01	  0.029580627	5.637400E+01	  0.029580627	5.063500E+01	  0.029580627	9.750000E-01
102	  0.029776432	-3.889400E+01	  0.029776432	5.608900E+01	  0.029776432	5.062800E+01	  0.029776432	9.540000E-01
103	  0.029972238	-3.882800E+01	  0.029972238	5.552800E+01	  0.029972238	5.064200E+01	  0.029972238	9.550000E-01
104	  0.030168043	-3.891500E+01	  0.030168043	5.483500E+01	  0.030168043	5.064800E+01	  0.030168043	9.380000E-01
105	  0.030363850	-3.881100E+01	  0.030363850	5.406000E+01	  0.030363850	5.066800E+01	  0.030363850	9.400000E-01
106	  0.030559655	-3.882000E+01	  0.030559655	5.402100E+01	  0.030559655	5.066800E+01	  0.030559655	9.390000E-01
107	  0.030755464	-3.880900E+01	  0.030755464	5.277800E+01	  0.030755464	5.069000E+01	  0.030755464	9.260000E-01
108	  0.030951269	-3.887200E+01	  0.030951269	5.202800E+01	  0.030951269	5.069700E+01	  0.030951269	9.100000E-01
109	  0.031147076	-3.888200E+01	  0.031147076	5.112300E+01	  0.031147076	5.071000E+01	  0.031147076	8.980000E-01
110	  0.031342883	-3.861100E+01	  0.031342883	5.070700E+01	  0.031342883	5.074000E+01	  0.031342883	9.210000E-01
111	  0.031538688	-3.866000E+01	  0.031538688	4.998900E+01	  0.031538688	5.074700E+01	  0.031538688	9.070000E-01
112	  0.031734493	-3.843900E+01	  0.031734493	4.956300E+01	  0.031734493	5.077300E+01	  0.031734493	9.250000E-01
113	  0.031930301	-3.852100E+01	  0.031930301	4.838100E+01	  0.031930301	5.078500E+01	  0.031930301	9.000000E-01
114	  0.032126106	-3.848100E+01	  0.032126106	4.758800E+01	  0.032126106	5.080100E+01	  0.032126106	8.930000E-01
115	  0.032321911	-3.828800E+01	  0.032321911	4.680300E+01	  0.032321911	5.083200E+01	  0.032321911	9.020000E-01
116	  0.032517716	-3.827500E+01	  0.032517716	4.613800E+01	  0.032517716	5.084400E+01	  0.032517716	8.940000E-01
117	  0.032713525	-3.795200E+01	  0.032713525	4.625000E+01	  0.032713525	5.087400E+01	  0.032713525	9.300000E-01
118	  0.032909330	-3.790600E+01	  0.032909330	4.506400E+01	  0.032909330	5.089800E+01	  0.032909330	9.170000E-01
119	  0.033105139	-3.775100E+01	  0.033105139	4.558300E+01	  0.033105139	5.090600E+01	  0.033105139	9.420000E-01
120	  0.033300944	-3.765600E+01	  0.033300944	4.578300E+01	  0.033300944	5.091200E+01	  0.033300944	9.550000E-01
121	  0.033496749	-3.745100E+01	  0.033496749	4.518800E+01	  0.033496749	5.094400E+01	  0.033496749	9.690000E-01
122	  0.033692554	-3.723800E+01	  0.033692554	4.539000E+01	  0.033692554	5.096400E+01	  0.033692554	9.970000E-01
123	  0.033888362	-3.733600E+01	  0.033888362	4.497300E+01	  0.033888362	5.096100E+01	  0.033888362	9.790000E-01
124	  0.034084171	-3.722100E+01	  0.034084171	4.443300E+01	  0.034084171	5.098300E+01	  0.034084171	9.830000E-01
125	  0.034279976	-3.711100E+01	  0.034279976	4.616200E+01	  0.034279976	5.096400E+01	  0.034279976	1.025000E+00
126	  0.034475781	-3.689500E+01	  0.034475781	4.579700E+01	  0.034475781	5.099500E+01	  0.034475781	1.045000E+00
127	  0.034671586	-3.682100E+01	  0.034671586	4.548000E+01	  0.034671586	5.101000E+01	  0.034671586	1.049000E+00
128	  0.034867391	-3.673400E+01	  0.034867391	4.614600E+01	  0.034867391	5.100700E+01	  0.034867391	1.071000E+00
129	  0.035063203	-3.671900E+01	  0.035063203	4.654800E+01	  0.035063203	5.100100E+01	  0.035063203	1.080000E+00
130	  0.035259008	-3.658900E+01	  0.035259008	4.734100E+01	  0.035259008	5.100100E+01	  0.035259008	1.111000E+00
131	  0.035454813	-3.648400E+01	  0.035454813	4.770900E+01	  0.035454813	5.100600E+01	  0.035454813	1.131000E+00
132	  0.035650618	-3.644600E+01	  0.035650618	4.722000E+01	  0.035650618	5.102000E+01	  0.035650618	1.127000E+00
133	  0.035846427	-3.637700E+01	  0.035846427	4.716000E+01	  0.035846427	5.102900E+01	  0.035846427	1.135000E+00
134	  0.036042232	-3.640800E+01	  0.036042232	4.772000E+01	  0.036042232	5.101400E+01	  0.036042232	1.141000E+00
135	  0.036238037	-3.638800E+01	  0.036238037	4.796900E+01	  0.036238037	5.101200E+01	  0.036238037	1.148000E+00
136	  0.036433842	-3.635300E+01	  0.036433842	4.863600E+01	  0.036433842	5.100200E+01	  0.036433842	1.165000E+00
137	  0.036629651	-3.632500E+01	  0.036629651	4.909000E+01	  0.036629651	5.099600E+01	  0.036629651	1.176000E+00
138	  0.036825456	-3.634800E+01	  0.036825456	4.892700E+01	  0.036825456	5.099600E+01	  0.036825456	1.171000E+00
139	  0.037021261	-3.637100E+01	  0.037021261	4.937300E+01	  0.037021261	5.098400E+01	  0.037021261	1.175000E+00
140	  0.037217066	-3.638400E+01	  0.037217066	4.865600E+01	  0.037217066	5.099800E+01	  0.037217066	1.161000E+00
141	  0.037412878	-3.637300E+01	  0.037412878	4.881100E+01	  0.037412878	5.099600E+01	  0.037412878	1.165000E+00
142	  0.037608683	-3.634600E+01	  0.037608683	4.942500E+01	  0.037608683	5.098600E+01	  0.037608683	1.179000E+00
143	  0.037804488	-3.639000E+01	  0.037804488	4.890800E+01	  0.037804488	5.099200E+01	  0.037804488	1.164000E+00
144	  0.038000293	-3.638900E+01	  0.038000293	4.859000E+01	  0.038000293	5.099900E+01	  0.038000293	1.159000E+00
145	  0.038196102	-3.636600E+01	  0.038196102	4.880800E+01	  0.038196102	5.099700E+01	  0.038196102	1.166000E+00
146	  0.038391907	-3.642600E+01	  0.038391907	4.788700E+01	  0.038391907	5.100900E+01	  0.038391907	1.142000E+00
147	  0.038587712	-3.636800E+01	  0.038587712	4.773700E+01	  0.038587712	5.101900E+01	  0.038587712	1.147000E+00
148	  0.038783520	-3.648100E+01	  0.038783520	4.810800E+01	  0.038783520	5.099800E+01	  0.038783520	1.138000E+00
149	  0.038979325	-3.640700E+01	  0.038979325	4.718400E+01	  0.038979325	5.102500E+01	  0.038979325	1.132000E+00
150	  0.039175130	-3.645400E+01	  0.039175130	4.678600E+01	  0.039175130	5.102800E+01	  0.039175130	1.118000E+00
151	  0.039370935	-3.641700E+01	  0.039370935	4.651600E+01	  0.039370935	5.103700E+01	  0.039370935	1.118000E+00
152	  0.039566744	-3.626700E+01	  0.039566744	4.710300E+01	  0.039566744	5.104400E+01	  0.039566744	1.149000E+00
153	  0.039762549	-3.621800E+01	  0.039762549	4.615200E+01	  0.039762549	5.106900E+01	  0.039762549	1.138000E+00
154	  0.039958358	-3.620000E+01	  0.039958358	4.598200E+01	  0.039958358	5.107500E+01	  0.039958358	1.137000E+00
155	  0.040154163	-3.611900E+01	  0.040154163	4.620100E+01	  0.040154163	5.108000E+01	  0.040154163	1.153000E+00
156	  0.040349972	-3.605400E+01	  0.040349972	4.560300E+01	  0.040349972	5.110100E+01	  0.040349972	1.150000E+00
157	  0.040545776	-3.607700E+01	  0.040545776	4.589800E+01	  0.040545776	5.109200E+01	  0.040545776	1.152000E+00
158	  0.040741581	-3.605900E+01	  0.040741581	4.473400E+01	  0.040741581	5.111800E+01	  0.040741581	1.132000E+00
159	  0.040937386	-3.613300E+01	  0.040937386	4.484500E+01	  0.040937386	5.110600E+01	  0.040937386	1.125000E+00
160	  0.041133195	-3.595900E+01	  0.041133195	4.506300E+01	  0.041133195	5.112400E+01	  0.041133195	1.152000E+00
161	  0.041329000	-3.599600E+01	  0.041329000	4.512700E+01	  0.041329000	5.111800E+01	  0.041329000	1.149000E+00
162	  0.041524805	-3.585000E+01	  0.041524805	4.479800E+01	  0.041524805	5.114400E+01	  0.041524805	1.162000E+00
163	  0.041720610	-3.587000E+01	  0.041720610	4.458700E+01	  0.041720610	5.114500E+01	  0.041720610	1.155000E+00
164	  0.041916419	-3.568900E+01	  0.041916419	4.473300E+01	  0.041916419	5.116600E+01	  0.041916419	1.183000E+00
165	  0.042112224	-3.571100E+01	  0.042112224	4.461900E+01	  0.042112224	5.116600E+01	  0.042112224	1.177000E+00
166	  0.042308029	-3.558700E+01	  0.042308029	4.442100E+01	  0.042308029	5.118700E+01	  0.042308029	1.191000E+00
167	  0.042503837	-3.563200E+01	  0.042503837	4.485700E+01	  0.042503837	5.117100E+01	  0.042503837	1.193000E+00
168	  0.042699646	-3.557700E+01	  0.042699646	4.536100E+01	  0.042699646	5.116800E+01	  0.042699646	1.211000E+00
169	  0.042895451	-3.558900E+01	  0.042895451	4.472100E+01	  0.042895451	5.118000E+01	  0.042895451	1.197000E+00
170	  0.043091256	-3.563200E+01	  0.043091256	4.485300E+01	  0.043091256	5.117100E+01	  0.043091256	1.193000E+00
171	  0.043287061	-3.548600E+01	  0.043287061	4.529900E+01	  0.043287061	5.118200E+01	  0.043287061	1.223000E+00
172	  0.043482870	-3.548200E+01	  0.043482870	4.513500E+01	  0.043482870	5.118600E+01	  0.043482870	1.220000E+00
173	  0.043678675	-3.542400E+01	  0.043678675	4.568200E+01	  0.043678675	5.118200E+01	  0.043678675	1.240000E+00
174	  0.043874480	-3.551600E+01	  0.043874480	4.522700E+01	  0.043874480	5.117900E+01	  0.043874480	1.217000E+00
175	  0.044070289	-3.547200E+01	  0.044070289	4.567200E+01	  0.044070289	5.117500E+01	  0.044070289	1.233000E+00
176	  0.044266094	-3.546500E+01	  0.044266094	4.490000E+01	  0.044266094	5.119300E+01	  0.044266094	1.218000E+00
177	  0.044461899	-3.546700E+01	  0.044461899	4.479100E+01	  0.044461899	5.119500E+01	  0.044461899	1.215000E+00
178	  0.044657703	-3.553300E+01	  0.044657703	4.535000E+01	  0.044657703	5.117400E+01	  0.044657703	1.218000E+00
179	  0.044853516	-3.555900E+01	  0.044853516	4.487400E+01	  0.044853516	5.118100E+01	  0.044853516	1.204000E+00
180	  0.045049321	-3.555200E+01	  0.045049321	4.487400E+01	  0.045049321	5.118200E+01	  0.045049321	1.205000E+00
181	  0.045245126	-3.563100E+01	  0.045245126	4.433500E+01	  0.045245126	5.118300E+01	  0.045245126	1.183000E+00
182	  0.045440931	-3.554900E+01	  0.045440931	4.393700E+01	  0.045440931	5.120200E+01	  0.045440931	1.186000E+00
183	  0.045636740	-3.560300E+01	  0.045636740	4.317300E+01	  0.045636740	5.121100E+01	  0.045636740	1.162000E+00
184	  0.045832545	-3.559800E+01	  0.045832545	4.355000E+01	  0.045832545	5.120400E+01	  0.045832545	1.171000E+00
185	  0.046028350	-3.557000E+01	  0.046028350	4.238300E+01	  0.046028350	5.123200E+01	  0.046028350	1.150000E+00
186	  0.046224155	-3.560300E+01	  0.046224155	4.257700E+01	  0.046224155	5.122300E+01	  0.046224155	1.150000E+00
187	  0.046419963	-3.544200E+01	  0.046419963	4.180000E+01	  0.046419963	5.126200E+01	  0.046419963	1.155000E+00
188	  0.046615768	-3.556200E+01	  0.046615768	4.089500E+01	  0.046615768	5.126300E+01	  0.046615768	1.119000E+00
189	  0.046811573	-3.544700E+01	  0.046811573	4.141500E+01	  0.046811573	5.126900E+01	  0.046811573	1.145000E+00
190	  0.047007378	-3.537400E+01	  0.047007378	4.069700E+01	  0.047007378	5.129500E+01	  0.047007378	1.139000E+00
191	  0.047203191	-3.541500E+01	  0.047203191	3.966400E+01	  0.047203191	5.130900E+01	  0.047203191	1.110000E+00
192	  0.047398996	-3.534700E+01	  0.047398996	3.956900E+01	  0.047398996	5.132200E+01	  0.047398996	1.117000E+00
193	  0.047594801	-3.518700E+01	  0.047594801	3.993300E+01	  0.047594801	5.133900E+01	  0.047594801	1.147000E+00
194	  0.047790606	-3.528400E+01	  0.047790606	3.878300E+01	  0.047790606	5.134700E+01	  0.047790606	1.107000E+00
195	  0.047986414	-3.522300E+01	  0.047986414	3.920100E+01	  0.047986414	5.134800E+01	  0.047986414	1.125000E+00
196	  0.048182219	-3.507100E+01	  0.048182219	3.847700E+01	  0.048182219	5.138700E+01	  0.048182219	1.128000E+00
197	  0.048378024	-3.499300E+01	  0.048378024	3.856600E+01	  0.048378024	5.139800E+01	  0.048378024	1.140000E+00
198	  0.048573833	-3.496400E+01	  0.048573833	3.800600E+01	  0.048573833	5.141400E+01	  0.048573833	1.130000E+00
199	  0.048769638	-3.490400E+01	  0.048769638	3.793300E+01	  0.048769638	5.142500E+01	  0.048769638	1.137000E+00
200	  0.048965443	-3.470700E+01	  0.048965443	3.772300E+01	  0.048965443	5.146200E+01	  0.048965443	1.158000E+00
201	  0.049161248	-3.475100E+01	  0.049161248	3.807100E+01	  0.049161248	5.144800E+01	  0.049161248	1.161000E+00
202	  0.049357057	-3.459400E+01	  0.049357057	3.728700E+01	  0.049357057	5.149100E+01	  0.049357057	1.162000E+00
203	  0.049552862	-3.458200E+01	  0.049552862	3.796300E+01	  0.049552862	5.147900E+01	  0.049552862	1.182000E+00
204	  0.049748670	-3.449800E+01	  0.049748670	3.754300E+01	  0.049748670	5.150200E+01	  0.049748670	1.182000E+00
205	  0.049944475	-3.443100E+01	  0.049944475	3.777800E+01	  0.049944475	5.150900E+01	  0.049944475	1.198000E+00
206	  0.050140284	-3.438800E+01	  0.050140284	3.831800E+01	  0.050140284	5.150500E+01	  0.050140284	1.219000E+00
207	  0.050336089	-3.433100E+01	  0.050336089	3.844300E+01	  0.050336089	5.151200E+01	  0.050336089	1.230000E+00
208	  0.050531894	-3.425300E+01	  0.050531894	3.843400E+01	  0.050531894	5.152600E+01	  0.050531894	1.241000E+00
209	  0.050727699	-3.418100E+01	  0.050727699	3.841000E+01	  0.050727699	5.153900E+01	  0.050727699	1.251000E+00
210	  0.050923508	-3.415900E+01	  0.050923508	3.899300E+01	  0.050923508	5.153000E+01	  0.050923508	1.270000E+00
211	  0.051119313	-3.410800E+01	  0.051119313	3.889100E+01	  0.051119313	5.154100E+01	  0.051119313	1.275000E+00
212	  0.051315118	-3.422000E+01	  0.051315118	3.931800E+01	  0.051315118	5.151100E+01	  0.051315118	1.270000E+00
213	  0.051510923	-3.412100E+01	  0.051510923	3.886500E+01	  0.051510923	5.153900E+01	  0.051510923	1.273000E+00
214	  0.051706731	-3.410400E+01	  0.051706731	3.924100E+01	  0.051706731	5.153400E+01	  0.051706731	1.285000E+00
215	  0.051902536	-3.419500E+01	  0.051902536	3.941600E+01	  0.051902536	5.151400E+01	  0.051902536	1.276000E+00
216	  0.052098341	-3.411100E+01	  0.052098341	3.956700E+01	  0.052098341	5.152500E+01	  0.052098341	1.293000E+00
217	  0.052294150	-3.414100E+01	  0.052294150	3.905500E+01	  0.052294150	5.153100E+01	  0.052294150	1.275000E+00
218	  0.052489959	-3.419100E+01	  0.052489959	3.979200E+01	  0.052489959	5.150600E+01	  0.052489959	1.287000E+00
219	  0.052685764	-3.424100E+01	  0.052685764	3.922500E+01	  0.052685764	5.151000E+01	  0.052685764	1.264000E+00
220	  0.052881569	-3.425200E+01	  0.052881569	3.960800E+01	  0.052881569	5.149900E+01	  0.052881569	1.273000E+00
221	  0.053077377	-3.423000E+01	  0.053077377	3.884600E+01	  0.053077377	5.152100E+01	  0.053077377	1.256000E+00
222	  0.053273182	-3.419900E+01	  0.053273182	3.958000E+01	  0.053273182	5.150900E+01	  0.053273182	1.280000E+00
223	  0.053468987	-3.424400E+01	  0.053468987	3.885400E+01	  0.053468987	5.151800E+01	  0.053468987	1.254000E+00
224	  0.053664792	-3.423800E+01	  0.053664792	3.862200E+01	  0.053664792	5.152400E+01	  0.053664792	1.249000E+00
225	  0.053860601	-3.432400E+01	  0.053860601	3.842400E+01	  0.053860601	5.151300E+01	  0.053860601	1.231000E+00
226	  0.054056406	-3.429600E+01	  0.054056406	3.792600E+01	  0.054056406	5.152900E+01	  0.054056406	1.221000E+00
227	  0.054252211	-3.429000E+01	  0.054252211	3.822500E+01	  0.054252211	5.152400E+01	  0.054252211	1.230000E+00
228	  0.054448016	-3.432400E+01	  0.054448016	3.735000E+01	  0.054448016	5.153700E+01	  0.054448016	1.202000E+00
229	  0.054643828	-3.430400E+01	  0.054643828	3.657600E+01	  0.054643828	5.155700E+01	  0.054643828	1.184000E+00
230	  0.054839633	-3.416200E+01	  0.054839633	3.644200E+01	  0.054839633	5.158600E+01	  0.054839633	1.200000E+00
231	  0.055035438	-3.424000E+01	  0.055035438	3.607400E+01	  0.055035438	5.157900E+01	  0.055035438	1.179000E+00
232	  0.055231243	-3.418400E+01	  0.055231243	3.603300E+01	  0.055231243	5.159100E+01	  0.055231243	1.186000E+00
233	  0.055427052	-3.412400E+01	  0.055427052	3.507000E+01	  0.055427052	5.162200E+01	  0.055427052	1.167000E+00
234	  0.055622857	-3.407500E+01	  0.055622857	3.515100E+01	  0.055622857	5.163000E+01	  0.055622857	1.176000E+00
235	  0.055818662	-3.409700E+01	  0.055818662	3.420400E+01	  0.055818662	5.164500E+01	  0.055818662	1.146000E+00
236	  0.056014467	-3.394500E+01	  0.056014467	3.383500E+01	  0.056014467	5.168200E+01	  0.056014467	1.156000E+00
237	  0.056210276	-3.395900E+01	  0.056210276	3.371600E+01	  0.056210276	5.168200E+01	  0.056210276	1.150000E+00
238	  0.056406081	-3.385700E+01	  0.056406081	3.375600E+01	  0.056406081	5.170100E+01	  0.056406081	1.165000E+00
239	  0.056601886	-3.370100E+01	  0.056601886	3.321800E+01	  0.056601886	5.174400E+01	  0.056601886	1.171000E+00
240	  0.056797691	-3.370900E+01	  0.056797691	3.355700E+01	  0.056797691	5.173500E+01	  0.056797691	1.180000E+00
241	  0.056993503	-3.357300E+01	  0.056993503	3.310500E+01	  0.056993503	5.177300E+01	  0.056993503	1.185000E+00
242	  0.057189308	-3.360200E+01	  0.057189308	3.319400E+01	  0.057189308	5.176500E+01	  0.057189308	1.184000E+00
243	  0.057385113	-3.345200E+01	  0.057385113	3.332000E+01	  0.057385113	5.179300E+01	  0.057385113	1.209000E+00
244	  0.057580918	-3.333100E+01	  0.057580918	3.339900E+01	  0.057580918	5.181700E+01	  0.057580918	1.229000E+00
245	  0.057776727	-3.330400E+01	  0.057776727	3.326800E+01	  0.057776727	5.182500E+01	  0.057776727	1.229000E+00
246	  0.057972532	-3.316500E+01	  0.057972532	3.334500E+01	  0.057972532	5.185300E+01	  0.057972532	1.252000E+00
247	  0.058168337	-3.319100E+01	  0.058168337	3.331800E+01	  0.058168337	5.184800E+01	  0.058168337	1.247000E+00
248	  0.058364145	-3.312800E+01	  0.058364145	3.386700E+01	  0.058364145	5.184900E+01	  0.058364145	1.275000E+00
249	  0.058559950	-3.304400E+01	  0.058559950	3.367800E+01	  0.058559950	5.187200E+01	  0.058559950	1.281000E+00
250	  0.058755755	-3.301400E+01	  0.058755755	3.371700E+01	  0.058755755	5.187700E+01	  0.058755755	1.287000E+00
251	  0.058951560	-3.296900E+01	  0.058951560	3.436100E+01	  0.058951560	5.187200E+01	  0.058951560	1.316000E+00
252	  0.059147369	-3.293400E+01	  0.059147369	3.455000E+01	  0.059147369	5.187500E+01	  0.059147369	1.327000E+00
253	  0.059343174	-3.298600E+01	  0.059343174	3.505000E+01	  0.059343174	5.185200E+01	  0.059343174	1.336000E+00
254	  0.059538983	-3.299800E+01	  0.059538983	3.501600E+01	  0.059538983	5.185000E+01	  0.059538983	1.333000E+00
255	  0.059734788	-3.296000E+01	  0.059734788	3.572200E+01	  0.059734788	5.184100E+01	  0.059734788	1.362000E+00
256	  0.059930597	-3.290800E+01	  0.059930597	3.552100E+01	  0.059930597	5.185700E+01	  0.059930597	1.363000E+00
257	  0.060126401	-3.290900E+01	  0.060126401	3.597100E+01	  0.060126401	5.184600E+01	  0.060126401	1.378000E+00
258	  0.060322206	-3.293100E+01	  0.060322206	3.598200E+01	  0.060322206	5.184100E+01	  0.060322206	1.375000E+00
259	  0.060518011	-3.290900E+01	  0.060518011	3.660200E+01	  0.060518011	5.183000E+01	  0.060518011	1.398000E+00
260	  0.060713820	-3.288900E+01	  0.060713820	3.628100E+01	  0.060713820	5.184200E+01	  0.060713820	1.391000E+00
261	  0.060909625	-3.293400E+01	  0.060909625	3.634300E+01	  0.060909625	5.183100E+01	  0.060909625	1.386000E+00
262	  0.061105430	-3.303600E+01	  0.061105430	3.656900E+01	  0.061105430	5.180400E+01	  0.061105430	1.376000E+00
263	  0.061301235	-3.300300E+01	  0.061301235	3.689700E+01	  0.061301235	5.180300E+01	  0.061301235	1.392000E+00
264	  0.061497044	-3.296800E+01	  0.061497044	3.685800E+01	  0.061497044	5.181100E+01	  0.061497044	1.397000E+00
265	  0.061692849	-3.301800E+01	  0.061692849	3.646500E+01	  0.061692849	5.181000E+01	  0.061692849	1.376000E+00
266	  0.061888654	-3.312600E+01	  0.061888654	3.631500E+01	  0.061888654	5.179100E+01	  0.061888654	1.354000E+00
267	  0.062084462	-3.314300E+01	  0.062084462	3.665500E+01	  0.062084462	5.178000E+01	  0.062084462	1.362000E+00
268	  0.062280271	-3.303700E+01	  0.062280271	3.650000E+01	  0.062280271	5.180600E+01	  0.062280271	1.374000E+00
269	  0.062476076	-3.312600E+01	  0.062476076	3.631300E+01	  0.062476076	5.179200E+01	  0.062476076	1.354000E+00
270	  0.062671877	-3.319500E+01	  0.062671877	3.647300E+01	  0.062671877	5.177300E+01	  0.062671877	1.347000E+00
271	  0.062867686	-3.310500E+01	  0.062867686	3.607500E+01	  0.062867686	5.180200E+01	  0.062867686	1.350000E+00
272	  0.063063495	-3.318800E+01	  0.063063495	3.605400E+01	  0.063063495	5.178500E+01	  0.063063495	1.335000E+00
273	  0.063259304	-3.306500E+01	  0.063259304	3.588200E+01	  0.063259304	5.181500E+01	  0.063259304	1.350000E+00
274	  0.063455105	-3.320800E+01	  0.063455105	3.551200E+01	  0.063455105	5.179400E+01	  0.063455105	1.315000E+00
275	  0.063650914	-3.310400E+01	  0.063650914	3.486000E+01	  0.063650914	5.183100E+01	  0.063650914	1.311000E+00
276	  0.063846722	-3.317500E+01	  0.063846722	3.473000E+01	  0.063846722	5.181900E+01	  0.063846722	1.296000E+00
277	  0.064042524	-3.308000E+01	  0.064042524	3.416900E+01	  0.064042524	5.185300E+01	  0.064042524	1.292000E+00
278	  0.064238332	-3.313800E+01	  0.064238332	3.427200E+01	  0.064238332	5.183800E+01	  0.064238332	1.287000E+00
279	  0.064434141	-3.303500E+01	  0.064434141	3.397100E+01	  0.064434141	5.186700E+01	  0.064434141	1.293000E+00
280	  0.064629942	-3.294800E+01	  0.064629942	3.371000E+01	  0.064629942	5.189200E+01	  0.064629942	1.297000E+00
281	  0.064825751	-3.292100E+01	  0.064825751	3.355900E+01	  0.064825751	5.190200E+01	  0.064825751	1.297000E+00
282	  0.065021552	-3.298000E+01	  0.065021552	3.354300E+01	  0.065021552	5.188900E+01	  0.065021552	1.287000E+00
283	  0.065217361	-3.286500E+01	  0.065217361	3.360600E+01	  0.065217361	5.191300E+01	  0.065217361	1.307000E+00
284	  0.065413170	-3.287000E+01	  0.065413170	3.362300E+01	  0.065413170	5.191100E+01	  0.065413170	1.306000E+00
285	  0.065608978	-3.287200E+01	  0.065608978	3.397100E+01	  0.065608978	5.190300E+01	  0.065608978	1.318000E+00
286	  0.065804780	-3.279000E+01	  0.065804780	3.327100E+01	  0.065804780	5.193800E+01	  0.065804780	1.307000E+00
287	  0.066000588	-3.275700E+01	  0.066000588	3.330600E+01	  0.066000588	5.194400E+01	  0.066000588	1.313000E+00
288	  0.066196397	-3.277600E+01	  0.066196397	3.361200E+01	  0.066196397	5.193300E+01	  0.066196397	1.321000E+00
289	  0.066392198	-3.277900E+01	  0.066392198	3.385200E+01	  0.066392198	5.192600E+01	  0.066392198	1.329000E+00
290	  0.066588007	-3.274000E+01	  0.066588007	3.380100E+01	  0.066588007	5.193600E+01	  0.066588007	1.333000E+00
291	  0.066783816	-3.285500E+01	  0.066783816	3.468800E+01	  0.066783816	5.188900E+01	  0.066783816	1.345000E+00
292	  0.066979617	-3.270000E+01	  0.066979617	3.456500E+01	  0.066979617	5.192700E+01	  0.066979617	1.366000E+00
293	  0.067175426	-3.272500E+01	  0.067175426	3.472700E+01	  0.067175426	5.191700E+01	  0.067175426	1.367000E+00
294	  0.067371234	-3.270300E+01	  0.067371234	3.418100E+01	  0.067371234	5.193500E+01	  0.067371234	1.352000E+00
295	  0.067567036	-3.272000E+01	  0.067567036	3.463200E+01	  0.067567036	5.192000E+01	  0.067567036	1.365000E+00
296	  0.067762844	-3.281900E+01	  0.067762844	3.532100E+01	  0.067762844	5.188100E+01	  0.067762844	1.371000E+00
297	  0.067958646	-3.281600E+01	  0.067958646	3.533600E+01	  0.067958646	5.188200E+01	  0.067958646	1.372000E+00
298	  0.068154462	-3.282600E+01	  0.068154462	3.543800E+01	  0.068154462	5.187700E+01	  0.068154462	1.374000E+00
299	  0.068350263	-3.283500E+01	  0.068350263	3.489500E+01	  0.068350263	5.188900E+01	  0.068350263	1.355000E+00
300	  0.068546072	-3.287100E+01	  0.068546072	3.559100E+01	  0.068546072	5.186400E+01	  0.068546072	1.372000E+00
301	  0.068741873	-3.296200E+01	  0.068741873	3.526600E+01	  0.068741873	5.185200E+01	  0.068741873	1.347000E+00
302	  0.068937682	-3.296100E+01	  0.068937682	3.501700E+01	  0.068937682	5.185800E+01	  0.068937682	1.338000E+00
303	  0.069133483	-3.298200E+01	  0.069133483	3.580600E+01	  0.069133483	5.183400E+01	  0.069133483	1.361000E+00
304	  0.069329299	-3.304700E+01	  0.069329299	3.519800E+01	  0.069329299	5.183500E+01	  0.069329299	1.331000E+00
305	  0.069525100	-3.305200E+01	  0.069525100	3.604800E+01	  0.069525100	5.181300E+01	  0.069525100	1.357000E+00
306	  0.069720909	-3.313900E+01	  0.069720909	3.538300E+01	  0.069720909	5.181100E+01	  0.069720909	1.322000E+00
307	  0.069916710	-3.318900E+01	  0.069916710	3.509700E+01	  0.069916710	5.180800E+01	  0.069916710	1.305000E+00
308	  0.070112519	-3.314200E+01	  0.070112519	3.400700E+01	  0.070112519	5.184300E+01	  0.070112519	1.277000E+00
309	  0.070308320	-3.332800E+01	  0.070308320	3.454700E+01	  0.070308320	5.179100E+01	  0.070308320	1.266000E+00
310	  0.070504129	-3.329500E+01	  0.070504129	3.409200E+01	  0.070504129	5.180900E+01	  0.070504129	1.257000E+00
311	  0.070699938	-3.340700E+01	  0.070699938	3.365300E+01	  0.070699938	5.179500E+01	  0.070699938	1.226000E+00
312	  0.070895746	-3.329200E+01	  0.070895746	3.348400E+01	  0.070895746	5.182300E+01	  0.070895746	1.238000E+00
313	  0.071091555	-3.344800E+01	  0.071091555	3.353700E+01	  0.071091555	5.178900E+01	  0.071091555	1.217000E+00
314	  0.071287356	-3.347000E+01	  0.071287356	3.253700E+01	  0.071287356	5.180600E+01	  0.071287356	1.182000E+00
315	  0.071483165	-3.344800E+01	  0.071483165	3.259300E+01	  0.071483165	5.181000E+01	  0.071483165	1.187000E+00
316	  0.071678966	-3.356400E+01	  0.071678966	3.202600E+01	  0.071678966	5.179700E+01	  0.071678966	1.152000E+00
317	  0.071874775	-3.347400E+01	  0.071874775	3.137100E+01	  0.071874775	5.183000E+01	  0.071874775	1.144000E+00
318	  0.072070576	-3.357600E+01	  0.072070576	3.105400E+01	  0.072070576	5.181500E+01	  0.072070576	1.120000E+00
319	  0.072266392	-3.357700E+01	  0.072266392	3.029400E+01	  0.072266392	5.183000E+01	  0.072266392	1.095000E+00
320	  0.072462194	-3.360400E+01	  0.072462194	3.051200E+01	  0.072462194	5.182000E+01	  0.072462194	1.099000E+00
321	  0.072658002	-3.352100E+01	  0.072658002	2.987700E+01	  0.072658002	5.185000E+01	  0.072658002	1.089000E+00
322	  0.072853811	-3.351200E+01	  0.072853811	2.975200E+01	  0.072853811	5.185400E+01	  0.072853811	1.086000E+00
323	  0.073049612	-3.351400E+01	  0.073049612	2.936400E+01	  0.073049612	5.186100E+01	  0.073049612	1.073000E+00
324	  0.073245421	-3.342500E+01	  0.073245421	2.876500E+01	  0.073245421	5.189300E+01	  0.073245421	1.065000E+00
325	  0.073441222	-3.351000E+01	  0.073441222	2.923800E+01	  0.073441222	5.186500E+01	  0.073441222	1.070000E+00
326	  0.073637031	-3.346200E+01	  0.073637031	2.785000E+01	  0.073637031	5.190200E+01	  0.073637031	1.029000E+00
327	  0.073832840	-3.343400E+01	  0.073832840	2.841200E+01	  0.073832840	5.189700E+01	  0.073832840	1.052000E+00
328	  0.074028648	-3.355000E+01	  0.074028648	2.776600E+01	  0.074028648	5.188400E+01	  0.074028648	1.016000E+00
329	  0.074224450	-3.346600E+01	  0.074224450	2.839400E+01	  0.074224450	5.189100E+01	  0.074224450	1.047000E+00
330	  0.074420258	-3.348200E+01	  0.074420258	2.736300E+01	  0.074420258	5.190600E+01	  0.074420258	1.010000E+00
331	  0.074616060	-3.343200E+01	  0.074616060	2.686600E+01	  0.074616060	5.192600E+01	  0.074616060	1.000000E+00
332	  0.074811868	-3.351400E+01	  0.074811868	2.704100E+01	  0.074811868	5.190500E+01	  0.074811868	9.960000E-01
333	  0.075007670	-3.356000E+01	  0.075007670	2.625200E+01	  0.075007670	5.190900E+01	  0.075007670	9.640000E-01
334	  0.075203478	-3.347600E+01	  0.075203478	2.677600E+01	  0.075203478	5.191800E+01	  0.075203478	9.910000E-01
335	  0.075399294	-3.360700E+01	  0.075399294	2.603800E+01	  0.075399294	5.190200E+01	  0.075399294	9.510000E-01
336	  0.075595096	-3.356900E+01	  0.075595096	2.590900E+01	  0.075595096	5.191300E+01	  0.075595096	9.510000E-01
337	  0.075790904	-3.346600E+01	  0.075790904	2.534600E+01	  0.075790904	5.194600E+01	  0.075790904	9.430000E-01
338	  0.075986706	-3.365600E+01	  0.075986706	2.530400E+01	  0.075986706	5.190400E+01	  0.075986706	9.210000E-01
339	  0.076182514	-3.370100E+01	  0.076182514	2.499100E+01	  0.076182514	5.189900E+01	  0.076182514	9.050000E-01
340	  0.076378316	-3.366800E+01	  0.076378316	2.425100E+01	  0.076378316	5.191800E+01	  0.076378316	8.840000E-01
341	  0.076574124	-3.367600E+01	  0.076574124	2.399300E+01	  0.076574124	5.192000E+01	  0.076574124	8.740000E-01
342	  0.076769926	-3.379700E+01	  0.076769926	2.330300E+01	  0.076769926	5.190400E+01	  0.076769926	8.390000E-01
343	  0.076965742	-3.371400E+01	  0.076965742	2.297400E+01	  0.076965742	5.192800E+01	  0.076965742	8.360000E-01
344	  0.077161543	-3.376100E+01	  0.077161543	2.260000E+01	  0.077161543	5.192300E+01	  0.077161543	8.180000E-01
345	  0.077357352	-3.367600E+01	  0.077357352	2.201500E+01	  0.077357352	5.195100E+01	  0.077357352	8.060000E-01
346	  0.077553153	-3.370300E+01	  0.077553153	2.065100E+01	  0.077553153	5.196400E+01	  0.077553153	7.570000E-01
347	  0.077748962	-3.375200E+01	  0.077748962	2.054000E+01	  0.077748962	5.195400E+01	  0.077748962	7.480000E-01
348	  0.077944770	-3.382100E+01	  0.077944770	1.933900E+01	  0.077944770	5.195400E+01	  0.077944770	7.010000E-01
349	  0.078140572	-3.376000E+01	  0.078140572	1.848900E+01	  0.078140572	5.197900E+01	  0.078140572	6.760000E-01
350	  0.078336388	-3.379200E+01	  0.078336388	1.774000E+01	  0.078336388	5.198000E+01	  0.078336388	6.470000E-01
351	  0.078532189	-3.363800E+01	  0.078532189	1.726000E+01	  0.078532189	5.202200E+01	  0.078532189	6.420000E-01
352	  0.078727998	-3.358000E+01	  0.078727998	1.616300E+01	  0.078727998	5.204800E+01	  0.078727998	6.070000E-01
353	  0.078923799	-3.349000E+01	  0.078923799	1.587300E+01	  0.078923799	5.207300E+01	  0.078923799	6.020000E-01
354	  0.079119608	-3.345800E+01	  0.079119608	1.462400E+01	  0.079119608	5.209400E+01	  0.079119608	5.580000E-01
355	  0.079315409	-3.337600E+01	  0.079315409	1.426400E+01	  0.079315409	5.211800E+01	  0.079315409	5.500000E-01
356	  0.079511218	-3.334300E+01	  0.079511218	1.327300E+01	  0.079511218	5.213600E+01	  0.079511218	5.150000E-01
357	  0.079707019	-3.322000E+01	  0.079707019	1.330900E+01	  0.079707019	5.216700E+01	  0.079707019	5.240000E-01
358	  0.079902835	-3.313000E+01	  0.079902835	1.244200E+01	  0.079902835	5.219800E+01	  0.079902835	4.960000E-01
359	  0.080098644	-3.292700E+01	  0.080098644	1.170700E+01	  0.080098644	5.225800E+01	  0.080098644	4.780000E-01
360	  0.080294445	-3.297600E+01	  0.080294445	1.139500E+01	  0.080294445	5.224700E+01	  0.080294445	4.630000E-01
361	  0.080490254	-3.279300E+01	  0.080490254	1.171000E+01	  0.080490254	5.229400E+01	  0.080490254	4.860000E-01
362	  0.080686055	-3.269600E+01	  0.080686055	1.084500E+01	  0.080686055	5.232700E+01	  0.080686055	4.560000E-01
363	  0.080881864	-3.261200E+01	  0.080881864	1.112600E+01	  0.080881864	5.234800E+01	  0.080881864	4.730000E-01
364	  0.081077665	-3.252600E+01	  0.081077665	1.072200E+01	  0.081077665	5.237600E+01	  0.081077665	4.610000E-01
365	  0.081273474	-3.236300E+01	  0.081273474	1.089800E+01	  0.081273474	5.242000E+01	  0.081273474	4.770000E-01
366	  0.081469283	-3.223700E+01	  0.081469283	1.062400E+01	  0.081469283	5.245900E+01	  0.081469283	4.730000E-01
367	  0.081665091	-3.227600E+01	  0.081665091	1.083800E+01	  0.081665091	5.244600E+01	  0.081665091	4.800000E-01
368	  0.081860892	-3.214700E+01	  0.081860892	1.116500E+01	  0.081860892	5.248000E+01	  0.081860892	5.020000E-01
369	  0.082056701	-3.205100E+01	  0.082056701	1.065200E+01	  0.082056701	5.251300E+01	  0.082056701	4.850000E-01
370	  0.082252502	-3.191500E+01	  0.082252502	1.151700E+01	  0.082252502	5.254600E+01	  0.082252502	5.320000E-01
371	  0.082448311	-3.193800E+01	  0.082448311	1.136400E+01	  0.082448311	5.254000E+01	  0.082448311	5.240000E-01
372	  0.082644112	-3.184700E+01	  0.082644112	1.184400E+01	  0.082644112	5.256300E+01	  0.082644112	5.510000E-01
373	  0.082839929	-3.180700E+01	  0.082839929	1.196100E+01	  0.082839929	5.257400E+01	  0.082839929	5.600000E-01
374	  0.083035737	-3.175900E+01	  0.083035737	1.176900E+01	  0.083035737	5.259000E+01	  0.083035737	5.540000E-01
375	  0.083231539	-3.176000E+01	  0.083231539	1.240300E+01	  0.083231539	5.258300E+01	  0.083231539	5.830000E-01
376	  0.083427347	-3.173500E+01	  0.083427347	1.227200E+01	  0.083427347	5.259200E+01	  0.083427347	5.790000E-01
377	  0.083623149	-3.170900E+01	  0.083623149	1.249800E+01	  0.083623149	5.259800E+01	  0.083623149	5.910000E-01
378	  0.083818957	-3.174900E+01	  0.083818957	1.263800E+01	  0.083818957	5.258400E+01	  0.083818957	5.950000E-01
379	  0.084014758	-3.171800E+01	  0.084014758	1.311400E+01	  0.084014758	5.258800E+01	  0.084014758	6.190000E-01
380	  0.084210567	-3.165500E+01	  0.084210567	1.218600E+01	  0.084210567	5.261800E+01	  0.084210567	5.810000E-01
381	  0.084406376	-3.168200E+01	  0.084406376	1.276200E+01	  0.084406376	5.260300E+01	  0.084406376	6.050000E-01
382	  0.084602185	-3.169800E+01	  0.084602185	1.273500E+01	  0.084602185	5.259900E+01	  0.084602185	6.030000E-01
383	  0.084797986	-3.164500E+01	  0.084797986	1.290900E+01	  0.084797986	5.261300E+01	  0.084797986	6.150000E-01
384	  0.084993795	-3.170400E+01	  0.084993795	1.219700E+01	  0.084993795	5.260200E+01	  0.084993795	5.780000E-01
385	  0.085189603	-3.165100E+01	  0.085189603	1.275500E+01	  0.085189603	5.261300E+01	  0.085189603	6.070000E-01
386	  0.085385405	-3.166300E+01	  0.085385405	1.254900E+01	  0.085385405	5.261200E+01	  0.085385405	5.970000E-01
387	  0.085581213	-3.171300E+01	  0.085581213	1.198000E+01	  0.085581213	5.260200E+01	  0.085581213	5.670000E-01
388	  0.085777014	-3.165900E+01	  0.085777014	1.228400E+01	  0.085777014	5.261600E+01	  0.085777014	5.850000E-01
389	  0.085972831	-3.167100E+01	  0.085972831	1.175600E+01	  0.085972831	5.261700E+01	  0.085972831	5.590000E-01
390	  0.086168632	-3.171900E+01	  0.086168632	1.115400E+01	  0.086168632	5.260900E+01	  0.086168632	5.280000E-01
391	  0.086364441	-3.170500E+01	  0.086364441	1.056000E+01	  0.086364441	5.261900E+01	  0.086364441	5.010000E-01
392	  0.086560242	-3.160300E+01	  0.086560242	1.071600E+01	  0.086560242	5.264900E+01	  0.086560242	5.150000E-01
393	  0.086756051	-3.156800E+01	  0.086756051	1.043600E+01	  0.086756051	5.266200E+01	  0.086756051	5.030000E-01
394	  0.086951852	-3.158600E+01	  0.086951852	1.012700E+01	  0.086951852	5.265900E+01	  0.086951852	4.880000E-01
395	  0.087147661	-3.155100E+01	  0.087147661	8.985000E+00	  0.087147661	5.268000E+01	  0.087147661	4.350000E-01
396	  0.087343477	-3.146000E+01	  0.087343477	8.954000E+00	  0.087343477	5.271000E+01	  0.087343477	4.380000E-01
397	  0.087539278	-3.142100E+01	  0.087539278	9.195000E+00	  0.087539278	5.272000E+01	  0.087539278	4.520000E-01
398	  0.087735087	-3.139500E+01	  0.087735087	8.332000E+00	  0.087735087	5.273500E+01	  0.087735087	4.110000E-01
399	  0.087930888	-3.129700E+01	  0.087930888	8.319000E+00	  0.087930888	5.276700E+01	  0.087930888	4.160000E-01
400	  0.088126697	-3.113900E+01	  0.088126697	8.095000E+00	  0.088126697	5.282100E+01	  0.088126697	4.120000E-01
401	  0.088322498	-3.113300E+01	  0.088322498	7.998000E+00	  0.088322498	5.282400E+01	  0.088322498	4.080000E-01
402	  0.088518307	-3.105800E+01	  0.088518307	7.697000E+00	  0.088518307	5.285100E+01	  0.088518307	3.960000E-01
403	  0.088714108	-3.097600E+01	  0.088714108	7.810000E+00	  0.088714108	5.287800E+01	  0.088714108	4.060000E-01
404	  0.088909924	-3.086600E+01	  0.088909924	7.422000E+00	  0.088909924	5.291900E+01	  0.088909924	3.910000E-01
405	  0.089105725	-3.077000E+01	  0.089105725	7.837000E+00	  0.089105725	5.294900E+01	  0.089105725	4.180000E-01
406	  0.089301534	-3.072300E+01	  0.089301534	7.676000E+00	  0.089301534	5.296700E+01	  0.089301534	4.120000E-01
407	  0.089497335	-3.058900E+01	  0.089497335	8.187000E+00	  0.089497335	5.301000E+01	  0.089497335	4.460000E-01
408	  0.089693144	-3.056700E+01	  0.089693144	7.967000E+00	  0.089693144	5.302000E+01	  0.089693144	4.350000E-01
409	  0.089888945	-3.046300E+01	  0.089888945	8.096000E+00	  0.089888945	5.305600E+01	  0.089888945	4.480000E-01
410	  0.090084754	-3.042800E+01	  0.090084754	8.531000E+00	  0.090084754	5.306500E+01	  0.090084754	4.740000E-01
411	  0.090280563	-3.032700E+01	  0.090280563	8.889000E+00	  0.090280563	5.309900E+01	  0.090280563	5.000000E-01
412	  0.090476371	-3.024800E+01	  0.090476371	9.057000E+00	  0.090476371	5.312700E+01	  0.090476371	5.140000E-01
413	  0.090672180	-3.026100E+01	  0.090672180	8.829000E+00	  0.090672180	5.312400E+01	  0.090672180	5.000000E-01
414	  0.090867981	-3.018600E+01	  0.090867981	9.643000E+00	  0.090867981	5.314400E+01	  0.090867981	5.510000E-01
415	  0.091063790	-3.021500E+01	  0.091063790	1.035700E+01	  0.091063790	5.312500E+01	  0.091063790	5.890000E-01
416	  0.091259591	-3.007400E+01	  0.091259591	1.082500E+01	  0.091259591	5.317300E+01	  0.091259591	6.260000E-01
417	  0.091455400	-3.011000E+01	  0.091455400	1.111000E+01	  0.091455400	5.315600E+01	  0.091455400	6.400000E-01
418	  0.091651201	-3.007800E+01	  0.091651201	1.172500E+01	  0.091651201	5.316100E+01	  0.091651201	6.770000E-01
419	  0.091847017	-3.007500E+01	  0.091847017	1.185900E+01	  0.091847017	5.316000E+01	  0.091847017	6.850000E-01
420	  0.092042819	-3.008100E+01	  0.092042819	1.234600E+01	  0.092042819	5.315100E+01	  0.092042819	7.120000E-01
421	  0.092238627	-3.008600E+01	  0.092238627	1.271900E+01	  0.092238627	5.314400E+01	  0.092238627	7.330000E-01
422	  0.092434436	-3.013800E+01	  0.092434436	1.304300E+01	  0.092434436	5.312100E+01	  0.092434436	7.470000E-01
423	  0.092630237	-3.015700E+01	  0.092630237	1.364000E+01	  0.092630237	5.310600E+01	  0.092630237	7.780000E-01
424	  0.092826046	-3.015500E+01	  0.092826046	1.362700E+01	  0.092826046	5.310600E+01	  0.092826046	7.780000E-01
425	  0.093021847	-3.012900E+01	  0.093021847	1.363100E+01	  0.093021847	5.311600E+01	  0.093021847	7.800000E-01
426	  0.093217656	-3.019200E+01	  0.093217656	1.407800E+01	  0.093217656	5.308600E+01	  0.093217656	7.990000E-01
427	  0.093413465	-3.023200E+01	  0.093413465	1.415300E+01	  0.093413465	5.307000E+01	  0.093413465	7.990000E-01
428	  0.093609273	-3.023700E+01	  0.093609273	1.447600E+01	  0.093609273	5.306400E+01	  0.093609273	8.170000E-01
429	  0.093805075	-3.027000E+01	  0.093805075	1.422800E+01	  0.093805075	5.305600E+01	  0.093805075	8.000000E-01
430	  0.094000883	-3.034700E+01	  0.094000883	1.461100E+01	  0.094000883	5.302200E+01	  0.094000883	8.130000E-01
431	  0.094196685	-3.030000E+01	  0.094196685	1.431200E+01	  0.094196685	5.304400E+01	  0.094196685	8.010000E-01
432	  0.094392493	-3.035900E+01	  0.094392493	1.453700E+01	  0.094392493	5.301900E+01	  0.094392493	8.080000E-01
433	  0.094588295	-3.035700E+01	  0.094588295	1.444600E+01	  0.094588295	5.302100E+01	  0.094588295	8.030000E-01
434	  0.094784103	-3.043900E+01	  0.094784103	1.438300E+01	  0.094784103	5.299300E+01	  0.094784103	7.920000E-01
435	  0.094979919	-3.047500E+01	  0.094979919	1.479600E+01	  0.094979919	5.297400E+01	  0.094979919	8.100000E-01
436	  0.095175721	-3.050700E+01	  0.095175721	1.445300E+01	  0.095175721	5.296800E+01	  0.095175721	7.890000E-01
437	  0.095371529	-3.046000E+01	  0.095371529	1.499600E+01	  0.095371529	5.297600E+01	  0.095371529	8.220000E-01
438	  0.095567331	-3.050500E+01	  0.095567331	1.417400E+01	  0.095567331	5.297200E+01	  0.095567331	7.740000E-01
439	  0.095763139	-3.053000E+01	  0.095763139	1.423500E+01	  0.095763139	5.296300E+01	  0.095763139	7.750000E-01
440	  0.095958941	-3.047000E+01	  0.095958941	1.401800E+01	  0.095958941	5.298700E+01	  0.095958941	7.690000E-01
441	  0.096154749	-3.051300E+01	  0.096154749	1.407800E+01	  0.096154749	5.297100E+01	  0.096154749	7.680000E-01
442	  0.096350558	-3.048500E+01	  0.096350558	1.400400E+01	  0.096350558	5.298200E+01	  0.096350558	7.670000E-01
443	  0.096546367	-3.049600E+01	  0.096546367	1.409900E+01	  0.096546367	5.297700E+01	  0.096546367	7.710000E-01
444	  0.096742168	-3.049700E+01	  0.096742168	1.404400E+01	  0.096742168	5.297700E+01	  0.096742168	7.680000E-01
445	  0.096937977	-3.053300E+01	  0.096937977	1.379100E+01	  0.096937977	5.296800E+01	  0.096937977	7.510000E-01
446	  0.097133778	-3.045600E+01	  0.097133778	1.414800E+01	  0.097133778	5.299000E+01	  0.097133778	7.770000E-01
447	  0.097329587	-3.044500E+01	  0.097329587	1.389600E+01	  0.097329587	5.299800E+01	  0.097329587	7.650000E-01
448	  0.097525395	-3.043400E+01	  0.097525395	1.421300E+01	  0.097525395	5.299700E+01	  0.097525395	7.830000E-01
449	  0.097721197	-3.037900E+01	  0.097721197	1.440700E+01	  0.097721197	5.301400E+01	  0.097721197	7.990000E-01
450	  0.097917013	-3.039600E+01	  0.097917013	1.455800E+01	  0.097917013	5.300600E+01	  0.097917013	8.050000E-01
451	  0.098112814	-3.045100E+01	  0.098112814	1.443200E+01	  0.098112814	5.298800E+01	  0.098112814	7.930000E-01
452	  0.098308623	-3.042200E+01	  0.098308623	1.470900E+01	  0.098308623	5.299400E+01	  0.098308623	8.110000E-01
453	  0.098504424	-3.041800E+01	  0.098504424	1.501100E+01	  0.098504424	5.299100E+01	  0.098504424	8.280000E-01
454	  0.098700233	-3.047000E+01	  0.098700233	1.573200E+01	  0.098700233	5.296100E+01	  0.098700233	8.610000E-01
455	  0.098896034	-3.045300E+01	  0.098896034	1.546400E+01	  0.098896034	5.297100E+01	  0.098896034	8.480000E-01
456	  0.099091843	-3.052900E+01	  0.099091843	1.566100E+01	  0.099091843	5.294200E+01	  0.099091843	8.510000E-01
457	  0.099287644	-3.053100E+01	  0.099287644	1.621200E+01	  0.099287644	5.293200E+01	  0.099287644	8.790000E-01
458	  0.099483460	-3.054100E+01	  0.099483460	1.642500E+01	  0.099483460	5.292500E+01	  0.099483460	8.900000E-01
459	  0.099679269	-3.061100E+01	  0.099679269	1.661900E+01	  0.099679269	5.289800E+01	  0.099679269	8.920000E-01
460	  0.099875070	-3.054100E+01	  0.099875070	1.633300E+01	  0.099875070	5.292700E+01	  0.099875070	8.850000E-01
461	  0.100070879	-3.062000E+01	  0.100070879	1.641900E+01	  0.100070879	5.289800E+01	  0.100070879	8.810000E-01
462	  0.100266680	-3.066400E+01	  0.100266680	1.761400E+01	  0.100266680	5.286300E+01	  0.100266680	9.370000E-01
463	  0.100462489	-3.075700E+01	  0.100462489	1.708400E+01	  0.100462489	5.284100E+01	  0.100462489	9.000000E-01
464	  0.100658290	-3.087600E+01	  0.100658290	1.648600E+01	  0.100658290	5.281100E+01	  0.100658290	8.570000E-01
465	  0.100854106	-3.097900E+01	  0.100854106	1.738300E+01	  0.100854106	5.276200E+01	  0.100854106	8.910000E-01
466	  0.101049908	-3.113600E+01	  0.101049908	1.722800E+01	  0.101049908	5.271400E+01	  0.101049908	8.670000E-01
467	  0.101245716	-3.108000E+01	  0.101245716	1.786300E+01	  0.101245716	5.272200E+01	  0.101245716	9.030000E-01
468	  0.101441517	-3.127000E+01	  0.101441517	1.693700E+01	  0.101441517	5.267600E+01	  0.101441517	8.390000E-01
469	  0.101637326	-3.123400E+01	  0.101637326	1.693100E+01	  0.101637326	5.268800E+01	  0.101637326	8.420000E-01
470	  0.101833127	-3.152400E+01	  0.101833127	1.628800E+01	  0.101833127	5.260700E+01	  0.101833127	7.830000E-01
471	  0.102028936	-3.147200E+01	  0.102028936	1.731500E+01	  0.102028936	5.260800E+01	  0.102028936	8.360000E-01
472	  0.102224737	-3.154900E+01	  0.102224737	1.682900E+01	  0.102224737	5.259100E+01	  0.102224737	8.060000E-01
473	  0.102420554	-3.172300E+01	  0.102420554	1.601600E+01	  0.102420554	5.255000E+01	  0.102420554	7.520000E-01
474	  0.102616362	-3.169000E+01	  0.102616362	1.559300E+01	  0.102616362	5.256600E+01	  0.102616362	7.360000E-01
475	  0.102812164	-3.179800E+01	  0.102812164	1.497100E+01	  0.102812164	5.254100E+01	  0.102812164	6.980000E-01
476	  0.103007972	-3.187200E+01	  0.103007972	1.334800E+01	  0.103007972	5.253900E+01	  0.103007972	6.180000E-01
477	  0.103203773	-3.196900E+01	  0.103203773	1.381900E+01	  0.103203773	5.250500E+01	  0.103203773	6.320000E-01
478	  0.103399582	-3.194200E+01	  0.103399582	1.317400E+01	  0.103399582	5.252000E+01	  0.103399582	6.050000E-01
479	  0.103595383	-3.200000E+01	  0.103595383	1.236900E+01	  0.103595383	5.251200E+01	  0.103595383	5.650000E-01
480	  0.103791192	-3.220800E+01	  0.103791192	1.206800E+01	  0.103791192	5.245400E+01	  0.103791192	5.380000E-01
481	  0.103987001	-3.213300E+01	  0.103987001	1.147100E+01	  0.103987001	5.248100E+01	  0.103987001	5.160000E-01
482	  0.104182810	-3.208900E+01	  0.104182810	1.041000E+01	  0.104182810	5.250400E+01	  0.104182810	4.720000E-01
483	  0.104378611	-3.207000E+01	  0.104378611	1.001000E+01	  0.104378611	5.251300E+01	  0.104378611	4.550000E-01
484	  0.104574420	-3.205600E+01	  0.104574420	9.881000E+00	  0.104574420	5.251800E+01	  0.104574420	4.500000E-01
485	  0.104770228	-3.219300E+01	  0.104770228	9.101000E+00	  0.104770228	5.248400E+01	  0.104770228	4.080000E-01
486	  0.104966030	-3.213900E+01	  0.104966030	8.857000E+00	  0.104966030	5.250200E+01	  0.104966030	3.990000E-01
487	  0.105161838	-3.205400E+01	  0.105161838	7.793000E+00	  0.105161838	5.253400E+01	  0.105161838	3.550000E-01
488	  0.105357639	-3.193300E+01	  0.105357639	7.686000E+00	  0.105357639	5.257100E+01	  0.105357639	3.560000E-01
489	  0.105553456	-3.193400E+01	  0.105553456	7.785000E+00	  0.105553456	5.257000E+01	  0.105553456	3.600000E-01
490	  0.105749257	-3.205700E+01	  0.105749257	6.948000E+00	  0.105749257	5.253800E+01	  0.105749257	3.170000E-01
491	  0.105945066	-3.204200E+01	  0.105945066	6.775000E+00	  0.105945066	5.254400E+01	  0.105945066	3.100000E-01
492	  0.106140867	-3.187300E+01	  0.106140867	6.716000E+00	  0.106140867	5.259600E+01	  0.106140867	3.130000E-01
493	  0.106336676	-3.189600E+01	  0.106336676	7.419000E+00	  0.106336676	5.258400E+01	  0.106336676	3.450000E-01
494	  0.106532477	-3.185500E+01	  0.106532477	7.449000E+00	  0.106532477	5.259700E+01	  0.106532477	3.480000E-01
495	  0.106728286	-3.193900E+01	  0.106728286	7.021000E+00	  0.106728286	5.257400E+01	  0.106728286	3.250000E-01
496	  0.106924094	-3.186900E+01	  0.106924094	6.105000E+00	  0.106924094	5.260000E+01	  0.106924094	2.850000E-01
497	  0.107119903	-3.195600E+01	  0.107119903	6.365000E+00	  0.107119903	5.257200E+01	  0.107119903	2.940000E-01
498	  0.107315712	-3.200500E+01	  0.107315712	4.715000E+00	  0.107315712	5.256500E+01	  0.107315712	2.170000E-01
499	  0.107511513	-3.209400E+01	  0.107511513	6.413000E+00	  0.107511513	5.253000E+01	  0.107511513	2.910000E-01
500	  0.107707322	-3.187500E+01	  0.107707322	5.417000E+00	  0.107707322	5.260200E+01	  0.107707322	2.530000E-01
501	  0.107903123	-3.200100E+01	  0.107903123	6.455000E+00	  0.107903123	5.255800E+01	  0.107903123	2.970000E-01
