! Anritsu VNA Master:             	Model: MS2036C/10/77
! SN:             	1601066
! /card0/usr/255.ew.sma.r20.v2.2_1.txt
! Existing Calibration Information:
! TYPE:             	Current Settings	Active Cal Settings
! TIME:             	12/17/2017 06:26:12 PM	12/17/2017 06:11:23 PM
! INTERNAL TEMP:    	43.8 C	43.8 C
! # POINTS:         	501	501
! START FREQ:       	10.000 MHz	10.000 MHz
! STOP FREQ:        	107.903 125 MHz	107.903 125 MHz
! SOURCE POWER:     	High	High
! IFBW:             	100 Hz	100 Hz
! AVG FACTOR:       	  1 	  1 
! REF PLANE 1:      	0 mm	0 mm
! REF PLANE 2:      	0 mm	0 mm
! CAL TYPE:         	Full S11	Full S11
! CAL METHOD:       	SOLT	SOLT
! CAL LINE TYPE:    	Coax	Coax
! DUT PORT 1:       	K-Conn(F)	K-Conn(F)
! DUT PORT 2:       	K-Conn(F)	K-Conn(F)
! CAL STATUS:       	OK: Accuracy High	--
! PROP-V:       	0.700
! CABLE LOSS:       	0.000 dB/m
! REF IMPEDANCE:       	50.0
! Trace Specific Parameters:	TR1	TR2	TR3	TR4
! TRACE.#.Y (GRAPH TYPE)	LOG MAG	PHASE	REAL IMPEDANCE	IMAGINARY IMPEDANCE
! TRACE.#.X 	FREQ.GHZ	FREQ.GHZ	FREQ.GHZ	FREQ.GHZ
! S-PARAMETER	S11	S11	S11	S11
! SMOOTH/APERTURE %	0	0	0	0
! WINDOW	NSL	NSL	NSL	NSL
! GATING	OFF	OFF	OFF	OFF
! FGTD	OFF	OFF	OFF	OFF
Marker Information per Trace:	TR1	TR2	TR3	TR4
!MK1	--	--	--	--
!MK2	--	--	--	--
!MK3	--	--	--	--
!MK4	--	--	--	--
!MK5	--	--	--	--
!MK6	--	--	--	--
!MK7	--	--	--	--
!MK8	--	--	--	--
PNT	TR1.FREQ.GHZ	TR1.LOG MAG.dB	TR2.FREQ.GHZ	TR2.PHASE.deg	TR3.FREQ.GHZ	TR3.REAL IMPEDANCE.ohm	TR4.FREQ.GHZ	TR4.IMAGINARY IMPEDANCE.ohm
1	  0.010000000	-7.220000E+00	  0.010000000	1.677280E+02	  0.010000000	1.985400E+01	  0.010000000	4.535000E+00
2	  0.010195807	-7.210000E+00	  0.010195807	1.675120E+02	  0.010195807	1.983700E+01	  0.010195807	4.617000E+00
3	  0.010391613	-7.206000E+00	  0.010391613	1.672850E+02	  0.010391613	1.983400E+01	  0.010391613	4.703000E+00
4	  0.010587418	-7.206000E+00	  0.010587418	1.670480E+02	  0.010587418	1.984200E+01	  0.010587418	4.791000E+00
5	  0.010783225	-7.208000E+00	  0.010783225	1.668200E+02	  0.010783225	1.985400E+01	  0.010783225	4.875000E+00
6	  0.010979031	-7.209000E+00	  0.010979031	1.665520E+02	  0.010979031	1.986700E+01	  0.010979031	4.974000E+00
7	  0.011174837	-7.208000E+00	  0.011174837	1.663040E+02	  0.011174837	1.987200E+01	  0.011174837	5.067000E+00
8	  0.011370643	-7.209000E+00	  0.011370643	1.660820E+02	  0.011370643	1.988200E+01	  0.011370643	5.149000E+00
9	  0.011566450	-7.209000E+00	  0.011566450	1.658360E+02	  0.011566450	1.989200E+01	  0.011566450	5.240000E+00
10	  0.011762256	-7.209000E+00	  0.011762256	1.656150E+02	  0.011762256	1.989900E+01	  0.011762256	5.323000E+00
11	  0.011958062	-7.210000E+00	  0.011958062	1.653360E+02	  0.011958062	1.991200E+01	  0.011958062	5.426000E+00
12	  0.012153869	-7.213000E+00	  0.012153869	1.650930E+02	  0.012153869	1.992900E+01	  0.012153869	5.516000E+00
13	  0.012349674	-7.211000E+00	  0.012349674	1.648480E+02	  0.012349674	1.993400E+01	  0.012349674	5.608000E+00
14	  0.012545481	-7.209000E+00	  0.012545481	1.646010E+02	  0.012545481	1.993800E+01	  0.012545481	5.700000E+00
15	  0.012741288	-7.213000E+00	  0.012741288	1.643810E+02	  0.012741288	1.995600E+01	  0.012741288	5.782000E+00
16	  0.012937094	-7.215000E+00	  0.012937094	1.641360E+02	  0.012937094	1.997200E+01	  0.012937094	5.872000E+00
17	  0.013132900	-7.214000E+00	  0.013132900	1.639190E+02	  0.013132900	1.997800E+01	  0.013132900	5.953000E+00
18	  0.013328707	-7.217000E+00	  0.013328707	1.636770E+02	  0.013328707	1.999700E+01	  0.013328707	6.043000E+00
19	  0.013524513	-7.208000E+00	  0.013524513	1.634420E+02	  0.013524513	1.998400E+01	  0.013524513	6.133000E+00
20	  0.013720319	-7.206000E+00	  0.013720319	1.632370E+02	  0.013720319	1.998700E+01	  0.013720319	6.210000E+00
21	  0.013916126	-7.206000E+00	  0.013916126	1.629980E+02	  0.013916126	1.999700E+01	  0.013916126	6.299000E+00
22	  0.014111931	-7.211000E+00	  0.014111931	1.627560E+02	  0.014111931	2.002100E+01	  0.014111931	6.388000E+00
23	  0.014307737	-7.210000E+00	  0.014307737	1.625310E+02	  0.014307737	2.002900E+01	  0.014307737	6.473000E+00
24	  0.014503544	-7.211000E+00	  0.014503544	1.623130E+02	  0.014503544	2.004200E+01	  0.014503544	6.553000E+00
25	  0.014699350	-7.212000E+00	  0.014699350	1.620880E+02	  0.014699350	2.005400E+01	  0.014699350	6.637000E+00
26	  0.014895156	-7.215000E+00	  0.014895156	1.618380E+02	  0.014895156	2.007300E+01	  0.014895156	6.730000E+00
27	  0.015090963	-7.218000E+00	  0.015090963	1.616340E+02	  0.015090963	2.009100E+01	  0.015090963	6.805000E+00
28	  0.015286769	-7.219000E+00	  0.015286769	1.613630E+02	  0.015286769	2.010600E+01	  0.015286769	6.906000E+00
29	  0.015482575	-7.224000E+00	  0.015482575	1.611380E+02	  0.015482575	2.013000E+01	  0.015482575	6.989000E+00
30	  0.015678382	-7.222000E+00	  0.015678382	1.609310E+02	  0.015678382	2.013500E+01	  0.015678382	7.067000E+00
31	  0.015874187	-7.224000E+00	  0.015874187	1.606750E+02	  0.015874187	2.015200E+01	  0.015874187	7.162000E+00
32	  0.016069993	-7.227000E+00	  0.016069993	1.604390E+02	  0.016069993	2.017200E+01	  0.016069993	7.250000E+00
33	  0.016265800	-7.225000E+00	  0.016265800	1.601820E+02	  0.016265800	2.018100E+01	  0.016265800	7.346000E+00
34	  0.016461605	-7.224000E+00	  0.016461605	1.599890E+02	  0.016461605	2.018700E+01	  0.016461605	7.419000E+00
35	  0.016657412	-7.227000E+00	  0.016657412	1.597380E+02	  0.016657412	2.020800E+01	  0.016657412	7.512000E+00
36	  0.016853219	-7.229000E+00	  0.016853219	1.595420E+02	  0.016853219	2.022200E+01	  0.016853219	7.585000E+00
37	  0.017049024	-7.228000E+00	  0.017049024	1.592640E+02	  0.017049024	2.023500E+01	  0.017049024	7.690000E+00
38	  0.017244833	-7.227000E+00	  0.017244833	1.590380E+02	  0.017244833	2.024600E+01	  0.017244833	7.775000E+00
39	  0.017440638	-7.227000E+00	  0.017440638	1.587890E+02	  0.017440638	2.026000E+01	  0.017440638	7.868000E+00
40	  0.017636444	-7.229000E+00	  0.017636444	1.585440E+02	  0.017636444	2.027900E+01	  0.017636444	7.960000E+00
41	  0.017832249	-7.227000E+00	  0.017832249	1.583010E+02	  0.017832249	2.028600E+01	  0.017832249	8.052000E+00
42	  0.018028056	-7.232000E+00	  0.018028056	1.580590E+02	  0.018028056	2.031200E+01	  0.018028056	8.141000E+00
43	  0.018223861	-7.230000E+00	  0.018223861	1.578240E+02	  0.018223861	2.032200E+01	  0.018223861	8.230000E+00
44	  0.018419670	-7.231000E+00	  0.018419670	1.575930E+02	  0.018419670	2.033800E+01	  0.018419670	8.316000E+00
45	  0.018615475	-7.233000E+00	  0.018615475	1.573520E+02	  0.018615475	2.035600E+01	  0.018615475	8.406000E+00
46	  0.018811282	-7.230000E+00	  0.018811282	1.571160E+02	  0.018811282	2.036500E+01	  0.018811282	8.496000E+00
47	  0.019007087	-7.228000E+00	  0.019007087	1.568870E+02	  0.019007087	2.037300E+01	  0.019007087	8.583000E+00
48	  0.019202894	-7.227000E+00	  0.019202894	1.566680E+02	  0.019202894	2.038300E+01	  0.019202894	8.666000E+00
49	  0.019398699	-7.232000E+00	  0.019398699	1.564350E+02	  0.019398699	2.041000E+01	  0.019398699	8.752000E+00
50	  0.019594505	-7.231000E+00	  0.019594505	1.562110E+02	  0.019594505	2.042200E+01	  0.019594505	8.837000E+00
51	  0.019790314	-7.229000E+00	  0.019790314	1.559880E+02	  0.019790314	2.043200E+01	  0.019790314	8.922000E+00
52	  0.019986119	-7.229000E+00	  0.019986119	1.557430E+02	  0.019986119	2.044800E+01	  0.019986119	9.014000E+00
53	  0.020181926	-7.227000E+00	  0.020181926	1.555380E+02	  0.020181926	2.045500E+01	  0.020181926	9.093000E+00
54	  0.020377731	-7.222000E+00	  0.020377731	1.553020E+02	  0.020377731	2.045900E+01	  0.020377731	9.184000E+00
55	  0.020573538	-7.221000E+00	  0.020573538	1.550780E+02	  0.020573538	2.047100E+01	  0.020573538	9.269000E+00
56	  0.020769343	-7.218000E+00	  0.020769343	1.548670E+02	  0.020769343	2.047600E+01	  0.020769343	9.350000E+00
57	  0.020965151	-7.217000E+00	  0.020965151	1.546320E+02	  0.020965151	2.049000E+01	  0.020965151	9.440000E+00
58	  0.021160956	-7.221000E+00	  0.021160956	1.544020E+02	  0.021160956	2.051700E+01	  0.021160956	9.525000E+00
59	  0.021356763	-7.217000E+00	  0.021356763	1.541790E+02	  0.021356763	2.052200E+01	  0.021356763	9.611000E+00
60	  0.021552568	-7.220000E+00	  0.021552568	1.539740E+02	  0.021552568	2.054200E+01	  0.021552568	9.688000E+00
61	  0.021748375	-7.220000E+00	  0.021748375	1.537780E+02	  0.021748375	2.055700E+01	  0.021748375	9.762000E+00
62	  0.021944180	-7.224000E+00	  0.021944180	1.535610E+02	  0.021944180	2.058100E+01	  0.021944180	9.843000E+00
63	  0.022139989	-7.231000E+00	  0.022139989	1.533280E+02	  0.022139989	2.061500E+01	  0.022139989	9.928000E+00
64	  0.022335794	-7.230000E+00	  0.022335794	1.531320E+02	  0.022335794	2.062800E+01	  0.022335794	1.000200E+01
65	  0.022531601	-7.231000E+00	  0.022531601	1.529380E+02	  0.022531601	2.064500E+01	  0.022531601	1.007500E+01
66	  0.022727406	-7.233000E+00	  0.022727406	1.527010E+02	  0.022727406	2.066600E+01	  0.022727406	1.016400E+01
67	  0.022923212	-7.235000E+00	  0.022923212	1.524780E+02	  0.022923212	2.068800E+01	  0.022923212	1.024800E+01
68	  0.023119017	-7.239000E+00	  0.023119017	1.522540E+02	  0.023119017	2.071400E+01	  0.023119017	1.033100E+01
69	  0.023314826	-7.242000E+00	  0.023314826	1.520120E+02	  0.023314826	2.073900E+01	  0.023314826	1.042200E+01
70	  0.023510631	-7.240000E+00	  0.023510631	1.518140E+02	  0.023510631	2.075000E+01	  0.023510631	1.049800E+01
71	  0.023706438	-7.242000E+00	  0.023706438	1.515610E+02	  0.023706438	2.077400E+01	  0.023706438	1.059400E+01
72	  0.023902243	-7.242000E+00	  0.023902243	1.512860E+02	  0.023902243	2.079500E+01	  0.023902243	1.069800E+01
73	  0.024098050	-7.245000E+00	  0.024098050	1.510810E+02	  0.024098050	2.081800E+01	  0.024098050	1.077500E+01
74	  0.024293855	-7.249000E+00	  0.024293855	1.508330E+02	  0.024293855	2.084900E+01	  0.024293855	1.086700E+01
75	  0.024489662	-7.248000E+00	  0.024489662	1.505490E+02	  0.024489662	2.087000E+01	  0.024489662	1.097600E+01
76	  0.024685470	-7.251000E+00	  0.024685470	1.502920E+02	  0.024685470	2.089600E+01	  0.024685470	1.107300E+01
77	  0.024881275	-7.249000E+00	  0.024881275	1.500670E+02	  0.024881275	2.091100E+01	  0.024881275	1.115900E+01
78	  0.025077082	-7.251000E+00	  0.025077082	1.498170E+02	  0.025077082	2.093700E+01	  0.025077082	1.125300E+01
79	  0.025272887	-7.252000E+00	  0.025272887	1.496080E+02	  0.025272887	2.095500E+01	  0.025272887	1.133300E+01
80	  0.025468694	-7.254000E+00	  0.025468694	1.493980E+02	  0.025468694	2.097800E+01	  0.025468694	1.141200E+01
81	  0.025664499	-7.259000E+00	  0.025664499	1.491480E+02	  0.025664499	2.101200E+01	  0.025664499	1.150500E+01
82	  0.025860308	-7.257000E+00	  0.025860308	1.489350E+02	  0.025860308	2.102500E+01	  0.025860308	1.158800E+01
83	  0.026056113	-7.260000E+00	  0.026056113	1.487120E+02	  0.026056113	2.105100E+01	  0.026056113	1.167100E+01
84	  0.026251920	-7.259000E+00	  0.026251920	1.484410E+02	  0.026251920	2.107200E+01	  0.026251920	1.177600E+01
85	  0.026447725	-7.263000E+00	  0.026447725	1.481960E+02	  0.026447725	2.110400E+01	  0.026447725	1.186700E+01
86	  0.026643531	-7.268000E+00	  0.026643531	1.479640E+02	  0.026643531	2.113700E+01	  0.026643531	1.195300E+01
87	  0.026839336	-7.269000E+00	  0.026839336	1.477140E+02	  0.026839336	2.116200E+01	  0.026839336	1.204800E+01
88	  0.027035145	-7.263000E+00	  0.027035145	1.474430E+02	  0.027035145	2.116900E+01	  0.027035145	1.215600E+01
89	  0.027230950	-7.260000E+00	  0.027230950	1.471850E+02	  0.027230950	2.118700E+01	  0.027230950	1.225700E+01
90	  0.027426757	-7.258000E+00	  0.027426757	1.468920E+02	  0.027426757	2.120800E+01	  0.027426757	1.237000E+01
91	  0.027622562	-7.250000E+00	  0.027622562	1.466790E+02	  0.027622562	2.120600E+01	  0.027622562	1.245800E+01
92	  0.027818369	-7.250000E+00	  0.027818369	1.464100E+02	  0.027818369	2.123300E+01	  0.027818369	1.256100E+01
93	  0.028014174	-7.247000E+00	  0.028014174	1.461810E+02	  0.028014174	2.124600E+01	  0.028014174	1.265100E+01
94	  0.028209982	-7.243000E+00	  0.028209982	1.459310E+02	  0.028209982	2.125900E+01	  0.028209982	1.275000E+01
95	  0.028405787	-7.241000E+00	  0.028405787	1.457310E+02	  0.028405787	2.127300E+01	  0.028405787	1.282800E+01
96	  0.028601594	-7.235000E+00	  0.028601594	1.455290E+02	  0.028601594	2.127600E+01	  0.028601594	1.291000E+01
97	  0.028797399	-7.237000E+00	  0.028797399	1.453650E+02	  0.028797399	2.129800E+01	  0.028797399	1.297200E+01
98	  0.028993206	-7.236000E+00	  0.028993206	1.451940E+02	  0.028993206	2.131100E+01	  0.028993206	1.303900E+01
99	  0.029189013	-7.232000E+00	  0.029189013	1.450050E+02	  0.029189013	2.131900E+01	  0.029189013	1.311500E+01
100	  0.029384818	-7.232000E+00	  0.029384818	1.448420E+02	  0.029384818	2.133700E+01	  0.029384818	1.317800E+01
101	  0.029580627	-7.231000E+00	  0.029580627	1.446670E+02	  0.029580627	2.135100E+01	  0.029580627	1.324600E+01
102	  0.029776432	-7.235000E+00	  0.029776432	1.444700E+02	  0.029776432	2.138100E+01	  0.029776432	1.332000E+01
103	  0.029972238	-7.242000E+00	  0.029972238	1.442340E+02	  0.029972238	2.142100E+01	  0.029972238	1.340700E+01
104	  0.030168043	-7.246000E+00	  0.030168043	1.440270E+02	  0.030168043	2.145300E+01	  0.030168043	1.348400E+01
105	  0.030363850	-7.251000E+00	  0.030363850	1.437830E+02	  0.030363850	2.149000E+01	  0.030363850	1.357600E+01
106	  0.030559655	-7.250000E+00	  0.030559655	1.435720E+02	  0.030559655	2.150900E+01	  0.030559655	1.365800E+01
107	  0.030755464	-7.257000E+00	  0.030755464	1.433030E+02	  0.030755464	2.155400E+01	  0.030755464	1.375800E+01
108	  0.030951269	-7.258000E+00	  0.030951269	1.430800E+02	  0.030951269	2.158200E+01	  0.030951269	1.384300E+01
109	  0.031147076	-7.256000E+00	  0.031147076	1.428790E+02	  0.031147076	2.159600E+01	  0.031147076	1.392300E+01
110	  0.031342883	-7.257000E+00	  0.031342883	1.426060E+02	  0.031342883	2.162900E+01	  0.031342883	1.402800E+01
111	  0.031538688	-7.265000E+00	  0.031538688	1.423810E+02	  0.031538688	2.167300E+01	  0.031538688	1.411000E+01
112	  0.031734493	-7.264000E+00	  0.031734493	1.420850E+02	  0.031734493	2.170200E+01	  0.031734493	1.422600E+01
113	  0.031930301	-7.270000E+00	  0.031930301	1.418510E+02	  0.031930301	2.174300E+01	  0.031930301	1.431400E+01
114	  0.032126106	-7.266000E+00	  0.032126106	1.416100E+02	  0.032126106	2.175900E+01	  0.032126106	1.441000E+01
115	  0.032321911	-7.267000E+00	  0.032321911	1.413660E+02	  0.032321911	2.178800E+01	  0.032321911	1.450500E+01
116	  0.032517716	-7.267000E+00	  0.032517716	1.411390E+02	  0.032517716	2.181200E+01	  0.032517716	1.459400E+01
117	  0.032713525	-7.259000E+00	  0.032713525	1.408850E+02	  0.032713525	2.182000E+01	  0.032713525	1.469900E+01
118	  0.032909330	-7.259000E+00	  0.032909330	1.406850E+02	  0.032909330	2.184300E+01	  0.032909330	1.477700E+01
119	  0.033105139	-7.257000E+00	  0.033105139	1.404110E+02	  0.033105139	2.186900E+01	  0.033105139	1.488500E+01
120	  0.033300944	-7.256000E+00	  0.033300944	1.402310E+02	  0.033300944	2.188700E+01	  0.033300944	1.495700E+01
121	  0.033496749	-7.261000E+00	  0.033496749	1.400020E+02	  0.033496749	2.192700E+01	  0.033496749	1.504200E+01
122	  0.033692554	-7.265000E+00	  0.033692554	1.397760E+02	  0.033692554	2.196300E+01	  0.033692554	1.512800E+01
123	  0.033888362	-7.273000E+00	  0.033888362	1.395200E+02	  0.033888362	2.201300E+01	  0.033888362	1.522200E+01
124	  0.034084171	-7.277000E+00	  0.034084171	1.392790E+02	  0.034084171	2.205100E+01	  0.034084171	1.531400E+01
125	  0.034279976	-7.271000E+00	  0.034279976	1.390080E+02	  0.034279976	2.206700E+01	  0.034279976	1.542500E+01
126	  0.034475781	-7.275000E+00	  0.034475781	1.387030E+02	  0.034475781	2.211400E+01	  0.034475781	1.554200E+01
127	  0.034671586	-7.278000E+00	  0.034671586	1.384340E+02	  0.034671586	2.215500E+01	  0.034671586	1.564500E+01
128	  0.034867391	-7.278000E+00	  0.034867391	1.381560E+02	  0.034867391	2.218800E+01	  0.034867391	1.575500E+01
129	  0.035063203	-7.279000E+00	  0.035063203	1.379080E+02	  0.035063203	2.222100E+01	  0.035063203	1.585100E+01
130	  0.035259008	-7.271000E+00	  0.035259008	1.376190E+02	  0.035259008	2.223600E+01	  0.035259008	1.597200E+01
131	  0.035454813	-7.268000E+00	  0.035454813	1.373780E+02	  0.035454813	2.226000E+01	  0.035454813	1.606900E+01
132	  0.035650618	-7.261000E+00	  0.035650618	1.371050E+02	  0.035650618	2.227500E+01	  0.035650618	1.618300E+01
133	  0.035846427	-7.259000E+00	  0.035846427	1.368420E+02	  0.035846427	2.230300E+01	  0.035846427	1.628900E+01
134	  0.036042232	-7.250000E+00	  0.036042232	1.366290E+02	  0.036042232	2.230700E+01	  0.036042232	1.638100E+01
135	  0.036238037	-7.242000E+00	  0.036238037	1.363980E+02	  0.036238037	2.231500E+01	  0.036238037	1.647900E+01
136	  0.036433842	-7.232000E+00	  0.036433842	1.361860E+02	  0.036433842	2.231700E+01	  0.036433842	1.657200E+01
137	  0.036629651	-7.230000E+00	  0.036629651	1.359900E+02	  0.036629651	2.233500E+01	  0.036629651	1.665200E+01
138	  0.036825456	-7.228000E+00	  0.036825456	1.357840E+02	  0.036825456	2.235800E+01	  0.036825456	1.673500E+01
139	  0.037021261	-7.227000E+00	  0.037021261	1.356190E+02	  0.037021261	2.237600E+01	  0.037021261	1.680200E+01
140	  0.037217066	-7.229000E+00	  0.037217066	1.354120E+02	  0.037217066	2.240900E+01	  0.037217066	1.688300E+01
141	  0.037412878	-7.231000E+00	  0.037412878	1.352060E+02	  0.037412878	2.244100E+01	  0.037412878	1.696300E+01
142	  0.037608683	-7.230000E+00	  0.037608683	1.349950E+02	  0.037608683	2.246800E+01	  0.037608683	1.704800E+01
143	  0.037804488	-7.233000E+00	  0.037804488	1.347620E+02	  0.037804488	2.250700E+01	  0.037804488	1.713800E+01
144	  0.038000293	-7.242000E+00	  0.038000293	1.345170E+02	  0.038000293	2.256300E+01	  0.038000293	1.722800E+01
145	  0.038196102	-7.242000E+00	  0.038196102	1.342770E+02	  0.038196102	2.259700E+01	  0.038196102	1.732300E+01
146	  0.038391907	-7.247000E+00	  0.038391907	1.340740E+02	  0.038391907	2.263600E+01	  0.038391907	1.740100E+01
147	  0.038587712	-7.252000E+00	  0.038587712	1.338110E+02	  0.038587712	2.268600E+01	  0.038587712	1.750100E+01
148	  0.038783520	-7.251000E+00	  0.038783520	1.336130E+02	  0.038783520	2.271100E+01	  0.038783520	1.758100E+01
149	  0.038979325	-7.252000E+00	  0.038979325	1.333460E+02	  0.038979325	2.275200E+01	  0.038979325	1.768700E+01
150	  0.039175130	-7.254000E+00	  0.039175130	1.331210E+02	  0.039175130	2.278700E+01	  0.039175130	1.777600E+01
151	  0.039370935	-7.255000E+00	  0.039370935	1.328820E+02	  0.039370935	2.282500E+01	  0.039370935	1.787000E+01
152	  0.039566744	-7.251000E+00	  0.039566744	1.326480E+02	  0.039566744	2.284700E+01	  0.039566744	1.796800E+01
153	  0.039762549	-7.243000E+00	  0.039762549	1.323650E+02	  0.039762549	2.286700E+01	  0.039762549	1.808900E+01
154	  0.039958358	-7.240000E+00	  0.039958358	1.321380E+02	  0.039958358	2.289100E+01	  0.039958358	1.818400E+01
155	  0.040154163	-7.230000E+00	  0.040154163	1.318580E+02	  0.040154163	2.290600E+01	  0.040154163	1.830600E+01
156	  0.040349972	-7.229000E+00	  0.040349972	1.316630E+02	  0.040349972	2.293100E+01	  0.040349972	1.838600E+01
157	  0.040545776	-7.228000E+00	  0.040545776	1.314640E+02	  0.040545776	2.295900E+01	  0.040545776	1.846700E+01
158	  0.040741581	-7.230000E+00	  0.040741581	1.312620E+02	  0.040741581	2.299400E+01	  0.040741581	1.854700E+01
159	  0.040937386	-7.233000E+00	  0.040937386	1.311020E+02	  0.040937386	2.302700E+01	  0.040937386	1.860800E+01
160	  0.041133195	-7.236000E+00	  0.041133195	1.308960E+02	  0.041133195	2.306600E+01	  0.041133195	1.868800E+01
161	  0.041329000	-7.242000E+00	  0.041329000	1.306760E+02	  0.041329000	2.311400E+01	  0.041329000	1.877200E+01
162	  0.041524805	-7.246000E+00	  0.041524805	1.304360E+02	  0.041524805	2.316000E+01	  0.041524805	1.886500E+01
163	  0.041720610	-7.254000E+00	  0.041720610	1.301850E+02	  0.041720610	2.322100E+01	  0.041720610	1.895900E+01
164	  0.041916419	-7.254000E+00	  0.041916419	1.299160E+02	  0.041916419	2.326200E+01	  0.041916419	1.906700E+01
165	  0.042112224	-7.255000E+00	  0.042112224	1.296830E+02	  0.042112224	2.330300E+01	  0.042112224	1.916000E+01
166	  0.042308029	-7.259000E+00	  0.042308029	1.294040E+02	  0.042308029	2.335600E+01	  0.042308029	1.927000E+01
167	  0.042503837	-7.257000E+00	  0.042503837	1.291620E+02	  0.042503837	2.338900E+01	  0.042503837	1.937000E+01
168	  0.042699646	-7.255000E+00	  0.042699646	1.289050E+02	  0.042699646	2.342400E+01	  0.042699646	1.947700E+01
169	  0.042895451	-7.253000E+00	  0.042895451	1.286490E+02	  0.042895451	2.346000E+01	  0.042895451	1.958300E+01
170	  0.043091256	-7.245000E+00	  0.043091256	1.284190E+02	  0.043091256	2.347600E+01	  0.043091256	1.968500E+01
171	  0.043287061	-7.237000E+00	  0.043287061	1.281480E+02	  0.043287061	2.349800E+01	  0.043287061	1.980400E+01
172	  0.043482870	-7.228000E+00	  0.043482870	1.279390E+02	  0.043482870	2.350800E+01	  0.043482870	1.989900E+01
173	  0.043678675	-7.222000E+00	  0.043678675	1.277130E+02	  0.043678675	2.353000E+01	  0.043678675	1.999800E+01
174	  0.043874480	-7.222000E+00	  0.043874480	1.275260E+02	  0.043874480	2.355900E+01	  0.043874480	2.007500E+01
175	  0.044070289	-7.220000E+00	  0.044070289	1.273340E+02	  0.044070289	2.358500E+01	  0.044070289	2.015600E+01
176	  0.044266094	-7.220000E+00	  0.044266094	1.271190E+02	  0.044266094	2.362100E+01	  0.044266094	2.024400E+01
177	  0.044461899	-7.223000E+00	  0.044461899	1.269320E+02	  0.044461899	2.366000E+01	  0.044461899	2.031800E+01
178	  0.044657703	-7.222000E+00	  0.044657703	1.267530E+02	  0.044657703	2.368900E+01	  0.044657703	2.039200E+01
179	  0.044853516	-7.228000E+00	  0.044853516	1.265150E+02	  0.044853516	2.374500E+01	  0.044853516	2.048300E+01
180	  0.045049321	-7.230000E+00	  0.045049321	1.262810E+02	  0.045049321	2.378900E+01	  0.045049321	2.057800E+01
181	  0.045245126	-7.234000E+00	  0.045245126	1.260640E+02	  0.045245126	2.383700E+01	  0.045245126	2.066300E+01
182	  0.045440931	-7.234000E+00	  0.045440931	1.258620E+02	  0.045440931	2.387400E+01	  0.045440931	2.074500E+01
183	  0.045636740	-7.241000E+00	  0.045636740	1.256100E+02	  0.045636740	2.393500E+01	  0.045636740	2.084100E+01
184	  0.045832545	-7.242000E+00	  0.045832545	1.254060E+02	  0.045832545	2.397300E+01	  0.045832545	2.092500E+01
185	  0.046028350	-7.240000E+00	  0.046028350	1.251550E+02	  0.046028350	2.401300E+01	  0.046028350	2.103000E+01
186	  0.046224155	-7.240000E+00	  0.046224155	1.249360E+02	  0.046224155	2.405200E+01	  0.046224155	2.112000E+01
187	  0.046419963	-7.239000E+00	  0.046419963	1.246870E+02	  0.046419963	2.409200E+01	  0.046419963	2.122500E+01
188	  0.046615768	-7.244000E+00	  0.046615768	1.244330E+02	  0.046615768	2.415100E+01	  0.046615768	2.132400E+01
189	  0.046811573	-7.240000E+00	  0.046811573	1.241670E+02	  0.046811573	2.418800E+01	  0.046811573	2.143900E+01
190	  0.047007378	-7.233000E+00	  0.047007378	1.239130E+02	  0.047007378	2.421500E+01	  0.047007378	2.155300E+01
191	  0.047203191	-7.228000E+00	  0.047203191	1.236870E+02	  0.047203191	2.424200E+01	  0.047203191	2.165300E+01
192	  0.047398996	-7.228000E+00	  0.047398996	1.234550E+02	  0.047398996	2.428700E+01	  0.047398996	2.174900E+01
193	  0.047594801	-7.223000E+00	  0.047594801	1.232480E+02	  0.047594801	2.431100E+01	  0.047594801	2.184100E+01
194	  0.047790606	-7.227000E+00	  0.047790606	1.230240E+02	  0.047790606	2.436400E+01	  0.047790606	2.192900E+01
195	  0.047986414	-7.224000E+00	  0.047986414	1.228670E+02	  0.047986414	2.438400E+01	  0.047986414	2.199900E+01
196	  0.048182219	-7.230000E+00	  0.048182219	1.226290E+02	  0.048182219	2.444700E+01	  0.048182219	2.209000E+01
197	  0.048378024	-7.228000E+00	  0.048378024	1.223940E+02	  0.048378024	2.448600E+01	  0.048378024	2.219000E+01
198	  0.048573833	-7.236000E+00	  0.048573833	1.221850E+02	  0.048573833	2.454800E+01	  0.048573833	2.226800E+01
199	  0.048769638	-7.241000E+00	  0.048769638	1.219850E+02	  0.048769638	2.459900E+01	  0.048769638	2.234500E+01
200	  0.048965443	-7.243000E+00	  0.048965443	1.217140E+02	  0.048965443	2.465500E+01	  0.048965443	2.245700E+01
201	  0.049161248	-7.246000E+00	  0.049161248	1.214670E+02	  0.049161248	2.471200E+01	  0.049161248	2.255600E+01
202	  0.049357057	-7.248000E+00	  0.049357057	1.212130E+02	  0.049357057	2.476800E+01	  0.049357057	2.265900E+01
203	  0.049552862	-7.250000E+00	  0.049552862	1.209920E+02	  0.049552862	2.481700E+01	  0.049552862	2.275000E+01
204	  0.049748670	-7.248000E+00	  0.049748670	1.207000E+02	  0.049748670	2.486800E+01	  0.049748670	2.287500E+01
205	  0.049944475	-7.246000E+00	  0.049944475	1.204660E+02	  0.049944475	2.490900E+01	  0.049944475	2.297600E+01
206	  0.050140284	-7.240000E+00	  0.050140284	1.201600E+02	  0.050140284	2.495500E+01	  0.050140284	2.311200E+01
207	  0.050336089	-7.235000E+00	  0.050336089	1.199250E+02	  0.050336089	2.498700E+01	  0.050336089	2.321800E+01
208	  0.050531894	-7.225000E+00	  0.050531894	1.196650E+02	  0.050531894	2.501400E+01	  0.050531894	2.334000E+01
209	  0.050727699	-7.219000E+00	  0.050727699	1.194550E+02	  0.050727699	2.504000E+01	  0.050727699	2.343700E+01
210	  0.050923508	-7.214000E+00	  0.050923508	1.191830E+02	  0.050923508	2.508200E+01	  0.050923508	2.355900E+01
211	  0.051119313	-7.216000E+00	  0.051119313	1.190140E+02	  0.051119313	2.512200E+01	  0.051119313	2.362800E+01
212	  0.051315118	-7.211000E+00	  0.051315118	1.188580E+02	  0.051315118	2.514100E+01	  0.051315118	2.370100E+01
213	  0.051510923	-7.212000E+00	  0.051510923	1.186380E+02	  0.051510923	2.519000E+01	  0.051510923	2.379300E+01
214	  0.051706731	-7.211000E+00	  0.051706731	1.183980E+02	  0.051706731	2.523500E+01	  0.051706731	2.389700E+01
215	  0.051902536	-7.215000E+00	  0.051902536	1.181940E+02	  0.051902536	2.529000E+01	  0.051902536	2.397800E+01
216	  0.052098341	-7.214000E+00	  0.052098341	1.179770E+02	  0.052098341	2.533400E+01	  0.052098341	2.407200E+01
217	  0.052294150	-7.217000E+00	  0.052294150	1.177660E+02	  0.052294150	2.538700E+01	  0.052294150	2.415700E+01
218	  0.052489959	-7.216000E+00	  0.052489959	1.175470E+02	  0.052489959	2.543200E+01	  0.052489959	2.425200E+01
219	  0.052685764	-7.218000E+00	  0.052685764	1.173500E+02	  0.052685764	2.548000E+01	  0.052685764	2.433300E+01
220	  0.052881569	-7.219000E+00	  0.052881569	1.171130E+02	  0.052881569	2.553500E+01	  0.052881569	2.443200E+01
221	  0.053077377	-7.219000E+00	  0.053077377	1.169080E+02	  0.053077377	2.557900E+01	  0.053077377	2.452000E+01
222	  0.053273182	-7.218000E+00	  0.053273182	1.166680E+02	  0.053273182	2.562900E+01	  0.053273182	2.462400E+01
223	  0.053468987	-7.218000E+00	  0.053468987	1.164350E+02	  0.053468987	2.568000E+01	  0.053468987	2.472400E+01
224	  0.053664792	-7.220000E+00	  0.053664792	1.162040E+02	  0.053664792	2.573600E+01	  0.053664792	2.482000E+01
225	  0.053860601	-7.218000E+00	  0.053860601	1.159390E+02	  0.053860601	2.579100E+01	  0.053860601	2.493600E+01
226	  0.054056406	-7.214000E+00	  0.054056406	1.157100E+02	  0.054056406	2.583000E+01	  0.054056406	2.504100E+01
227	  0.054252211	-7.209000E+00	  0.054252211	1.154680E+02	  0.054252211	2.587200E+01	  0.054252211	2.515200E+01
228	  0.054448016	-7.213000E+00	  0.054448016	1.152470E+02	  0.054448016	2.593300E+01	  0.054448016	2.524100E+01
229	  0.054643828	-7.212000E+00	  0.054643828	1.150410E+02	  0.054643828	2.597800E+01	  0.054643828	2.533100E+01
230	  0.054839633	-7.205000E+00	  0.054839633	1.148300E+02	  0.054839633	2.600800E+01	  0.054839633	2.543200E+01
231	  0.055035438	-7.209000E+00	  0.055035438	1.146490E+02	  0.055035438	2.606000E+01	  0.055035438	2.550400E+01
232	  0.055231243	-7.209000E+00	  0.055231243	1.144080E+02	  0.055231243	2.611700E+01	  0.055231243	2.560800E+01
233	  0.055427052	-7.212000E+00	  0.055427052	1.141820E+02	  0.055427052	2.617800E+01	  0.055427052	2.570100E+01
234	  0.055622857	-7.213000E+00	  0.055622857	1.139850E+02	  0.055622857	2.622800E+01	  0.055622857	2.578400E+01
235	  0.055818662	-7.221000E+00	  0.055818662	1.137740E+02	  0.055818662	2.630000E+01	  0.055818662	2.586300E+01
236	  0.056014467	-7.226000E+00	  0.056014467	1.135160E+02	  0.056014467	2.637400E+01	  0.056014467	2.596800E+01
237	  0.056210276	-7.224000E+00	  0.056210276	1.133130E+02	  0.056210276	2.641700E+01	  0.056210276	2.605900E+01
238	  0.056406081	-7.223000E+00	  0.056406081	1.130750E+02	  0.056406081	2.647400E+01	  0.056406081	2.616200E+01
239	  0.056601886	-7.227000E+00	  0.056601886	1.128030E+02	  0.056601886	2.655100E+01	  0.056601886	2.627400E+01
240	  0.056797691	-7.229000E+00	  0.056797691	1.125740E+02	  0.056797691	2.661200E+01	  0.056797691	2.637100E+01
241	  0.056993503	-7.229000E+00	  0.056993503	1.122800E+02	  0.056993503	2.668300E+01	  0.056993503	2.649900E+01
242	  0.057189308	-7.227000E+00	  0.057189308	1.120350E+02	  0.057189308	2.674000E+01	  0.057189308	2.660800E+01
243	  0.057385113	-7.222000E+00	  0.057385113	1.117790E+02	  0.057385113	2.678900E+01	  0.057385113	2.672800E+01
244	  0.057580918	-7.216000E+00	  0.057580918	1.115020E+02	  0.057580918	2.684000E+01	  0.057580918	2.685900E+01
245	  0.057776727	-7.218000E+00	  0.057776727	1.112560E+02	  0.057776727	2.690900E+01	  0.057776727	2.696200E+01
246	  0.057972532	-7.212000E+00	  0.057972532	1.109790E+02	  0.057972532	2.696200E+01	  0.057972532	2.709400E+01
247	  0.058168337	-7.208000E+00	  0.058168337	1.107810E+02	  0.058168337	2.700100E+01	  0.058168337	2.718700E+01
248	  0.058364145	-7.203000E+00	  0.058364145	1.105860E+02	  0.058364145	2.703800E+01	  0.058364145	2.728100E+01
249	  0.058559950	-7.203000E+00	  0.058559950	1.103430E+02	  0.058559950	2.709800E+01	  0.058559950	2.738800E+01
250	  0.058755755	-7.205000E+00	  0.058755755	1.101070E+02	  0.058755755	2.716500E+01	  0.058755755	2.748900E+01
251	  0.058951560	-7.196000E+00	  0.058951560	1.099180E+02	  0.058951560	2.718900E+01	  0.058951560	2.758700E+01
252	  0.059147369	-7.197000E+00	  0.059147369	1.096920E+02	  0.059147369	2.725100E+01	  0.059147369	2.768500E+01
253	  0.059343174	-7.200000E+00	  0.059343174	1.094850E+02	  0.059343174	2.731400E+01	  0.059343174	2.777100E+01
254	  0.059538983	-7.202000E+00	  0.059538983	1.093030E+02	  0.059538983	2.737000E+01	  0.059538983	2.784700E+01
255	  0.059734788	-7.200000E+00	  0.059734788	1.090690E+02	  0.059734788	2.742700E+01	  0.059734788	2.795400E+01
256	  0.059930597	-7.192000E+00	  0.059930597	1.088390E+02	  0.059930597	2.746400E+01	  0.059930597	2.807000E+01
257	  0.060126401	-7.196000E+00	  0.060126401	1.086080E+02	  0.060126401	2.753800E+01	  0.060126401	2.816500E+01
258	  0.060322206	-7.191000E+00	  0.060322206	1.083970E+02	  0.060322206	2.758200E+01	  0.060322206	2.826700E+01
259	  0.060518011	-7.190000E+00	  0.060518011	1.081410E+02	  0.060518011	2.764800E+01	  0.060518011	2.838300E+01
260	  0.060713820	-7.192000E+00	  0.060713820	1.078930E+02	  0.060713820	2.772200E+01	  0.060713820	2.848900E+01
261	  0.060909625	-7.191000E+00	  0.060909625	1.076670E+02	  0.060909625	2.778200E+01	  0.060909625	2.859000E+01
262	  0.061105430	-7.188000E+00	  0.061105430	1.074550E+02	  0.061105430	2.783100E+01	  0.061105430	2.869100E+01
263	  0.061301235	-7.181000E+00	  0.061301235	1.072060E+02	  0.061301235	2.788000E+01	  0.061301235	2.881500E+01
264	  0.061497044	-7.180000E+00	  0.061497044	1.069750E+02	  0.061497044	2.794300E+01	  0.061497044	2.891900E+01
265	  0.061692849	-7.176000E+00	  0.061692849	1.067740E+02	  0.061692849	2.798700E+01	  0.061692849	2.901700E+01
266	  0.061888654	-7.177000E+00	  0.061888654	1.065780E+02	  0.061888654	2.804700E+01	  0.061888654	2.910200E+01
267	  0.062084462	-7.175000E+00	  0.062084462	1.063760E+02	  0.062084462	2.809900E+01	  0.062084462	2.919600E+01
268	  0.062280271	-7.168000E+00	  0.062280271	1.061580E+02	  0.062280271	2.813900E+01	  0.062280271	2.930800E+01
269	  0.062476076	-7.163000E+00	  0.062476076	1.060420E+02	  0.062476076	2.815800E+01	  0.062476076	2.936900E+01
270	  0.062671877	-7.166000E+00	  0.062671877	1.058280E+02	  0.062671877	2.823000E+01	  0.062671877	2.945900E+01
271	  0.062867686	-7.168000E+00	  0.062867686	1.056230E+02	  0.062867686	2.829400E+01	  0.062867686	2.954800E+01
272	  0.063063495	-7.166000E+00	  0.063063495	1.054170E+02	  0.063063495	2.834800E+01	  0.063063495	2.964400E+01
273	  0.063259304	-7.164000E+00	  0.063259304	1.051720E+02	  0.063259304	2.841600E+01	  0.063259304	2.975700E+01
274	  0.063455105	-7.172000E+00	  0.063455105	1.050060E+02	  0.063455105	2.849000E+01	  0.063455105	2.981600E+01
275	  0.063650914	-7.175000E+00	  0.063650914	1.047470E+02	  0.063650914	2.857500E+01	  0.063650914	2.992700E+01
276	  0.063846722	-7.181000E+00	  0.063846722	1.044960E+02	  0.063846722	2.866800E+01	  0.063846722	3.002800E+01
277	  0.064042524	-7.173000E+00	  0.064042524	1.042560E+02	  0.064042524	2.871700E+01	  0.064042524	3.015200E+01
278	  0.064238332	-7.182000E+00	  0.064238332	1.040800E+02	  0.064238332	2.879600E+01	  0.064238332	3.021400E+01
279	  0.064434141	-7.174000E+00	  0.064434141	1.038070E+02	  0.064434141	2.885600E+01	  0.064434141	3.035300E+01
280	  0.064629942	-7.180000E+00	  0.064629942	1.035200E+02	  0.064629942	2.896200E+01	  0.064629942	3.047100E+01
281	  0.064825751	-7.173000E+00	  0.064825751	1.032870E+02	  0.064825751	2.901300E+01	  0.064825751	3.059000E+01
282	  0.065021552	-7.169000E+00	  0.065021552	1.030740E+02	  0.065021552	2.906600E+01	  0.065021552	3.069600E+01
283	  0.065217361	-7.174000E+00	  0.065217361	1.028240E+02	  0.065217361	2.916100E+01	  0.065217361	3.079800E+01
284	  0.065413170	-7.169000E+00	  0.065413170	1.025930E+02	  0.065413170	2.921800E+01	  0.065413170	3.091300E+01
285	  0.065608978	-7.162000E+00	  0.065608978	1.023900E+02	  0.065608978	2.926000E+01	  0.065608978	3.102100E+01
286	  0.065804780	-7.165000E+00	  0.065804780	1.021440E+02	  0.065804780	2.934800E+01	  0.065804780	3.112600E+01
287	  0.066000588	-7.158000E+00	  0.066000588	1.019300E+02	  0.066000588	2.939600E+01	  0.066000588	3.123800E+01
288	  0.066196397	-7.163000E+00	  0.066196397	1.017160E+02	  0.066196397	2.948000E+01	  0.066196397	3.132500E+01
289	  0.066392198	-7.158000E+00	  0.066392198	1.015360E+02	  0.066392198	2.952200E+01	  0.066392198	3.141800E+01
290	  0.066588007	-7.155000E+00	  0.066588007	1.013230E+02	  0.066588007	2.958300E+01	  0.066588007	3.152100E+01
291	  0.066783816	-7.153000E+00	  0.066783816	1.011260E+02	  0.066783816	2.963900E+01	  0.066783816	3.161700E+01
292	  0.066979617	-7.150000E+00	  0.066979617	1.008960E+02	  0.066979617	2.970700E+01	  0.066979617	3.172800E+01
293	  0.067175426	-7.153000E+00	  0.067175426	1.006740E+02	  0.067175426	2.978900E+01	  0.067175426	3.182300E+01
294	  0.067371234	-7.151000E+00	  0.067371234	1.004590E+02	  0.067371234	2.985500E+01	  0.067371234	3.192500E+01
295	  0.067567036	-7.149000E+00	  0.067567036	1.002600E+02	  0.067567036	2.991500E+01	  0.067567036	3.202100E+01
296	  0.067762844	-7.150000E+00	  0.067762844	1.000210E+02	  0.067762844	2.999900E+01	  0.067762844	3.212900E+01
297	  0.067958646	-7.149000E+00	  0.067958646	9.976400E+01	  0.067958646	3.008200E+01	  0.067958646	3.224900E+01
298	  0.068154462	-7.144000E+00	  0.068154462	9.958900E+01	  0.068154462	3.012600E+01	  0.068154462	3.234100E+01
299	  0.068350263	-7.151000E+00	  0.068350263	9.932100E+01	  0.068350263	3.024000E+01	  0.068350263	3.244800E+01
300	  0.068546072	-7.141000E+00	  0.068546072	9.910500E+01	  0.068546072	3.028200E+01	  0.068546072	3.257200E+01
301	  0.068741873	-7.142000E+00	  0.068741873	9.892600E+01	  0.068741873	3.034700E+01	  0.068741873	3.265200E+01
302	  0.068937682	-7.140000E+00	  0.068937682	9.870400E+01	  0.068937682	3.041900E+01	  0.068937682	3.275800E+01
303	  0.069133483	-7.137000E+00	  0.069133483	9.850600E+01	  0.069133483	3.047800E+01	  0.069133483	3.285800E+01
304	  0.069329299	-7.136000E+00	  0.069329299	9.828500E+01	  0.069329299	3.055100E+01	  0.069329299	3.296200E+01
305	  0.069525100	-7.128000E+00	  0.069525100	9.810000E+01	  0.069525100	3.059200E+01	  0.069525100	3.306700E+01
306	  0.069720909	-7.137000E+00	  0.069720909	9.788800E+01	  0.069720909	3.069700E+01	  0.069720909	3.314300E+01
307	  0.069916710	-7.134000E+00	  0.069916710	9.772700E+01	  0.069916710	3.074400E+01	  0.069916710	3.322400E+01
308	  0.070112519	-7.137000E+00	  0.070112519	9.749300E+01	  0.070112519	3.083500E+01	  0.070112519	3.332700E+01
309	  0.070308320	-7.132000E+00	  0.070308320	9.731300E+01	  0.070308320	3.088600E+01	  0.070308320	3.342200E+01
310	  0.070504129	-7.139000E+00	  0.070504129	9.711700E+01	  0.070504129	3.097700E+01	  0.070504129	3.349700E+01
311	  0.070699938	-7.143000E+00	  0.070699938	9.692400E+01	  0.070699938	3.105900E+01	  0.070699938	3.357800E+01
312	  0.070895746	-7.136000E+00	  0.070895746	9.666900E+01	  0.070895746	3.113300E+01	  0.070895746	3.371100E+01
313	  0.071091555	-7.147000E+00	  0.071091555	9.648100E+01	  0.071091555	3.123400E+01	  0.071091555	3.377400E+01
314	  0.071287356	-7.153000E+00	  0.071287356	9.624200E+01	  0.071287356	3.134200E+01	  0.071287356	3.386900E+01
315	  0.071483165	-7.150000E+00	  0.071483165	9.600400E+01	  0.071483165	3.142100E+01	  0.071483165	3.398800E+01
316	  0.071678966	-7.149000E+00	  0.071678966	9.576800E+01	  0.071678966	3.150600E+01	  0.071678966	3.409900E+01
317	  0.071874775	-7.151000E+00	  0.071874775	9.554100E+01	  0.071874775	3.159600E+01	  0.071874775	3.420200E+01
318	  0.072070576	-7.151000E+00	  0.072070576	9.528400E+01	  0.072070576	3.169500E+01	  0.072070576	3.432100E+01
319	  0.072266392	-7.155000E+00	  0.072266392	9.506200E+01	  0.072266392	3.179300E+01	  0.072266392	3.441300E+01
320	  0.072462194	-7.152000E+00	  0.072462194	9.487400E+01	  0.072462194	3.185400E+01	  0.072462194	3.451000E+01
321	  0.072658002	-7.149000E+00	  0.072658002	9.464000E+01	  0.072658002	3.193600E+01	  0.072658002	3.462600E+01
322	  0.072853811	-7.153000E+00	  0.072853811	9.437100E+01	  0.072853811	3.205200E+01	  0.072853811	3.474200E+01
323	  0.073049612	-7.153000E+00	  0.073049612	9.418800E+01	  0.073049612	3.212300E+01	  0.073049612	3.482800E+01
324	  0.073245421	-7.149000E+00	  0.073245421	9.395300E+01	  0.073245421	3.220300E+01	  0.073245421	3.494700E+01
325	  0.073441222	-7.147000E+00	  0.073441222	9.379900E+01	  0.073441222	3.225700E+01	  0.073441222	3.502500E+01
326	  0.073637031	-7.151000E+00	  0.073637031	9.353400E+01	  0.073637031	3.237600E+01	  0.073637031	3.513800E+01
327	  0.073832840	-7.147000E+00	  0.073832840	9.330900E+01	  0.073832840	3.245000E+01	  0.073832840	3.525600E+01
328	  0.074028648	-7.145000E+00	  0.074028648	9.309100E+01	  0.074028648	3.253300E+01	  0.074028648	3.536300E+01
329	  0.074224450	-7.139000E+00	  0.074224450	9.291200E+01	  0.074224450	3.258500E+01	  0.074224450	3.546400E+01
330	  0.074420258	-7.150000E+00	  0.074420258	9.264800E+01	  0.074420258	3.272800E+01	  0.074420258	3.555700E+01
331	  0.074616060	-7.152000E+00	  0.074616060	9.244600E+01	  0.074616060	3.281600E+01	  0.074616060	3.564800E+01
332	  0.074811868	-7.153000E+00	  0.074811868	9.217600E+01	  0.074811868	3.292800E+01	  0.074811868	3.577300E+01
333	  0.075007670	-7.156000E+00	  0.075007670	9.200300E+01	  0.075007670	3.300900E+01	  0.075007670	3.584600E+01
334	  0.075203478	-7.151000E+00	  0.075203478	9.175800E+01	  0.075203478	3.309500E+01	  0.075203478	3.597500E+01
335	  0.075399294	-7.157000E+00	  0.075399294	9.155900E+01	  0.075399294	3.319900E+01	  0.075399294	3.605000E+01
336	  0.075595096	-7.157000E+00	  0.075595096	9.127000E+01	  0.075595096	3.331900E+01	  0.075595096	3.618700E+01
337	  0.075790904	-7.152000E+00	  0.075790904	9.107300E+01	  0.075790904	3.338700E+01	  0.075790904	3.629400E+01
338	  0.075986706	-7.157000E+00	  0.075986706	9.085200E+01	  0.075986706	3.349600E+01	  0.075986706	3.638400E+01
339	  0.076182514	-7.155000E+00	  0.076182514	9.065200E+01	  0.076182514	3.357600E+01	  0.076182514	3.648300E+01
340	  0.076378316	-7.156000E+00	  0.076378316	9.037500E+01	  0.076378316	3.369800E+01	  0.076378316	3.661200E+01
341	  0.076574124	-7.152000E+00	  0.076574124	9.019900E+01	  0.076574124	3.376100E+01	  0.076574124	3.670600E+01
342	  0.076769926	-7.155000E+00	  0.076769926	8.999500E+01	  0.076769926	3.385800E+01	  0.076769926	3.679400E+01
343	  0.076965742	-7.147000E+00	  0.076965742	8.980400E+01	  0.076965742	3.391600E+01	  0.076965742	3.690800E+01
344	  0.077161543	-7.148000E+00	  0.077161543	8.955300E+01	  0.077161543	3.403000E+01	  0.077161543	3.702400E+01
345	  0.077357352	-7.155000E+00	  0.077357352	8.930200E+01	  0.077357352	3.416100E+01	  0.077357352	3.712300E+01
346	  0.077553153	-7.150000E+00	  0.077553153	8.914200E+01	  0.077553153	3.421900E+01	  0.077553153	3.721200E+01
347	  0.077748962	-7.153000E+00	  0.077748962	8.894200E+01	  0.077748962	3.431600E+01	  0.077748962	3.729800E+01
348	  0.077944770	-7.159000E+00	  0.077944770	8.872600E+01	  0.077944770	3.443200E+01	  0.077944770	3.738400E+01
349	  0.078140572	-7.165000E+00	  0.078140572	8.847700E+01	  0.078140572	3.456400E+01	  0.078140572	3.748200E+01
350	  0.078336388	-7.168000E+00	  0.078336388	8.821700E+01	  0.078336388	3.469000E+01	  0.078336388	3.759700E+01
351	  0.078532189	-7.171000E+00	  0.078532189	8.793800E+01	  0.078532189	3.482600E+01	  0.078532189	3.772100E+01
352	  0.078727998	-7.177000E+00	  0.078727998	8.774300E+01	  0.078727998	3.493500E+01	  0.078727998	3.779400E+01
353	  0.078923799	-7.173000E+00	  0.078923799	8.744500E+01	  0.078923799	3.506100E+01	  0.078923799	3.794600E+01
354	  0.079119608	-7.181000E+00	  0.079119608	8.718000E+01	  0.079119608	3.520900E+01	  0.079119608	3.804800E+01
355	  0.079315409	-7.186000E+00	  0.079315409	8.692900E+01	  0.079315409	3.534200E+01	  0.079315409	3.815200E+01
356	  0.079511218	-7.190000E+00	  0.079511218	8.670000E+01	  0.079511218	3.546200E+01	  0.079511218	3.824800E+01
357	  0.079707019	-7.186000E+00	  0.079707019	8.640800E+01	  0.079707019	3.558900E+01	  0.079707019	3.839700E+01
358	  0.079902835	-7.189000E+00	  0.079902835	8.616100E+01	  0.079902835	3.571700E+01	  0.079902835	3.850400E+01
359	  0.080098644	-7.188000E+00	  0.080098644	8.587100E+01	  0.080098644	3.585200E+01	  0.080098644	3.864600E+01
360	  0.080294445	-7.184000E+00	  0.080294445	8.565900E+01	  0.080294445	3.594200E+01	  0.080294445	3.875900E+01
361	  0.080490254	-7.176000E+00	  0.080490254	8.542100E+01	  0.080490254	3.603600E+01	  0.080490254	3.889500E+01
362	  0.080686055	-7.177000E+00	  0.080686055	8.514100E+01	  0.080686055	3.617600E+01	  0.080686055	3.902400E+01
363	  0.080881864	-7.170000E+00	  0.080881864	8.492800E+01	  0.080881864	3.625800E+01	  0.080881864	3.915000E+01
364	  0.081077665	-7.166000E+00	  0.081077665	8.466200E+01	  0.081077665	3.638000E+01	  0.081077665	3.928800E+01
365	  0.081273474	-7.171000E+00	  0.081273474	8.442800E+01	  0.081273474	3.651200E+01	  0.081273474	3.938200E+01
366	  0.081469283	-7.166000E+00	  0.081469283	8.415100E+01	  0.081469283	3.663600E+01	  0.081469283	3.953100E+01
367	  0.081665091	-7.165000E+00	  0.081665091	8.397600E+01	  0.081665091	3.672000E+01	  0.081665091	3.961800E+01
368	  0.081860892	-7.159000E+00	  0.081860892	8.372600E+01	  0.081860892	3.683100E+01	  0.081860892	3.975500E+01
369	  0.082056701	-7.163000E+00	  0.082056701	8.345100E+01	  0.082056701	3.698200E+01	  0.082056701	3.987500E+01
370	  0.082252502	-7.157000E+00	  0.082252502	8.321700E+01	  0.082252502	3.708500E+01	  0.082252502	4.000600E+01
371	  0.082448311	-7.159000E+00	  0.082448311	8.297000E+01	  0.082448311	3.721900E+01	  0.082448311	4.011600E+01
372	  0.082644112	-7.153000E+00	  0.082644112	8.274100E+01	  0.082644112	3.732000E+01	  0.082644112	4.024600E+01
373	  0.082839929	-7.151000E+00	  0.082839929	8.254800E+01	  0.082839929	3.741500E+01	  0.082839929	4.034600E+01
374	  0.083035737	-7.151000E+00	  0.083035737	8.225900E+01	  0.083035737	3.756700E+01	  0.083035737	4.048400E+01
375	  0.083231539	-7.144000E+00	  0.083231539	8.207100E+01	  0.083231539	3.764700E+01	  0.083231539	4.059600E+01
376	  0.083427347	-7.147000E+00	  0.083427347	8.180600E+01	  0.083427347	3.779900E+01	  0.083427347	4.071100E+01
377	  0.083623149	-7.141000E+00	  0.083623149	8.159900E+01	  0.083623149	3.788900E+01	  0.083623149	4.083300E+01
378	  0.083818957	-7.137000E+00	  0.083818957	8.139000E+01	  0.083818957	3.799300E+01	  0.083818957	4.094400E+01
379	  0.084014758	-7.132000E+00	  0.084014758	8.116600E+01	  0.084014758	3.809700E+01	  0.084014758	4.107100E+01
380	  0.084210567	-7.127000E+00	  0.084210567	8.094000E+01	  0.084210567	3.820600E+01	  0.084210567	4.119500E+01
381	  0.084406376	-7.126000E+00	  0.084406376	8.076000E+01	  0.084406376	3.830100E+01	  0.084406376	4.128600E+01
382	  0.084602185	-7.124000E+00	  0.084602185	8.057900E+01	  0.084602185	3.839600E+01	  0.084602185	4.138000E+01
383	  0.084797986	-7.125000E+00	  0.084797986	8.032500E+01	  0.084797986	3.853800E+01	  0.084797986	4.149900E+01
384	  0.084993795	-7.128000E+00	  0.084993795	8.010600E+01	  0.084993795	3.867100E+01	  0.084993795	4.159100E+01
385	  0.085189603	-7.122000E+00	  0.085189603	7.990900E+01	  0.085189603	3.876500E+01	  0.085189603	4.170600E+01
386	  0.085385405	-7.127000E+00	  0.085385405	7.969400E+01	  0.085385405	3.890100E+01	  0.085385405	4.179100E+01
387	  0.085581213	-7.129000E+00	  0.085581213	7.947600E+01	  0.085581213	3.903100E+01	  0.085581213	4.188800E+01
388	  0.085777014	-7.131000E+00	  0.085777014	7.925500E+01	  0.085777014	3.916400E+01	  0.085777014	4.198600E+01
389	  0.085972831	-7.132000E+00	  0.085972831	7.904100E+01	  0.085972831	3.929000E+01	  0.085972831	4.208400E+01
390	  0.086168632	-7.137000E+00	  0.086168632	7.881600E+01	  0.086168632	3.943700E+01	  0.086168632	4.217100E+01
391	  0.086364441	-7.141000E+00	  0.086364441	7.859100E+01	  0.086364441	3.957900E+01	  0.086364441	4.226500E+01
392	  0.086560242	-7.140000E+00	  0.086560242	7.829200E+01	  0.086560242	3.975200E+01	  0.086560242	4.240900E+01
393	  0.086756051	-7.136000E+00	  0.086756051	7.806500E+01	  0.086756051	3.987300E+01	  0.086756051	4.253300E+01
394	  0.086951852	-7.136000E+00	  0.086951852	7.783400E+01	  0.086951852	4.001200E+01	  0.086951852	4.264000E+01
395	  0.087147661	-7.139000E+00	  0.087147661	7.758800E+01	  0.087147661	4.016700E+01	  0.087147661	4.274700E+01
396	  0.087343477	-7.131000E+00	  0.087343477	7.733200E+01	  0.087343477	4.029600E+01	  0.087343477	4.290000E+01
397	  0.087539278	-7.128000E+00	  0.087539278	7.710400E+01	  0.087539278	4.042400E+01	  0.087539278	4.302000E+01
398	  0.087735087	-7.127000E+00	  0.087735087	7.687000E+01	  0.087735087	4.056300E+01	  0.087735087	4.313600E+01
399	  0.087930888	-7.124000E+00	  0.087930888	7.666600E+01	  0.087930888	4.068000E+01	  0.087930888	4.324300E+01
400	  0.088126697	-7.118000E+00	  0.088126697	7.635800E+01	  0.088126697	4.085000E+01	  0.088126697	4.341400E+01
401	  0.088322498	-7.116000E+00	  0.088322498	7.619000E+01	  0.088322498	4.095000E+01	  0.088322498	4.350000E+01
402	  0.088518307	-7.119000E+00	  0.088518307	7.594600E+01	  0.088518307	4.111200E+01	  0.088518307	4.360300E+01
403	  0.088714108	-7.112000E+00	  0.088714108	7.570000E+01	  0.088714108	4.124400E+01	  0.088714108	4.374900E+01
404	  0.088909924	-7.114000E+00	  0.088909924	7.544800E+01	  0.088909924	4.140800E+01	  0.088909924	4.386300E+01
405	  0.089105725	-7.106000E+00	  0.089105725	7.523600E+01	  0.089105725	4.151900E+01	  0.089105725	4.399400E+01
406	  0.089301534	-7.110000E+00	  0.089301534	7.498500E+01	  0.089301534	4.169200E+01	  0.089301534	4.409700E+01
407	  0.089497335	-7.101000E+00	  0.089497335	7.478500E+01	  0.089497335	4.179200E+01	  0.089497335	4.423000E+01
408	  0.089693144	-7.107000E+00	  0.089693144	7.455300E+01	  0.089693144	4.196100E+01	  0.089693144	4.431300E+01
409	  0.089888945	-7.105000E+00	  0.089888945	7.426800E+01	  0.089888945	4.213900E+01	  0.089888945	4.445800E+01
410	  0.090084754	-7.101000E+00	  0.090084754	7.404100E+01	  0.090084754	4.227800E+01	  0.090084754	4.458000E+01
411	  0.090280563	-7.096000E+00	  0.090280563	7.383100E+01	  0.090280563	4.239900E+01	  0.090280563	4.470400E+01
412	  0.090476371	-7.092000E+00	  0.090476371	7.358200E+01	  0.090476371	4.255100E+01	  0.090476371	4.483800E+01
413	  0.090672180	-7.089000E+00	  0.090672180	7.338800E+01	  0.090672180	4.267200E+01	  0.090672180	4.494200E+01
414	  0.090867981	-7.082000E+00	  0.090867981	7.314200E+01	  0.090867981	4.281600E+01	  0.090867981	4.508800E+01
415	  0.091063790	-7.077000E+00	  0.091063790	7.294700E+01	  0.091063790	4.293300E+01	  0.091063790	4.520200E+01
416	  0.091259591	-7.070000E+00	  0.091259591	7.271800E+01	  0.091259591	4.306700E+01	  0.091259591	4.534000E+01
417	  0.091455400	-7.068000E+00	  0.091455400	7.253200E+01	  0.091455400	4.318700E+01	  0.091455400	4.543800E+01
418	  0.091651201	-7.062000E+00	  0.091651201	7.231600E+01	  0.091651201	4.331800E+01	  0.091651201	4.556500E+01
419	  0.091847017	-7.062000E+00	  0.091847017	7.211100E+01	  0.091847017	4.345800E+01	  0.091847017	4.566500E+01
420	  0.092042819	-7.054000E+00	  0.092042819	7.190900E+01	  0.092042819	4.357400E+01	  0.092042819	4.579500E+01
421	  0.092238627	-7.055000E+00	  0.092238627	7.172300E+01	  0.092238627	4.370600E+01	  0.092238627	4.588000E+01
422	  0.092434436	-7.055000E+00	  0.092434436	7.156200E+01	  0.092434436	4.382100E+01	  0.092434436	4.595200E+01
423	  0.092630237	-7.049000E+00	  0.092630237	7.133400E+01	  0.092630237	4.396300E+01	  0.092630237	4.608700E+01
424	  0.092826046	-7.050000E+00	  0.092826046	7.114900E+01	  0.092826046	4.409700E+01	  0.092826046	4.617000E+01
425	  0.093021847	-7.050000E+00	  0.093021847	7.094900E+01	  0.093021847	4.423800E+01	  0.093021847	4.626700E+01
426	  0.093217656	-7.054000E+00	  0.093217656	7.073600E+01	  0.093217656	4.440300E+01	  0.093217656	4.634600E+01
427	  0.093413465	-7.056000E+00	  0.093413465	7.052600E+01	  0.093413465	4.456200E+01	  0.093413465	4.643300E+01
428	  0.093609273	-7.053000E+00	  0.093609273	7.034800E+01	  0.093609273	4.467900E+01	  0.093609273	4.653300E+01
429	  0.093805075	-7.053000E+00	  0.093805075	7.009400E+01	  0.093805075	4.486600E+01	  0.093805075	4.664800E+01
430	  0.094000883	-7.054000E+00	  0.094000883	6.989300E+01	  0.094000883	4.501600E+01	  0.094000883	4.673900E+01
431	  0.094196685	-7.054000E+00	  0.094196685	6.967000E+01	  0.094196685	4.517900E+01	  0.094196685	4.684300E+01
432	  0.094392493	-7.048000E+00	  0.094392493	6.946400E+01	  0.094392493	4.531400E+01	  0.094392493	4.696600E+01
433	  0.094588295	-7.046000E+00	  0.094588295	6.920900E+01	  0.094588295	4.549900E+01	  0.094588295	4.709400E+01
434	  0.094784103	-7.050000E+00	  0.094784103	6.903300E+01	  0.094784103	4.564100E+01	  0.094784103	4.715700E+01
435	  0.094979919	-7.046000E+00	  0.094979919	6.885100E+01	  0.094979919	4.576700E+01	  0.094979919	4.726000E+01
436	  0.095175721	-7.043000E+00	  0.095175721	6.860600E+01	  0.095175721	4.594600E+01	  0.095175721	4.738500E+01
437	  0.095371529	-7.037000E+00	  0.095371529	6.843100E+01	  0.095371529	4.605900E+01	  0.095371529	4.749800E+01
438	  0.095567331	-7.043000E+00	  0.095567331	6.820300E+01	  0.095567331	4.625200E+01	  0.095567331	4.757100E+01
439	  0.095763139	-7.043000E+00	  0.095763139	6.796200E+01	  0.095763139	4.643700E+01	  0.095763139	4.768400E+01
440	  0.095958941	-7.040000E+00	  0.095958941	6.775000E+01	  0.095958941	4.659200E+01	  0.095958941	4.779500E+01
441	  0.096154749	-7.042000E+00	  0.096154749	6.757000E+01	  0.096154749	4.674000E+01	  0.096154749	4.786600E+01
442	  0.096350558	-7.035000E+00	  0.096350558	6.736000E+01	  0.096350558	4.688400E+01	  0.096350558	4.799500E+01
443	  0.096546367	-7.040000E+00	  0.096546367	6.714800E+01	  0.096546367	4.706400E+01	  0.096546367	4.806900E+01
444	  0.096742168	-7.036000E+00	  0.096742168	6.692700E+01	  0.096742168	4.722900E+01	  0.096742168	4.818700E+01
445	  0.096937977	-7.039000E+00	  0.096937977	6.669400E+01	  0.096937977	4.742400E+01	  0.096937977	4.827500E+01
446	  0.097133778	-7.039000E+00	  0.097133778	6.649400E+01	  0.097133778	4.758300E+01	  0.097133778	4.836800E+01
447	  0.097329587	-7.028000E+00	  0.097329587	6.626000E+01	  0.097329587	4.773900E+01	  0.097329587	4.853100E+01
448	  0.097525395	-7.029000E+00	  0.097525395	6.606600E+01	  0.097525395	4.790000E+01	  0.097525395	4.861200E+01
449	  0.097721197	-7.022000E+00	  0.097721197	6.582300E+01	  0.097721197	4.807800E+01	  0.097721197	4.875800E+01
450	  0.097917013	-7.017000E+00	  0.097917013	6.563500E+01	  0.097917013	4.821700E+01	  0.097917013	4.887100E+01
451	  0.098112814	-7.021000E+00	  0.098112814	6.544400E+01	  0.098112814	4.838500E+01	  0.098112814	4.893600E+01
452	  0.098308623	-7.016000E+00	  0.098308623	6.522200E+01	  0.098308623	4.855400E+01	  0.098308623	4.906200E+01
453	  0.098504424	-7.016000E+00	  0.098504424	6.503000E+01	  0.098504424	4.871500E+01	  0.098504424	4.914500E+01
454	  0.098700233	-7.009000E+00	  0.098700233	6.481000E+01	  0.098700233	4.888000E+01	  0.098700233	4.928000E+01
455	  0.098896034	-7.009000E+00	  0.098896034	6.463300E+01	  0.098896034	4.902900E+01	  0.098896034	4.935900E+01
456	  0.099091843	-7.011000E+00	  0.099091843	6.445800E+01	  0.099091843	4.918000E+01	  0.099091843	4.942900E+01
457	  0.099287644	-7.006000E+00	  0.099287644	6.425200E+01	  0.099287644	4.934200E+01	  0.099287644	4.954800E+01
458	  0.099483460	-7.001000E+00	  0.099483460	6.406000E+01	  0.099483460	4.949300E+01	  0.099483460	4.965700E+01
459	  0.099679269	-7.003000E+00	  0.099679269	6.385600E+01	  0.099679269	4.967500E+01	  0.099679269	4.973400E+01
460	  0.099875070	-7.007000E+00	  0.099875070	6.364400E+01	  0.099875070	4.986900E+01	  0.099875070	4.980500E+01
461	  0.100070879	-7.006000E+00	  0.100070879	6.347300E+01	  0.100070879	5.001500E+01	  0.100070879	4.988500E+01
462	  0.100266680	-7.003000E+00	  0.100266680	6.330800E+01	  0.100266680	5.014900E+01	  0.100266680	4.997600E+01
463	  0.100462489	-7.006000E+00	  0.100462489	6.313000E+01	  0.100462489	5.031600E+01	  0.100462489	5.003200E+01
464	  0.100658290	-7.011000E+00	  0.100658290	6.291400E+01	  0.100658290	5.051800E+01	  0.100658290	5.010000E+01
465	  0.100854106	-7.002000E+00	  0.100854106	6.275800E+01	  0.100854106	5.063200E+01	  0.100854106	5.021700E+01
466	  0.101049908	-7.011000E+00	  0.101049908	6.257200E+01	  0.101049908	5.082200E+01	  0.101049908	5.024600E+01
467	  0.101245716	-7.007000E+00	  0.101245716	6.237200E+01	  0.101245716	5.099100E+01	  0.101245716	5.035100E+01
468	  0.101441517	-7.017000E+00	  0.101441517	6.217500E+01	  0.101441517	5.119400E+01	  0.101441517	5.037900E+01
469	  0.101637326	-7.016000E+00	  0.101637326	6.194200E+01	  0.101637326	5.140100E+01	  0.101637326	5.048400E+01
470	  0.101833127	-7.022000E+00	  0.101833127	6.173000E+01	  0.101833127	5.161000E+01	  0.101833127	5.053600E+01
471	  0.102028936	-7.021000E+00	  0.102028936	6.157500E+01	  0.102028936	5.174900E+01	  0.102028936	5.060600E+01
472	  0.102224737	-7.025000E+00	  0.102224737	6.136700E+01	  0.102224737	5.195300E+01	  0.102224737	5.066400E+01
473	  0.102420554	-7.028000E+00	  0.102420554	6.114500E+01	  0.102420554	5.216400E+01	  0.102420554	5.074100E+01
474	  0.102616362	-7.027000E+00	  0.102616362	6.089900E+01	  0.102616362	5.238900E+01	  0.102616362	5.084800E+01
475	  0.102812164	-7.025000E+00	  0.102812164	6.074100E+01	  0.102812164	5.253100E+01	  0.102812164	5.092400E+01
476	  0.103007972	-7.030000E+00	  0.103007972	6.050200E+01	  0.103007972	5.276900E+01	  0.103007972	5.098900E+01
477	  0.103203773	-7.033000E+00	  0.103203773	6.032500E+01	  0.103203773	5.294500E+01	  0.103203773	5.104000E+01
478	  0.103399582	-7.031000E+00	  0.103399582	6.006700E+01	  0.103399582	5.318100E+01	  0.103399582	5.116200E+01
479	  0.103595383	-7.045000E+00	  0.103595383	5.987200E+01	  0.103595383	5.340300E+01	  0.103595383	5.114900E+01
480	  0.103791192	-7.049000E+00	  0.103791192	5.962900E+01	  0.103791192	5.364700E+01	  0.103791192	5.122100E+01
481	  0.103987001	-7.045000E+00	  0.103987001	5.940600E+01	  0.103987001	5.385200E+01	  0.103987001	5.133100E+01
482	  0.104182810	-7.049000E+00	  0.104182810	5.915900E+01	  0.104182810	5.410100E+01	  0.104182810	5.140000E+01
483	  0.104378611	-7.045000E+00	  0.104378611	5.895300E+01	  0.104378611	5.429200E+01	  0.104378611	5.150400E+01
484	  0.104574420	-7.045000E+00	  0.104574420	5.869000E+01	  0.104574420	5.455000E+01	  0.104574420	5.160600E+01
485	  0.104770228	-7.045000E+00	  0.104770228	5.849900E+01	  0.104770228	5.473700E+01	  0.104770228	5.167900E+01
486	  0.104966030	-7.049000E+00	  0.104966030	5.824000E+01	  0.104966030	5.500400E+01	  0.104966030	5.175000E+01
487	  0.105161838	-7.050000E+00	  0.105161838	5.802800E+01	  0.105161838	5.521600E+01	  0.105161838	5.182600E+01
488	  0.105357639	-7.053000E+00	  0.105357639	5.776800E+01	  0.105357639	5.548500E+01	  0.105357639	5.190100E+01
489	  0.105553456	-7.042000E+00	  0.105553456	5.752700E+01	  0.105553456	5.570100E+01	  0.105553456	5.206300E+01
490	  0.105749257	-7.050000E+00	  0.105749257	5.735800E+01	  0.105749257	5.589100E+01	  0.105749257	5.207500E+01
491	  0.105945066	-7.046000E+00	  0.105945066	5.710600E+01	  0.105945066	5.613900E+01	  0.105945066	5.219200E+01
492	  0.106140867	-7.046000E+00	  0.106140867	5.683400E+01	  0.106140867	5.641800E+01	  0.106140867	5.228800E+01
493	  0.106336676	-7.043000E+00	  0.106336676	5.667100E+01	  0.106336676	5.658000E+01	  0.106336676	5.236400E+01
494	  0.106532477	-7.041000E+00	  0.106532477	5.643800E+01	  0.106532477	5.681700E+01	  0.106532477	5.246100E+01
495	  0.106728286	-7.042000E+00	  0.106728286	5.623200E+01	  0.106728286	5.703400E+01	  0.106728286	5.252700E+01
496	  0.106924094	-7.050000E+00	  0.106924094	5.601000E+01	  0.106924094	5.728500E+01	  0.106924094	5.255100E+01
497	  0.107119903	-7.045000E+00	  0.107119903	5.579500E+01	  0.107119903	5.750100E+01	  0.107119903	5.265900E+01
498	  0.107315712	-7.051000E+00	  0.107315712	5.558100E+01	  0.107315712	5.774100E+01	  0.107315712	5.269000E+01
499	  0.107511513	-7.037000E+00	  0.107511513	5.540700E+01	  0.107511513	5.789400E+01	  0.107511513	5.284700E+01
500	  0.107707322	-7.041000E+00	  0.107707322	5.515000E+01	  0.107707322	5.817700E+01	  0.107707322	5.290800E+01
501	  0.107903123	-7.038000E+00	  0.107903123	5.497000E+01	  0.107903123	5.836500E+01	  0.107903123	5.298900E+01
