! Anritsu VNA Master:             	Model: MS2036C/10/77
! SN:             	1601066
! /card0/usr/255.ew.n_1.txt
! Existing Calibration Information:
! TYPE:             	Current Settings	Active Cal Settings
! TIME:             	12/17/2017 06:49:15 PM	12/17/2017 06:38:14 PM
! INTERNAL TEMP:    	43.3 C	43.8 C
! # POINTS:         	501	501
! START FREQ:       	10.000 MHz	10.000 MHz
! STOP FREQ:        	107.903 125 MHz	107.903 125 MHz
! SOURCE POWER:     	High	High
! IFBW:             	100 Hz	100 Hz
! AVG FACTOR:       	  1 	  1 
! REF PLANE 1:      	0 mm	0 mm
! REF PLANE 2:      	0 mm	0 mm
! CAL TYPE:         	Full S11	Full S11
! CAL METHOD:       	SOLT	SOLT
! CAL LINE TYPE:    	Coax	Coax
! DUT PORT 1:       	N-Conn(F)	N-Conn(F)
! DUT PORT 2:       	K-Conn(F)	K-Conn(F)
! CAL STATUS:       	OK: Accuracy High	--
! PROP-V:       	0.700
! CABLE LOSS:       	0.000 dB/m
! REF IMPEDANCE:       	50.0
! Trace Specific Parameters:	TR1	TR2	TR3	TR4
! TRACE.#.Y (GRAPH TYPE)	LOG MAG	PHASE	REAL IMPEDANCE	IMAGINARY IMPEDANCE
! TRACE.#.X 	FREQ.GHZ	FREQ.GHZ	FREQ.GHZ	FREQ.GHZ
! S-PARAMETER	S11	S11	S11	S11
! SMOOTH/APERTURE %	0	0	0	0
! WINDOW	NSL	NSL	NSL	NSL
! GATING	OFF	OFF	OFF	OFF
! FGTD	OFF	OFF	OFF	OFF
Marker Information per Trace:	TR1	TR2	TR3	TR4
!MK1	--	--	--	--
!MK2	--	--	--	--
!MK3	--	--	--	--
!MK4	--	--	--	--
!MK5	--	--	--	--
!MK6	--	--	--	--
!MK7	--	--	--	--
!MK8	--	--	--	--
PNT	TR1.FREQ.GHZ	TR1.LOG MAG.dB	TR2.FREQ.GHZ	TR2.PHASE.deg	TR3.FREQ.GHZ	TR3.REAL IMPEDANCE.ohm	TR4.FREQ.GHZ	TR4.IMAGINARY IMPEDANCE.ohm
1	  0.010000000	-6.740000E-01	  0.010000000	-5.955100E+01	  0.010000000	7.826000E+00	  0.010000000	-8.685900E+01
2	  0.010195807	-6.650000E-01	  0.010195807	-6.070700E+01	  0.010195807	7.466000E+00	  0.010195807	-8.489200E+01
3	  0.010391613	-6.700000E-01	  0.010391613	-6.192600E+01	  0.010391613	7.262000E+00	  0.010391613	-8.286700E+01
4	  0.010587418	-6.800000E-01	  0.010587418	-6.317500E+01	  0.010587418	7.108000E+00	  0.010587418	-8.085900E+01
5	  0.010783225	-6.850000E-01	  0.010783225	-6.445200E+01	  0.010783225	6.905000E+00	  0.010783225	-7.888500E+01
6	  0.010979031	-6.920000E-01	  0.010979031	-6.568100E+01	  0.010979031	6.743000E+00	  0.010979031	-7.704700E+01
7	  0.011174837	-6.990000E-01	  0.011174837	-6.691600E+01	  0.011174837	6.593000E+00	  0.011174837	-7.526000E+01
8	  0.011370643	-7.000000E-01	  0.011370643	-6.819000E+01	  0.011370643	6.387000E+00	  0.011370643	-7.348300E+01
9	  0.011566450	-7.100000E-01	  0.011566450	-6.939700E+01	  0.011566450	6.288000E+00	  0.011566450	-7.184000E+01
10	  0.011762256	-7.140000E-01	  0.011762256	-7.064900E+01	  0.011762256	6.129000E+00	  0.011762256	-7.019700E+01
11	  0.011958062	-7.240000E-01	  0.011958062	-7.193600E+01	  0.011958062	6.022000E+00	  0.011958062	-6.855300E+01
12	  0.012153869	-7.300000E-01	  0.012153869	-7.319400E+01	  0.012153869	5.891000E+00	  0.012153869	-6.699800E+01
13	  0.012349674	-7.360000E-01	  0.012349674	-7.449700E+01	  0.012349674	5.761000E+00	  0.012349674	-6.543500E+01
14	  0.012545481	-7.410000E-01	  0.012545481	-7.578000E+01	  0.012545481	5.636000E+00	  0.012545481	-6.394100E+01
15	  0.012741288	-7.450000E-01	  0.012741288	-7.702800E+01	  0.012741288	5.516000E+00	  0.012741288	-6.252900E+01
16	  0.012937094	-7.500000E-01	  0.012937094	-7.833100E+01	  0.012937094	5.399000E+00	  0.012937094	-6.109400E+01
17	  0.013132900	-7.590000E-01	  0.013132900	-7.960300E+01	  0.013132900	5.314000E+00	  0.013132900	-5.972900E+01
18	  0.013328707	-7.620000E-01	  0.013328707	-8.087600E+01	  0.013328707	5.198000E+00	  0.013328707	-5.840200E+01
19	  0.013524513	-7.660000E-01	  0.013524513	-8.215000E+01	  0.013524513	5.097000E+00	  0.013524513	-5.710700E+01
20	  0.013720319	-7.720000E-01	  0.013720319	-8.340400E+01	  0.013720319	5.006000E+00	  0.013720319	-5.586400E+01
21	  0.013916126	-7.790000E-01	  0.013916126	-8.468700E+01	  0.013916126	4.927000E+00	  0.013916126	-5.462200E+01
22	  0.014111931	-7.880000E-01	  0.014111931	-8.596400E+01	  0.014111931	4.869000E+00	  0.014111931	-5.341500E+01
23	  0.014307737	-7.950000E-01	  0.014307737	-8.724400E+01	  0.014307737	4.794000E+00	  0.014307737	-5.223400E+01
24	  0.014503544	-8.080000E-01	  0.014503544	-8.853200E+01	  0.014503544	4.759000E+00	  0.014503544	-5.106900E+01
25	  0.014699350	-8.180000E-01	  0.014699350	-8.981000E+01	  0.014699350	4.713000E+00	  0.014699350	-4.994300E+01
26	  0.014895156	-8.270000E-01	  0.014895156	-9.111400E+01	  0.014895156	4.660000E+00	  0.014895156	-4.881900E+01
27	  0.015090963	-8.350000E-01	  0.015090963	-9.242300E+01	  0.015090963	4.599000E+00	  0.015090963	-4.771600E+01
28	  0.015286769	-8.410000E-01	  0.015286769	-9.369200E+01	  0.015286769	4.536000E+00	  0.015286769	-4.667100E+01
29	  0.015482575	-8.420000E-01	  0.015482575	-9.497300E+01	  0.015482575	4.451000E+00	  0.015482575	-4.564000E+01
30	  0.015678382	-8.470000E-01	  0.015678382	-9.624800E+01	  0.015678382	4.387000E+00	  0.015678382	-4.463200E+01
31	  0.015874187	-8.530000E-01	  0.015874187	-9.753800E+01	  0.015874187	4.334000E+00	  0.015874187	-4.363200E+01
32	  0.016069993	-8.610000E-01	  0.016069993	-9.883400E+01	  0.016069993	4.287000E+00	  0.016069993	-4.264700E+01
33	  0.016265800	-8.660000E-01	  0.016265800	-1.001460E+02	  0.016265800	4.229000E+00	  0.016265800	-4.167000E+01
34	  0.016461605	-8.750000E-01	  0.016461605	-1.014590E+02	  0.016461605	4.191000E+00	  0.016461605	-4.070800E+01
35	  0.016657412	-8.790000E-01	  0.016657412	-1.027950E+02	  0.016657412	4.136000E+00	  0.016657412	-3.975000E+01
36	  0.016853219	-8.850000E-01	  0.016853219	-1.041480E+02	  0.016853219	4.087000E+00	  0.016853219	-3.879800E+01
37	  0.017049024	-8.910000E-01	  0.017049024	-1.054880E+02	  0.017049024	4.038000E+00	  0.017049024	-3.787100E+01
38	  0.017244833	-8.980000E-01	  0.017244833	-1.067930E+02	  0.017244833	4.001000E+00	  0.017244833	-3.698400E+01
39	  0.017440638	-9.080000E-01	  0.017440638	-1.081440E+02	  0.017440638	3.979000E+00	  0.017440638	-3.608000E+01
40	  0.017636444	-9.230000E-01	  0.017636444	-1.094910E+02	  0.017636444	3.974000E+00	  0.017636444	-3.519200E+01
41	  0.017832249	-9.340000E-01	  0.017832249	-1.108300E+02	  0.017832249	3.957000E+00	  0.017832249	-3.432600E+01
42	  0.018028056	-9.450000E-01	  0.018028056	-1.121920E+02	  0.018028056	3.941000E+00	  0.018028056	-3.345800E+01
43	  0.018223861	-9.530000E-01	  0.018223861	-1.135800E+02	  0.018223861	3.910000E+00	  0.018223861	-3.259000E+01
44	  0.018419670	-9.600000E-01	  0.018419670	-1.149630E+02	  0.018419670	3.881000E+00	  0.018419670	-3.173800E+01
45	  0.018615475	-9.680000E-01	  0.018615475	-1.163510E+02	  0.018615475	3.851000E+00	  0.018615475	-3.089700E+01
46	  0.018811282	-9.740000E-01	  0.018811282	-1.177010E+02	  0.018811282	3.820000E+00	  0.018811282	-3.009100E+01
47	  0.019007087	-9.840000E-01	  0.019007087	-1.191320E+02	  0.019007087	3.803000E+00	  0.019007087	-2.924800E+01
48	  0.019202894	-9.940000E-01	  0.019202894	-1.205410E+02	  0.019202894	3.785000E+00	  0.019202894	-2.842900E+01
49	  0.019398699	-1.004000E+00	  0.019398699	-1.219490E+02	  0.019398699	3.774000E+00	  0.019398699	-2.762300E+01
50	  0.019594505	-1.012000E+00	  0.019594505	-1.233780E+02	  0.019594505	3.752000E+00	  0.019594505	-2.681600E+01
51	  0.019790314	-1.018000E+00	  0.019790314	-1.248010E+02	  0.019790314	3.726000E+00	  0.019790314	-2.602400E+01
52	  0.019986119	-1.026000E+00	  0.019986119	-1.262240E+02	  0.019986119	3.705000E+00	  0.019986119	-2.524200E+01
53	  0.020181926	-1.032000E+00	  0.020181926	-1.276300E+02	  0.020181926	3.684000E+00	  0.020181926	-2.447900E+01
54	  0.020377731	-1.040000E+00	  0.020377731	-1.290190E+02	  0.020377731	3.669000E+00	  0.020377731	-2.373300E+01
55	  0.020573538	-1.046000E+00	  0.020573538	-1.304230E+02	  0.020573538	3.648000E+00	  0.020573538	-2.298900E+01
56	  0.020769343	-1.059000E+00	  0.020769343	-1.318800E+02	  0.020769343	3.651000E+00	  0.020769343	-2.222400E+01
57	  0.020965151	-1.073000E+00	  0.020965151	-1.333050E+02	  0.020965151	3.657000E+00	  0.020965151	-2.148500E+01
58	  0.021160956	-1.088000E+00	  0.021160956	-1.347750E+02	  0.021160956	3.669000E+00	  0.021160956	-2.072900E+01
59	  0.021356763	-1.098000E+00	  0.021356763	-1.362360E+02	  0.021356763	3.665000E+00	  0.021356763	-1.998800E+01
60	  0.021552568	-1.109000E+00	  0.021552568	-1.376990E+02	  0.021552568	3.663000E+00	  0.021552568	-1.925300E+01
61	  0.021748375	-1.122000E+00	  0.021748375	-1.391790E+02	  0.021748375	3.670000E+00	  0.021748375	-1.851600E+01
62	  0.021944180	-1.134000E+00	  0.021944180	-1.406540E+02	  0.021944180	3.674000E+00	  0.021944180	-1.779000E+01
63	  0.022139989	-1.149000E+00	  0.022139989	-1.421310E+02	  0.022139989	3.689000E+00	  0.022139989	-1.706800E+01
64	  0.022335794	-1.164000E+00	  0.022335794	-1.436390E+02	  0.022335794	3.705000E+00	  0.022335794	-1.633800E+01
65	  0.022531601	-1.174000E+00	  0.022531601	-1.451660E+02	  0.022531601	3.705000E+00	  0.022531601	-1.560600E+01
66	  0.022727406	-1.184000E+00	  0.022727406	-1.467070E+02	  0.022727406	3.708000E+00	  0.022727406	-1.487300E+01
67	  0.022923212	-1.198000E+00	  0.022923212	-1.482350E+02	  0.022923212	3.720000E+00	  0.022923212	-1.415300E+01
68	  0.023119017	-1.209000E+00	  0.023119017	-1.497750E+02	  0.023119017	3.728000E+00	  0.023119017	-1.343200E+01
69	  0.023314826	-1.218000E+00	  0.023314826	-1.513280E+02	  0.023314826	3.728000E+00	  0.023314826	-1.271100E+01
70	  0.023510631	-1.229000E+00	  0.023510631	-1.528610E+02	  0.023510631	3.737000E+00	  0.023510631	-1.200400E+01
71	  0.023706438	-1.244000E+00	  0.023706438	-1.544180E+02	  0.023706438	3.760000E+00	  0.023706438	-1.129000E+01
72	  0.023902243	-1.260000E+00	  0.023902243	-1.559980E+02	  0.023902243	3.785000E+00	  0.023902243	-1.057000E+01
73	  0.024098050	-1.277000E+00	  0.024098050	-1.575960E+02	  0.024098050	3.812000E+00	  0.024098050	-9.846000E+00
74	  0.024293855	-1.292000E+00	  0.024293855	-1.592180E+02	  0.024293855	3.838000E+00	  0.024293855	-9.116000E+00
75	  0.024489662	-1.309000E+00	  0.024489662	-1.608290E+02	  0.024489662	3.867000E+00	  0.024489662	-8.394000E+00
76	  0.024685470	-1.325000E+00	  0.024685470	-1.624490E+02	  0.024685470	3.896000E+00	  0.024685470	-7.672000E+00
77	  0.024881275	-1.341000E+00	  0.024881275	-1.640670E+02	  0.024881275	3.929000E+00	  0.024881275	-6.954000E+00
78	  0.025077082	-1.359000E+00	  0.025077082	-1.656960E+02	  0.025077082	3.964000E+00	  0.025077082	-6.234000E+00
79	  0.025272887	-1.377000E+00	  0.025272887	-1.673250E+02	  0.025272887	4.005000E+00	  0.025272887	-5.517000E+00
80	  0.025468694	-1.396000E+00	  0.025468694	-1.689670E+02	  0.025468694	4.049000E+00	  0.025468694	-4.797000E+00
81	  0.025664499	-1.417000E+00	  0.025664499	-1.706350E+02	  0.025664499	4.098000E+00	  0.025664499	-4.067000E+00
82	  0.025860308	-1.435000E+00	  0.025860308	-1.722890E+02	  0.025860308	4.141000E+00	  0.025860308	-3.346000E+00
83	  0.026056113	-1.451000E+00	  0.026056113	-1.739570E+02	  0.026056113	4.180000E+00	  0.026056113	-2.620000E+00
84	  0.026251920	-1.468000E+00	  0.026251920	-1.756190E+02	  0.026251920	4.223000E+00	  0.026251920	-1.898000E+00
85	  0.026447725	-1.488000E+00	  0.026447725	-1.772820E+02	  0.026447725	4.275000E+00	  0.026447725	-1.177000E+00
86	  0.026643531	-1.510000E+00	  0.026643531	-1.789570E+02	  0.026643531	4.336000E+00	  0.026643531	-4.510000E-01
87	  0.026839336	-1.533000E+00	  0.026839336	1.793680E+02	  0.026839336	4.402000E+00	  0.026839336	2.730000E-01
88	  0.027035145	-1.556000E+00	  0.027035145	1.776700E+02	  0.027035145	4.468000E+00	  0.027035145	1.008000E+00
89	  0.027230950	-1.580000E+00	  0.027230950	1.759740E+02	  0.027230950	4.541000E+00	  0.027230950	1.742000E+00
90	  0.027426757	-1.601000E+00	  0.027426757	1.742690E+02	  0.027426757	4.606000E+00	  0.027426757	2.481000E+00
91	  0.027622562	-1.628000E+00	  0.027622562	1.725570E+02	  0.027622562	4.692000E+00	  0.027622562	3.223000E+00
92	  0.027818369	-1.656000E+00	  0.027818369	1.708220E+02	  0.027818369	4.783000E+00	  0.027818369	3.976000E+00
93	  0.028014174	-1.688000E+00	  0.028014174	1.690660E+02	  0.028014174	4.887000E+00	  0.028014174	4.739000E+00
94	  0.028209982	-1.717000E+00	  0.028209982	1.673180E+02	  0.028209982	4.988000E+00	  0.028209982	5.501000E+00
95	  0.028405787	-1.749000E+00	  0.028405787	1.655530E+02	  0.028405787	5.098000E+00	  0.028405787	6.272000E+00
96	  0.028601594	-1.781000E+00	  0.028601594	1.637810E+02	  0.028601594	5.211000E+00	  0.028601594	7.048000E+00
97	  0.028797399	-1.811000E+00	  0.028797399	1.620090E+02	  0.028797399	5.324000E+00	  0.028797399	7.827000E+00
98	  0.028993206	-1.837000E+00	  0.028993206	1.602380E+02	  0.028993206	5.428000E+00	  0.028993206	8.609000E+00
99	  0.029189013	-1.871000E+00	  0.029189013	1.584530E+02	  0.029189013	5.556000E+00	  0.029189013	9.400000E+00
100	  0.029384818	-1.906000E+00	  0.029384818	1.566530E+02	  0.029384818	5.694000E+00	  0.029384818	1.020100E+01
101	  0.029580627	-1.941000E+00	  0.029580627	1.548250E+02	  0.029580627	5.839000E+00	  0.029580627	1.101900E+01
102	  0.029776432	-1.980000E+00	  0.029776432	1.529820E+02	  0.029776432	5.997000E+00	  0.029776432	1.184800E+01
103	  0.029972238	-2.019000E+00	  0.029972238	1.510850E+02	  0.029972238	6.167000E+00	  0.029972238	1.270700E+01
104	  0.030168043	-2.058000E+00	  0.030168043	1.492000E+02	  0.030168043	6.339000E+00	  0.030168043	1.356500E+01
105	  0.030363850	-2.096000E+00	  0.030363850	1.472660E+02	  0.030363850	6.516000E+00	  0.030363850	1.445400E+01
106	  0.030559655	-2.135000E+00	  0.030559655	1.453440E+02	  0.030559655	6.702000E+00	  0.030559655	1.534300E+01
107	  0.030755464	-2.173000E+00	  0.030755464	1.434370E+02	  0.030755464	6.892000E+00	  0.030755464	1.623400E+01
108	  0.030951269	-2.215000E+00	  0.030951269	1.415090E+02	  0.030951269	7.101000E+00	  0.030951269	1.714100E+01
109	  0.031147076	-2.250000E+00	  0.031147076	1.395910E+02	  0.031147076	7.297000E+00	  0.031147076	1.805400E+01
110	  0.031342883	-2.290000E+00	  0.031342883	1.376270E+02	  0.031342883	7.520000E+00	  0.031342883	1.899700E+01
111	  0.031538688	-2.334000E+00	  0.031538688	1.356510E+02	  0.031538688	7.766000E+00	  0.031538688	1.995500E+01
112	  0.031734493	-2.369000E+00	  0.031734493	1.336640E+02	  0.031734493	7.992000E+00	  0.031734493	2.093300E+01
113	  0.031930301	-2.405000E+00	  0.031930301	1.317090E+02	  0.031930301	8.229000E+00	  0.031930301	2.190600E+01
114	  0.032126106	-2.442000E+00	  0.032126106	1.297450E+02	  0.032126106	8.483000E+00	  0.032126106	2.289400E+01
115	  0.032321911	-2.472000E+00	  0.032321911	1.278010E+02	  0.032321911	8.724000E+00	  0.032321911	2.388900E+01
116	  0.032517716	-2.508000E+00	  0.032517716	1.258890E+02	  0.032517716	8.990000E+00	  0.032517716	2.487800E+01
117	  0.032713525	-2.544000E+00	  0.032713525	1.239750E+02	  0.032713525	9.273000E+00	  0.032713525	2.588100E+01
118	  0.032909330	-2.580000E+00	  0.032909330	1.220970E+02	  0.032909330	9.566000E+00	  0.032909330	2.687900E+01
119	  0.033105139	-2.625000E+00	  0.033105139	1.201950E+02	  0.033105139	9.904000E+00	  0.033105139	2.789900E+01
120	  0.033300944	-2.672000E+00	  0.033300944	1.182930E+02	  0.033300944	1.027100E+01	  0.033300944	2.893200E+01
121	  0.033496749	-2.720000E+00	  0.033496749	1.163620E+02	  0.033496749	1.065800E+01	  0.033496749	2.999600E+01
122	  0.033692554	-2.773000E+00	  0.033692554	1.144510E+02	  0.033692554	1.108100E+01	  0.033692554	3.106100E+01
123	  0.033888362	-2.819000E+00	  0.033888362	1.124870E+02	  0.033888362	1.150600E+01	  0.033888362	3.217900E+01
124	  0.034084171	-2.867000E+00	  0.034084171	1.104940E+02	  0.034084171	1.196100E+01	  0.034084171	3.333200E+01
125	  0.034279976	-2.911000E+00	  0.034279976	1.084460E+02	  0.034279976	1.243700E+01	  0.034279976	3.454100E+01
126	  0.034475781	-2.956000E+00	  0.034475781	1.064440E+02	  0.034475781	1.293100E+01	  0.034475781	3.574500E+01
127	  0.034671586	-2.998000E+00	  0.034671586	1.044100E+02	  0.034671586	1.344800E+01	  0.034671586	3.699400E+01
128	  0.034867391	-3.040000E+00	  0.034867391	1.023870E+02	  0.034867391	1.399500E+01	  0.034867391	3.826000E+01
129	  0.035063203	-3.075000E+00	  0.035063203	1.003850E+02	  0.035063203	1.453600E+01	  0.035063203	3.954600E+01
130	  0.035259008	-3.112000E+00	  0.035259008	9.833700E+01	  0.035259008	1.512700E+01	  0.035259008	4.088900E+01
131	  0.035454813	-3.146000E+00	  0.035454813	9.634200E+01	  0.035454813	1.572800E+01	  0.035454813	4.222800E+01
132	  0.035650618	-3.182000E+00	  0.035650618	9.431700E+01	  0.035650618	1.638800E+01	  0.035650618	4.361300E+01
133	  0.035846427	-3.215000E+00	  0.035846427	9.230300E+01	  0.035846427	1.706400E+01	  0.035846427	4.502900E+01
134	  0.036042232	-3.247000E+00	  0.036042232	9.030300E+01	  0.036042232	1.778300E+01	  0.036042232	4.646600E+01
135	  0.036238037	-3.279000E+00	  0.036238037	8.827700E+01	  0.036238037	1.855100E+01	  0.036238037	4.795800E+01
136	  0.036433842	-3.310000E+00	  0.036433842	8.627800E+01	  0.036433842	1.935500E+01	  0.036433842	4.946800E+01
137	  0.036629651	-3.339000E+00	  0.036629651	8.428500E+01	  0.036629651	2.020000E+01	  0.036629651	5.101400E+01
138	  0.036825456	-3.366000E+00	  0.036825456	8.224300E+01	  0.036825456	2.110900E+01	  0.036825456	5.264400E+01
139	  0.037021261	-3.393000E+00	  0.037021261	8.015800E+01	  0.037021261	2.210600E+01	  0.037021261	5.435200E+01
140	  0.037217066	-3.411000E+00	  0.037217066	7.800100E+01	  0.037217066	2.314800E+01	  0.037217066	5.620100E+01
141	  0.037412878	-3.419000E+00	  0.037412878	7.575600E+01	  0.037412878	2.426300E+01	  0.037412878	5.821500E+01
142	  0.037608683	-3.422000E+00	  0.037608683	7.340200E+01	  0.037608683	2.549200E+01	  0.037608683	6.042400E+01
143	  0.037804488	-3.428000E+00	  0.037804488	7.086900E+01	  0.037804488	2.695900E+01	  0.037804488	6.288400E+01
144	  0.038000293	-3.447000E+00	  0.038000293	6.817900E+01	  0.038000293	2.876500E+01	  0.038000293	6.555300E+01
145	  0.038196102	-3.491000E+00	  0.038196102	6.535600E+01	  0.038196102	3.104600E+01	  0.038196102	6.834900E+01
146	  0.038391907	-3.568000E+00	  0.038391907	6.256000E+01	  0.038391907	3.381300E+01	  0.038391907	7.102400E+01
147	  0.038587712	-3.679000E+00	  0.038587712	5.989700E+01	  0.038587712	3.701400E+01	  0.038587712	7.337300E+01
148	  0.038783520	-3.798000E+00	  0.038783520	5.749800E+01	  0.038783520	4.031600E+01	  0.038783520	7.532200E+01
149	  0.038979325	-3.913000E+00	  0.038979325	5.534500E+01	  0.038979325	4.358000E+01	  0.038979325	7.693300E+01
150	  0.039175130	-4.020000E+00	  0.039175130	5.336400E+01	  0.039175130	4.680200E+01	  0.039175130	7.831400E+01
151	  0.039370935	-4.112000E+00	  0.039370935	5.142500E+01	  0.039370935	5.006900E+01	  0.039370935	7.966800E+01
152	  0.039566744	-4.200000E+00	  0.039566744	4.955100E+01	  0.039566744	5.342100E+01	  0.039566744	8.087600E+01
153	  0.039762549	-4.280000E+00	  0.039762549	4.776100E+01	  0.039762549	5.678500E+01	  0.039762549	8.195500E+01
154	  0.039958358	-4.356000E+00	  0.039958358	4.584500E+01	  0.039958358	6.053900E+01	  0.039958358	8.306300E+01
155	  0.040154163	-4.428000E+00	  0.040154163	4.389000E+01	  0.040154163	6.456600E+01	  0.040154163	8.410900E+01
156	  0.040349972	-4.495000E+00	  0.040349972	4.191500E+01	  0.040349972	6.885800E+01	  0.040349972	8.502900E+01
157	  0.040545776	-4.557000E+00	  0.040545776	3.991600E+01	  0.040545776	7.343700E+01	  0.040545776	8.581400E+01
158	  0.040741581	-4.617000E+00	  0.040741581	3.790500E+01	  0.040741581	7.830800E+01	  0.040741581	8.637600E+01
159	  0.040937386	-4.674000E+00	  0.040937386	3.586500E+01	  0.040937386	8.352100E+01	  0.040937386	8.668800E+01
160	  0.041133195	-4.729000E+00	  0.041133195	3.382900E+01	  0.041133195	8.899900E+01	  0.041133195	8.664600E+01
161	  0.041329000	-4.779000E+00	  0.041329000	3.180000E+01	  0.041329000	9.471500E+01	  0.041329000	8.627700E+01
162	  0.041524805	-4.828000E+00	  0.041524805	2.970600E+01	  0.041524805	1.008710E+02	  0.041524805	8.545000E+01
163	  0.041720610	-4.877000E+00	  0.041720610	2.764600E+01	  0.041720610	1.071500E+02	  0.041720610	8.404700E+01
164	  0.041916419	-4.918000E+00	  0.041916419	2.555300E+01	  0.041916419	1.137280E+02	  0.041916419	8.216600E+01
165	  0.042112224	-4.958000E+00	  0.042112224	2.349500E+01	  0.042112224	1.203210E+02	  0.042112224	7.963300E+01
166	  0.042308029	-4.997000E+00	  0.042308029	2.145300E+01	  0.042308029	1.268990E+02	  0.042308029	7.638800E+01
167	  0.042503837	-5.033000E+00	  0.042503837	1.940900E+01	  0.042503837	1.334370E+02	  0.042503837	7.239100E+01
168	  0.042699646	-5.070000E+00	  0.042699646	1.735000E+01	  0.042699646	1.398420E+02	  0.042699646	6.754000E+01
169	  0.042895451	-5.105000E+00	  0.042895451	1.531900E+01	  0.042895451	1.458520E+02	  0.042895451	6.192900E+01
170	  0.043091256	-5.137000E+00	  0.043091256	1.330200E+01	  0.043091256	1.514110E+02	  0.043091256	5.560000E+01
171	  0.043287061	-5.167000E+00	  0.043287061	1.127500E+01	  0.043287061	1.564530E+02	  0.043287061	4.850900E+01
172	  0.043482870	-5.195000E+00	  0.043482870	9.285000E+00	  0.043482870	1.607170E+02	  0.043482870	4.087300E+01
173	  0.043678675	-5.225000E+00	  0.043678675	7.267000E+00	  0.043678675	1.641280E+02	  0.043678675	3.251300E+01
174	  0.043874480	-5.252000E+00	  0.043874480	5.295000E+00	  0.043874480	1.666020E+02	  0.043874480	2.394000E+01
175	  0.044070289	-5.285000E+00	  0.044070289	3.328000E+00	  0.044070289	1.679040E+02	  0.044070289	1.507400E+01
176	  0.044266094	-5.307000E+00	  0.044266094	1.390000E+00	  0.044266094	1.684660E+02	  0.044266094	6.291000E+00
177	  0.044461899	-5.333000E+00	  0.044461899	-5.160000E-01	  0.044461899	1.679000E+02	  0.044461899	-2.317000E+00
178	  0.044657703	-5.355000E+00	  0.044657703	-2.423000E+00	  0.044657703	1.665430E+02	  0.044657703	-1.073000E+01
179	  0.044853516	-5.374000E+00	  0.044853516	-4.301000E+00	  0.044853516	1.644000E+02	  0.044853516	-1.871100E+01
180	  0.045049321	-5.398000E+00	  0.045049321	-6.206000E+00	  0.045049321	1.613030E+02	  0.045049321	-2.632900E+01
181	  0.045245126	-5.418000E+00	  0.045245126	-8.032000E+00	  0.045245126	1.577580E+02	  0.045245126	-3.314500E+01
182	  0.045440931	-5.443000E+00	  0.045440931	-9.901000E+00	  0.045440931	1.534910E+02	  0.045440931	-3.948100E+01
183	  0.045636740	-5.469000E+00	  0.045636740	-1.170400E+01	  0.045636740	1.489170E+02	  0.045636740	-4.495000E+01
184	  0.045832545	-5.496000E+00	  0.045832545	-1.350500E+01	  0.045832545	1.440170E+02	  0.045832545	-4.975800E+01
185	  0.046028350	-5.520000E+00	  0.046028350	-1.533100E+01	  0.046028350	1.389270E+02	  0.046028350	-5.408000E+01
186	  0.046224155	-5.545000E+00	  0.046224155	-1.714800E+01	  0.046224155	1.337240E+02	  0.046224155	-5.775600E+01
187	  0.046419963	-5.570000E+00	  0.046419963	-1.895100E+01	  0.046419963	1.284980E+02	  0.046419963	-6.081200E+01
188	  0.046615768	-5.599000E+00	  0.046615768	-2.076700E+01	  0.046615768	1.232340E+02	  0.046615768	-6.331000E+01
189	  0.046811573	-5.620000E+00	  0.046811573	-2.257300E+01	  0.046811573	1.181380E+02	  0.046811573	-6.541700E+01
190	  0.047007378	-5.647000E+00	  0.047007378	-2.439300E+01	  0.047007378	1.130710E+02	  0.047007378	-6.700000E+01
191	  0.047203191	-5.672000E+00	  0.047203191	-2.622100E+01	  0.047203191	1.081530E+02	  0.047203191	-6.822400E+01
192	  0.047398996	-5.695000E+00	  0.047398996	-2.803300E+01	  0.047398996	1.034510E+02	  0.047398996	-6.908900E+01
193	  0.047594801	-5.714000E+00	  0.047594801	-2.980300E+01	  0.047594801	9.904600E+01	  0.047594801	-6.969000E+01
194	  0.047790606	-5.737000E+00	  0.047790606	-3.162100E+01	  0.047790606	9.470000E+01	  0.047790606	-6.996700E+01
195	  0.047986414	-5.761000E+00	  0.047986414	-3.339700E+01	  0.047986414	9.064600E+01	  0.047986414	-6.997000E+01
196	  0.048182219	-5.783000E+00	  0.048182219	-3.517300E+01	  0.048182219	8.679000E+01	  0.048182219	-6.981100E+01
197	  0.048378024	-5.805000E+00	  0.048378024	-3.702100E+01	  0.048378024	8.298000E+01	  0.048378024	-6.946300E+01
198	  0.048573833	-5.824000E+00	  0.048573833	-3.879700E+01	  0.048573833	7.950800E+01	  0.048573833	-6.900700E+01
199	  0.048769638	-5.842000E+00	  0.048769638	-4.065600E+01	  0.048769638	7.606500E+01	  0.048769638	-6.839600E+01
200	  0.048965443	-5.854000E+00	  0.048965443	-4.246300E+01	  0.048965443	7.288700E+01	  0.048965443	-6.776300E+01
201	  0.049161248	-5.869000E+00	  0.049161248	-4.423700E+01	  0.049161248	6.994200E+01	  0.049161248	-6.699600E+01
202	  0.049357057	-5.878000E+00	  0.049357057	-4.602300E+01	  0.049357057	6.712000E+01	  0.049357057	-6.620200E+01
203	  0.049552862	-5.889000E+00	  0.049552862	-4.780500E+01	  0.049552862	6.446100E+01	  0.049552862	-6.531300E+01
204	  0.049748670	-5.899000E+00	  0.049748670	-4.957500E+01	  0.049748670	6.196000E+01	  0.049748670	-6.438300E+01
205	  0.049944475	-5.904000E+00	  0.049944475	-5.133900E+01	  0.049944475	5.958500E+01	  0.049944475	-6.344500E+01
206	  0.050140284	-5.909000E+00	  0.050140284	-5.307900E+01	  0.050140284	5.736500E+01	  0.050140284	-6.248100E+01
207	  0.050336089	-5.909000E+00	  0.050336089	-5.481300E+01	  0.050336089	5.525500E+01	  0.050336089	-6.151500E+01
208	  0.050531894	-5.900000E+00	  0.050531894	-5.654700E+01	  0.050531894	5.321400E+01	  0.050531894	-6.059300E+01
209	  0.050727699	-5.896000E+00	  0.050727699	-5.823900E+01	  0.050727699	5.134500E+01	  0.050727699	-5.961900E+01
210	  0.050923508	-5.893000E+00	  0.050923508	-5.989500E+01	  0.050923508	4.960600E+01	  0.050923508	-5.864800E+01
211	  0.051119313	-5.890000E+00	  0.051119313	-6.148200E+01	  0.051119313	4.802100E+01	  0.051119313	-5.769700E+01
212	  0.051315118	-5.881000E+00	  0.051315118	-6.304800E+01	  0.051315118	4.650700E+01	  0.051315118	-5.678100E+01
213	  0.051510923	-5.876000E+00	  0.051510923	-6.462600E+01	  0.051510923	4.506700E+01	  0.051510923	-5.582600E+01
214	  0.051706731	-5.873000E+00	  0.051706731	-6.612000E+01	  0.051706731	4.377100E+01	  0.051706731	-5.490700E+01
215	  0.051902536	-5.874000E+00	  0.051902536	-6.763000E+01	  0.051902536	4.253600E+01	  0.051902536	-5.395400E+01
216	  0.052098341	-5.875000E+00	  0.052098341	-6.914600E+01	  0.052098341	4.135400E+01	  0.052098341	-5.299500E+01
217	  0.052294150	-5.875000E+00	  0.052294150	-7.063600E+01	  0.052294150	4.024100E+01	  0.052294150	-5.205900E+01
218	  0.052489959	-5.874000E+00	  0.052489959	-7.211000E+01	  0.052489959	3.918000E+01	  0.052489959	-5.114500E+01
219	  0.052685764	-5.880000E+00	  0.052685764	-7.363100E+01	  0.052685764	3.816800E+01	  0.052685764	-5.016600E+01
220	  0.052881569	-5.883000E+00	  0.052881569	-7.505600E+01	  0.052881569	3.724400E+01	  0.052881569	-4.927300E+01
221	  0.053077377	-5.890000E+00	  0.053077377	-7.654700E+01	  0.053077377	3.633900E+01	  0.053077377	-4.832600E+01
222	  0.053273182	-5.890000E+00	  0.053273182	-7.799500E+01	  0.053273182	3.547300E+01	  0.053273182	-4.743800E+01
223	  0.053468987	-5.893000E+00	  0.053468987	-7.944700E+01	  0.053468987	3.464700E+01	  0.053468987	-4.654700E+01
224	  0.053664792	-5.892000E+00	  0.053664792	-8.091300E+01	  0.053664792	3.383500E+01	  0.053664792	-4.566700E+01
225	  0.053860601	-5.892000E+00	  0.053860601	-8.232000E+01	  0.053860601	3.309300E+01	  0.053860601	-4.482400E+01
226	  0.054056406	-5.893000E+00	  0.054056406	-8.377800E+01	  0.054056406	3.235800E+01	  0.054056406	-4.395500E+01
227	  0.054252211	-5.895000E+00	  0.054252211	-8.517100E+01	  0.054252211	3.168600E+01	  0.054252211	-4.313100E+01
228	  0.054448016	-5.893000E+00	  0.054448016	-8.653500E+01	  0.054448016	3.104100E+01	  0.054448016	-4.234100E+01
229	  0.054643828	-5.898000E+00	  0.054643828	-8.791600E+01	  0.054643828	3.044000E+01	  0.054643828	-4.152600E+01
230	  0.054839633	-5.898000E+00	  0.054839633	-8.929100E+01	  0.054839633	2.984500E+01	  0.054839633	-4.073800E+01
231	  0.055035438	-5.904000E+00	  0.055035438	-9.064600E+01	  0.055035438	2.930300E+01	  0.055035438	-3.995200E+01
232	  0.055231243	-5.909000E+00	  0.055231243	-9.198500E+01	  0.055231243	2.878300E+01	  0.055231243	-3.918700E+01
233	  0.055427052	-5.910000E+00	  0.055427052	-9.333900E+01	  0.055427052	2.826500E+01	  0.055427052	-3.842900E+01
234	  0.055622857	-5.918000E+00	  0.055622857	-9.474100E+01	  0.055622857	2.777200E+01	  0.055622857	-3.763600E+01
235	  0.055818662	-5.924000E+00	  0.055818662	-9.608700E+01	  0.055818662	2.731100E+01	  0.055818662	-3.688700E+01
236	  0.056014467	-5.932000E+00	  0.056014467	-9.744500E+01	  0.056014467	2.686900E+01	  0.056014467	-3.613500E+01
237	  0.056210276	-5.937000E+00	  0.056210276	-9.881700E+01	  0.056210276	2.643200E+01	  0.056210276	-3.538900E+01
238	  0.056406081	-5.941000E+00	  0.056406081	-1.001740E+02	  0.056406081	2.601100E+01	  0.056406081	-3.466000E+01
239	  0.056601886	-5.941000E+00	  0.056601886	-1.015260E+02	  0.056601886	2.559400E+01	  0.056601886	-3.394900E+01
240	  0.056797691	-5.939000E+00	  0.056797691	-1.028900E+02	  0.056797691	2.518100E+01	  0.056797691	-3.324300E+01
241	  0.056993503	-5.939000E+00	  0.056993503	-1.042510E+02	  0.056993503	2.479100E+01	  0.056993503	-3.254000E+01
242	  0.057189308	-5.936000E+00	  0.057189308	-1.055750E+02	  0.057189308	2.441200E+01	  0.057189308	-3.186900E+01
243	  0.057385113	-5.934000E+00	  0.057385113	-1.069040E+02	  0.057385113	2.405300E+01	  0.057385113	-3.119800E+01
244	  0.057580918	-5.932000E+00	  0.057580918	-1.081880E+02	  0.057580918	2.371600E+01	  0.057580918	-3.055400E+01
245	  0.057776727	-5.928000E+00	  0.057776727	-1.094820E+02	  0.057776727	2.338100E+01	  0.057776727	-2.991500E+01
246	  0.057972532	-5.928000E+00	  0.057972532	-1.107690E+02	  0.057972532	2.307300E+01	  0.057972532	-2.927800E+01
247	  0.058168337	-5.927000E+00	  0.058168337	-1.119830E+02	  0.058168337	2.278500E+01	  0.058168337	-2.868400E+01
248	  0.058364145	-5.922000E+00	  0.058364145	-1.132580E+02	  0.058364145	2.248500E+01	  0.058364145	-2.806900E+01
249	  0.058559950	-5.924000E+00	  0.058559950	-1.144890E+02	  0.058559950	2.222400E+01	  0.058559950	-2.747200E+01
250	  0.058755755	-5.928000E+00	  0.058755755	-1.157200E+02	  0.058755755	2.197700E+01	  0.058755755	-2.687600E+01
251	  0.058951560	-5.924000E+00	  0.058951560	-1.169870E+02	  0.058951560	2.170900E+01	  0.058951560	-2.627700E+01
252	  0.059147369	-5.928000E+00	  0.059147369	-1.182440E+02	  0.059147369	2.147500E+01	  0.059147369	-2.567800E+01
253	  0.059343174	-5.928000E+00	  0.059343174	-1.194760E+02	  0.059343174	2.124400E+01	  0.059343174	-2.509900E+01
254	  0.059538983	-5.931000E+00	  0.059538983	-1.207610E+02	  0.059538983	2.101600E+01	  0.059538983	-2.449800E+01
255	  0.059734788	-5.928000E+00	  0.059734788	-1.219970E+02	  0.059734788	2.079000E+01	  0.059734788	-2.392900E+01
256	  0.059930597	-5.929000E+00	  0.059930597	-1.232270E+02	  0.059930597	2.058300E+01	  0.059930597	-2.336300E+01
257	  0.060126401	-5.927000E+00	  0.060126401	-1.244530E+02	  0.060126401	2.037400E+01	  0.060126401	-2.280600E+01
258	  0.060322206	-5.923000E+00	  0.060322206	-1.257060E+02	  0.060322206	2.016400E+01	  0.060322206	-2.224200E+01
259	  0.060518011	-5.920000E+00	  0.060518011	-1.269180E+02	  0.060518011	1.996800E+01	  0.060518011	-2.169900E+01
260	  0.060713820	-5.916000E+00	  0.060713820	-1.281540E+02	  0.060713820	1.977000E+01	  0.060713820	-2.115100E+01
261	  0.060909625	-5.911000E+00	  0.060909625	-1.293690E+02	  0.060909625	1.958300E+01	  0.060909625	-2.061500E+01
262	  0.061105430	-5.901000E+00	  0.061105430	-1.305670E+02	  0.061105430	1.938800E+01	  0.061105430	-2.009400E+01
263	  0.061301235	-5.900000E+00	  0.061301235	-1.317640E+02	  0.061301235	1.922300E+01	  0.061301235	-1.956800E+01
264	  0.061497044	-5.890000E+00	  0.061497044	-1.328970E+02	  0.061497044	1.905000E+01	  0.061497044	-1.908100E+01
265	  0.061692849	-5.886000E+00	  0.061692849	-1.340870E+02	  0.061692849	1.888900E+01	  0.061692849	-1.856600E+01
266	  0.061888654	-5.877000E+00	  0.061888654	-1.352130E+02	  0.061888654	1.872900E+01	  0.061888654	-1.808500E+01
267	  0.062084462	-5.870000E+00	  0.062084462	-1.363400E+02	  0.062084462	1.857800E+01	  0.062084462	-1.760500E+01
268	  0.062280271	-5.863000E+00	  0.062280271	-1.374620E+02	  0.062280271	1.843200E+01	  0.062280271	-1.712800E+01
269	  0.062476076	-5.852000E+00	  0.062476076	-1.385320E+02	  0.062476076	1.828400E+01	  0.062476076	-1.667900E+01
270	  0.062671877	-5.851000E+00	  0.062671877	-1.396660E+02	  0.062671877	1.816400E+01	  0.062671877	-1.619700E+01
271	  0.062867686	-5.847000E+00	  0.062867686	-1.407540E+02	  0.062867686	1.804200E+01	  0.062867686	-1.573900E+01
272	  0.063063495	-5.842000E+00	  0.063063495	-1.418460E+02	  0.063063495	1.792200E+01	  0.063063495	-1.528100E+01
273	  0.063259304	-5.833000E+00	  0.063259304	-1.429650E+02	  0.063259304	1.779100E+01	  0.063259304	-1.481700E+01
274	  0.063455105	-5.834000E+00	  0.063455105	-1.440230E+02	  0.063455105	1.769900E+01	  0.063455105	-1.437300E+01
275	  0.063650914	-5.828000E+00	  0.063650914	-1.450900E+02	  0.063650914	1.759000E+01	  0.063650914	-1.393200E+01
276	  0.063846722	-5.817000E+00	  0.063846722	-1.461590E+02	  0.063846722	1.746900E+01	  0.063846722	-1.349400E+01
277	  0.064042524	-5.810000E+00	  0.064042524	-1.471740E+02	  0.064042524	1.736800E+01	  0.064042524	-1.307700E+01
278	  0.064238332	-5.811000E+00	  0.064238332	-1.482570E+02	  0.064238332	1.728700E+01	  0.064238332	-1.263000E+01
279	  0.064434141	-5.807000E+00	  0.064434141	-1.492450E+02	  0.064434141	1.720400E+01	  0.064434141	-1.222500E+01
280	  0.064629942	-5.804000E+00	  0.064629942	-1.502770E+02	  0.064629942	1.712000E+01	  0.064629942	-1.180300E+01
281	  0.064825751	-5.804000E+00	  0.064825751	-1.512700E+02	  0.064825751	1.705100E+01	  0.064825751	-1.139700E+01
282	  0.065021552	-5.805000E+00	  0.065021552	-1.522670E+02	  0.065021552	1.698900E+01	  0.065021552	-1.099000E+01
283	  0.065217361	-5.805000E+00	  0.065217361	-1.532510E+02	  0.065217361	1.692600E+01	  0.065217361	-1.059000E+01
284	  0.065413170	-5.810000E+00	  0.065413170	-1.542400E+02	  0.065413170	1.687800E+01	  0.065413170	-1.018800E+01
285	  0.065608978	-5.806000E+00	  0.065608978	-1.552340E+02	  0.065608978	1.681000E+01	  0.065608978	-9.787000E+00
286	  0.065804780	-5.813000E+00	  0.065804780	-1.562490E+02	  0.065804780	1.677000E+01	  0.065804780	-9.375000E+00
287	  0.066000588	-5.824000E+00	  0.066000588	-1.572350E+02	  0.066000588	1.674600E+01	  0.066000588	-8.975000E+00
288	  0.066196397	-5.830000E+00	  0.066196397	-1.582080E+02	  0.066196397	1.671300E+01	  0.066196397	-8.583000E+00
289	  0.066392198	-5.834000E+00	  0.066392198	-1.592080E+02	  0.066392198	1.667300E+01	  0.066392198	-8.182000E+00
290	  0.066588007	-5.840000E+00	  0.066588007	-1.601740E+02	  0.066588007	1.664600E+01	  0.066588007	-7.794000E+00
291	  0.066783816	-5.848000E+00	  0.066783816	-1.611750E+02	  0.066783816	1.662300E+01	  0.066783816	-7.394000E+00
292	  0.066979617	-5.854000E+00	  0.066979617	-1.621710E+02	  0.066979617	1.659700E+01	  0.066979617	-6.996000E+00
293	  0.067175426	-5.860000E+00	  0.067175426	-1.631740E+02	  0.067175426	1.657300E+01	  0.067175426	-6.597000E+00
294	  0.067371234	-5.864000E+00	  0.067371234	-1.641800E+02	  0.067371234	1.654500E+01	  0.067371234	-6.198000E+00
295	  0.067567036	-5.877000E+00	  0.067567036	-1.651940E+02	  0.067567036	1.654500E+01	  0.067567036	-5.795000E+00
296	  0.067762844	-5.886000E+00	  0.067762844	-1.661870E+02	  0.067762844	1.653500E+01	  0.067762844	-5.402000E+00
297	  0.067958646	-5.894000E+00	  0.067958646	-1.672360E+02	  0.067958646	1.652600E+01	  0.067958646	-4.988000E+00
298	  0.068154462	-5.898000E+00	  0.068154462	-1.681880E+02	  0.068154462	1.650800E+01	  0.068154462	-4.613000E+00
299	  0.068350263	-5.903000E+00	  0.068350263	-1.692180E+02	  0.068350263	1.649600E+01	  0.068350263	-4.208000E+00
300	  0.068546072	-5.910000E+00	  0.068546072	-1.701930E+02	  0.068546072	1.649100E+01	  0.068546072	-3.825000E+00
301	  0.068741873	-5.918000E+00	  0.068741873	-1.712300E+02	  0.068741873	1.649100E+01	  0.068741873	-3.418000E+00
302	  0.068937682	-5.923000E+00	  0.068937682	-1.722170E+02	  0.068937682	1.648600E+01	  0.068937682	-3.032000E+00
303	  0.069133483	-5.925000E+00	  0.069133483	-1.732270E+02	  0.069133483	1.647400E+01	  0.069133483	-2.638000E+00
304	  0.069329299	-5.936000E+00	  0.069329299	-1.742080E+02	  0.069329299	1.648800E+01	  0.069329299	-2.254000E+00
305	  0.069525100	-5.940000E+00	  0.069525100	-1.752570E+02	  0.069525100	1.648700E+01	  0.069525100	-1.845000E+00
306	  0.069720909	-5.950000E+00	  0.069720909	-1.762600E+02	  0.069720909	1.650200E+01	  0.069720909	-1.454000E+00
307	  0.069916710	-5.948000E+00	  0.069916710	-1.772430E+02	  0.069916710	1.648900E+01	  0.069916710	-1.072000E+00
308	  0.070112519	-5.953000E+00	  0.070112519	-1.782180E+02	  0.070112519	1.649700E+01	  0.070112519	-6.920000E-01
309	  0.070308320	-5.956000E+00	  0.070308320	-1.792150E+02	  0.070308320	1.650200E+01	  0.070308320	-3.050000E-01
310	  0.070504129	-5.955000E+00	  0.070504129	1.797900E+02	  0.070504129	1.650000E+01	  0.070504129	8.100000E-02
311	  0.070699938	-5.958000E+00	  0.070699938	1.788040E+02	  0.070699938	1.650800E+01	  0.070699938	4.640000E-01
312	  0.070895746	-5.964000E+00	  0.070895746	1.778420E+02	  0.070895746	1.652800E+01	  0.070895746	8.380000E-01
313	  0.071091555	-5.970000E+00	  0.071091555	1.768590E+02	  0.071091555	1.654900E+01	  0.071091555	1.220000E+00
314	  0.071287356	-5.974000E+00	  0.071287356	1.758740E+02	  0.071287356	1.656800E+01	  0.071287356	1.603000E+00
315	  0.071483165	-5.976000E+00	  0.071483165	1.749370E+02	  0.071483165	1.658100E+01	  0.071483165	1.967000E+00
316	  0.071678966	-5.979000E+00	  0.071678966	1.740040E+02	  0.071678966	1.660300E+01	  0.071678966	2.330000E+00
317	  0.071874775	-5.980000E+00	  0.071874775	1.730440E+02	  0.071874775	1.661800E+01	  0.071874775	2.703000E+00
318	  0.072070576	-5.981000E+00	  0.072070576	1.721300E+02	  0.072070576	1.663600E+01	  0.072070576	3.060000E+00
319	  0.072266392	-5.985000E+00	  0.072266392	1.711900E+02	  0.072266392	1.666300E+01	  0.072266392	3.425000E+00
320	  0.072462194	-5.988000E+00	  0.072462194	1.703010E+02	  0.072462194	1.668900E+01	  0.072462194	3.772000E+00
321	  0.072658002	-5.992000E+00	  0.072658002	1.693800E+02	  0.072658002	1.672200E+01	  0.072658002	4.131000E+00
322	  0.072853811	-5.994000E+00	  0.072853811	1.684740E+02	  0.072853811	1.674900E+01	  0.072853811	4.484000E+00
323	  0.073049612	-6.001000E+00	  0.073049612	1.675610E+02	  0.073049612	1.679400E+01	  0.073049612	4.840000E+00
324	  0.073245421	-6.002000E+00	  0.073245421	1.666940E+02	  0.073245421	1.682200E+01	  0.073245421	5.179000E+00
325	  0.073441222	-6.008000E+00	  0.073441222	1.657910E+02	  0.073441222	1.686400E+01	  0.073441222	5.532000E+00
326	  0.073637031	-6.014000E+00	  0.073637031	1.649240E+02	  0.073637031	1.691000E+01	  0.073637031	5.870000E+00
327	  0.073832840	-6.017000E+00	  0.073832840	1.640620E+02	  0.073832840	1.694700E+01	  0.073832840	6.208000E+00
328	  0.074028648	-6.022000E+00	  0.074028648	1.632300E+02	  0.074028648	1.699200E+01	  0.074028648	6.534000E+00
329	  0.074224450	-6.026000E+00	  0.074224450	1.623540E+02	  0.074224450	1.703700E+01	  0.074224450	6.878000E+00
330	  0.074420258	-6.035000E+00	  0.074420258	1.614910E+02	  0.074420258	1.709600E+01	  0.074420258	7.216000E+00
331	  0.074616060	-6.045000E+00	  0.074616060	1.606890E+02	  0.074616060	1.715800E+01	  0.074616060	7.529000E+00
332	  0.074811868	-6.055000E+00	  0.074811868	1.598390E+02	  0.074811868	1.722300E+01	  0.074811868	7.862000E+00
333	  0.075007670	-6.065000E+00	  0.075007670	1.590240E+02	  0.075007670	1.728900E+01	  0.075007670	8.181000E+00
334	  0.075203478	-6.073000E+00	  0.075203478	1.581740E+02	  0.075203478	1.735400E+01	  0.075203478	8.515000E+00
335	  0.075399294	-6.088000E+00	  0.075399294	1.573900E+02	  0.075399294	1.743300E+01	  0.075399294	8.821000E+00
336	  0.075595096	-6.098000E+00	  0.075595096	1.565570E+02	  0.075595096	1.750500E+01	  0.075595096	9.148000E+00
337	  0.075790904	-6.114000E+00	  0.075790904	1.557320E+02	  0.075790904	1.759400E+01	  0.075790904	9.470000E+00
338	  0.075986706	-6.128000E+00	  0.075986706	1.549230E+02	  0.075986706	1.768000E+01	  0.075986706	9.787000E+00
339	  0.076182514	-6.141000E+00	  0.076182514	1.540720E+02	  0.076182514	1.776500E+01	  0.076182514	1.012100E+01
340	  0.076378316	-6.163000E+00	  0.076378316	1.532200E+02	  0.076378316	1.787800E+01	  0.076378316	1.045200E+01
341	  0.076574124	-6.171000E+00	  0.076574124	1.523480E+02	  0.076574124	1.795800E+01	  0.076574124	1.079700E+01
342	  0.076769926	-6.188000E+00	  0.076769926	1.515380E+02	  0.076769926	1.805800E+01	  0.076769926	1.111400E+01
343	  0.076965742	-6.203000E+00	  0.076965742	1.507020E+02	  0.076965742	1.815700E+01	  0.076965742	1.144300E+01
344	  0.077161543	-6.220000E+00	  0.077161543	1.498650E+02	  0.077161543	1.826400E+01	  0.077161543	1.177100E+01
345	  0.077357352	-6.232000E+00	  0.077357352	1.490560E+02	  0.077357352	1.835700E+01	  0.077357352	1.209100E+01
346	  0.077553153	-6.245000E+00	  0.077553153	1.481970E+02	  0.077553153	1.846000E+01	  0.077553153	1.243000E+01
347	  0.077748962	-6.261000E+00	  0.077748962	1.473630E+02	  0.077748962	1.857000E+01	  0.077748962	1.275900E+01
348	  0.077944770	-6.275000E+00	  0.077944770	1.465150E+02	  0.077944770	1.867900E+01	  0.077944770	1.309500E+01
349	  0.078140572	-6.295000E+00	  0.078140572	1.456690E+02	  0.078140572	1.880600E+01	  0.078140572	1.342600E+01
350	  0.078336388	-6.313000E+00	  0.078336388	1.447970E+02	  0.078336388	1.893100E+01	  0.078336388	1.377000E+01
351	  0.078532189	-6.324000E+00	  0.078532189	1.439660E+02	  0.078532189	1.904000E+01	  0.078532189	1.410200E+01
352	  0.078727998	-6.338000E+00	  0.078727998	1.431040E+02	  0.078727998	1.915900E+01	  0.078727998	1.444500E+01
353	  0.078923799	-6.360000E+00	  0.078923799	1.422500E+02	  0.078923799	1.930100E+01	  0.078923799	1.478000E+01
354	  0.079119608	-6.373000E+00	  0.079119608	1.413950E+02	  0.079119608	1.942300E+01	  0.079119608	1.512200E+01
355	  0.079315409	-6.384000E+00	  0.079315409	1.405730E+02	  0.079315409	1.953800E+01	  0.079315409	1.545200E+01
356	  0.079511218	-6.392000E+00	  0.079511218	1.397090E+02	  0.079511218	1.965200E+01	  0.079511218	1.580300E+01
357	  0.079707019	-6.405000E+00	  0.079707019	1.388670E+02	  0.079707019	1.978000E+01	  0.079707019	1.614100E+01
358	  0.079902835	-6.416000E+00	  0.079902835	1.380100E+02	  0.079902835	1.990600E+01	  0.079902835	1.648800E+01
359	  0.080098644	-6.426000E+00	  0.080098644	1.371990E+02	  0.080098644	2.002900E+01	  0.080098644	1.681600E+01
360	  0.080294445	-6.437000E+00	  0.080294445	1.363570E+02	  0.080294445	2.016100E+01	  0.080294445	1.715800E+01
361	  0.080490254	-6.454000E+00	  0.080490254	1.355360E+02	  0.080490254	2.030600E+01	  0.080490254	1.748700E+01
362	  0.080686055	-6.461000E+00	  0.080686055	1.347210E+02	  0.080686055	2.042900E+01	  0.080686055	1.782200E+01
363	  0.080881864	-6.467000E+00	  0.080881864	1.339440E+02	  0.080881864	2.054500E+01	  0.080881864	1.814300E+01
364	  0.081077665	-6.481000E+00	  0.081077665	1.331620E+02	  0.081077665	2.068700E+01	  0.081077665	1.846000E+01
365	  0.081273474	-6.493000E+00	  0.081273474	1.323760E+02	  0.081273474	2.082700E+01	  0.081273474	1.878000E+01
366	  0.081469283	-6.504000E+00	  0.081469283	1.315770E+02	  0.081469283	2.096600E+01	  0.081469283	1.910900E+01
367	  0.081665091	-6.516000E+00	  0.081665091	1.308370E+02	  0.081665091	2.110700E+01	  0.081665091	1.941000E+01
368	  0.081860892	-6.527000E+00	  0.081860892	1.300690E+02	  0.081860892	2.124600E+01	  0.081860892	1.972700E+01
369	  0.082056701	-6.543000E+00	  0.082056701	1.293500E+02	  0.082056701	2.139800E+01	  0.082056701	2.001700E+01
370	  0.082252502	-6.557000E+00	  0.082252502	1.286160E+02	  0.082252502	2.154900E+01	  0.082252502	2.031700E+01
371	  0.082448311	-6.581000E+00	  0.082448311	1.279300E+02	  0.082448311	2.172300E+01	  0.082448311	2.058500E+01
372	  0.082644112	-6.598000E+00	  0.082644112	1.272120E+02	  0.082644112	2.188300E+01	  0.082644112	2.087600E+01
373	  0.082839929	-6.618000E+00	  0.082839929	1.264640E+02	  0.082839929	2.206100E+01	  0.082839929	2.117500E+01
374	  0.083035737	-6.641000E+00	  0.083035737	1.257340E+02	  0.083035737	2.224800E+01	  0.083035737	2.146400E+01
375	  0.083231539	-6.662000E+00	  0.083231539	1.249840E+02	  0.083231539	2.243300E+01	  0.083231539	2.176300E+01
376	  0.083427347	-6.683000E+00	  0.083427347	1.242430E+02	  0.083427347	2.261900E+01	  0.083427347	2.206000E+01
377	  0.083623149	-6.706000E+00	  0.083623149	1.235240E+02	  0.083623149	2.281300E+01	  0.083623149	2.234400E+01
378	  0.083818957	-6.729000E+00	  0.083818957	1.228150E+02	  0.083818957	2.300700E+01	  0.083818957	2.262300E+01
379	  0.084014758	-6.755000E+00	  0.084014758	1.220960E+02	  0.084014758	2.321200E+01	  0.084014758	2.290300E+01
380	  0.084210567	-6.777000E+00	  0.084210567	1.213640E+02	  0.084210567	2.341100E+01	  0.084210567	2.319500E+01
381	  0.084406376	-6.799000E+00	  0.084406376	1.206320E+02	  0.084406376	2.361500E+01	  0.084406376	2.348500E+01
382	  0.084602185	-6.822000E+00	  0.084602185	1.199700E+02	  0.084602185	2.381200E+01	  0.084602185	2.374300E+01
383	  0.084797986	-6.851000E+00	  0.084797986	1.192170E+02	  0.084797986	2.404500E+01	  0.084797986	2.403400E+01
384	  0.084993795	-6.877000E+00	  0.084993795	1.184760E+02	  0.084993795	2.427200E+01	  0.084993795	2.432200E+01
385	  0.085189603	-6.902000E+00	  0.085189603	1.177940E+02	  0.085189603	2.448400E+01	  0.085189603	2.458600E+01
386	  0.085385405	-6.929000E+00	  0.085385405	1.171220E+02	  0.085385405	2.470600E+01	  0.085385405	2.484100E+01
387	  0.085581213	-6.958000E+00	  0.085581213	1.163910E+02	  0.085581213	2.494900E+01	  0.085581213	2.512000E+01
388	  0.085777014	-6.984000E+00	  0.085777014	1.156790E+02	  0.085777014	2.518000E+01	  0.085777014	2.539400E+01
389	  0.085972831	-7.019000E+00	  0.085972831	1.149770E+02	  0.085972831	2.544000E+01	  0.085972831	2.565000E+01
390	  0.086168632	-7.041000E+00	  0.086168632	1.142870E+02	  0.086168632	2.566000E+01	  0.086168632	2.592000E+01
391	  0.086364441	-7.069000E+00	  0.086364441	1.135990E+02	  0.086364441	2.590500E+01	  0.086364441	2.617700E+01
392	  0.086560242	-7.100000E+00	  0.086560242	1.129340E+02	  0.086560242	2.615300E+01	  0.086560242	2.642100E+01
393	  0.086756051	-7.126000E+00	  0.086756051	1.121980E+02	  0.086756051	2.640600E+01	  0.086756051	2.670300E+01
394	  0.086951852	-7.151000E+00	  0.086951852	1.115020E+02	  0.086951852	2.665200E+01	  0.086951852	2.696700E+01
395	  0.087147661	-7.182000E+00	  0.087147661	1.108180E+02	  0.087147661	2.691700E+01	  0.087147661	2.721500E+01
396	  0.087343477	-7.210000E+00	  0.087343477	1.101680E+02	  0.087343477	2.716300E+01	  0.087343477	2.745400E+01
397	  0.087539278	-7.239000E+00	  0.087539278	1.095230E+02	  0.087539278	2.741900E+01	  0.087539278	2.768500E+01
398	  0.087735087	-7.269000E+00	  0.087735087	1.088440E+02	  0.087735087	2.768500E+01	  0.087735087	2.793200E+01
399	  0.087930888	-7.296000E+00	  0.087930888	1.082220E+02	  0.087930888	2.793500E+01	  0.087930888	2.815400E+01
400	  0.088126697	-7.334000E+00	  0.088126697	1.075760E+02	  0.088126697	2.822300E+01	  0.088126697	2.836800E+01
401	  0.088322498	-7.365000E+00	  0.088322498	1.069670E+02	  0.088322498	2.848400E+01	  0.088322498	2.857700E+01
402	  0.088518307	-7.397000E+00	  0.088518307	1.063420E+02	  0.088518307	2.875500E+01	  0.088518307	2.879100E+01
403	  0.088714108	-7.431000E+00	  0.088714108	1.057420E+02	  0.088714108	2.902800E+01	  0.088714108	2.898700E+01
404	  0.088909924	-7.463000E+00	  0.088909924	1.051080E+02	  0.088909924	2.930600E+01	  0.088909924	2.920100E+01
405	  0.089105725	-7.506000E+00	  0.089105725	1.045550E+02	  0.089105725	2.959800E+01	  0.089105725	2.935500E+01
406	  0.089301534	-7.547000E+00	  0.089301534	1.039390E+02	  0.089301534	2.990300E+01	  0.089301534	2.953900E+01
407	  0.089497335	-7.593000E+00	  0.089497335	1.033640E+02	  0.089497335	3.021300E+01	  0.089497335	2.969300E+01
408	  0.089693144	-7.632000E+00	  0.089693144	1.027210E+02	  0.089693144	3.052600E+01	  0.089693144	2.988800E+01
409	  0.089888945	-7.676000E+00	  0.089888945	1.021130E+02	  0.089888945	3.084600E+01	  0.089888945	3.005600E+01
410	  0.090084754	-7.719000E+00	  0.090084754	1.015180E+02	  0.090084754	3.116100E+01	  0.090084754	3.021700E+01
411	  0.090280563	-7.765000E+00	  0.090280563	1.008730E+02	  0.090280563	3.150400E+01	  0.090280563	3.039100E+01
412	  0.090476371	-7.815000E+00	  0.090476371	1.002240E+02	  0.090476371	3.186100E+01	  0.090476371	3.055600E+01
413	  0.090672180	-7.856000E+00	  0.090672180	9.965600E+01	  0.090672180	3.217100E+01	  0.090672180	3.070100E+01
414	  0.090867981	-7.897000E+00	  0.090867981	9.902600E+01	  0.090867981	3.250300E+01	  0.090867981	3.087200E+01
415	  0.091063790	-7.941000E+00	  0.091063790	9.841500E+01	  0.091063790	3.284100E+01	  0.091063790	3.102300E+01
416	  0.091259591	-7.985000E+00	  0.091259591	9.775600E+01	  0.091259591	3.319700E+01	  0.091259591	3.119300E+01
417	  0.091455400	-8.019000E+00	  0.091455400	9.714400E+01	  0.091455400	3.351300E+01	  0.091455400	3.136400E+01
418	  0.091651201	-8.062000E+00	  0.091651201	9.651800E+01	  0.091651201	3.385900E+01	  0.091651201	3.151700E+01
419	  0.091847017	-8.097000E+00	  0.091847017	9.594200E+01	  0.091847017	3.416900E+01	  0.091847017	3.166700E+01
420	  0.092042819	-8.129000E+00	  0.092042819	9.534500E+01	  0.092042819	3.448300E+01	  0.092042819	3.182800E+01
421	  0.092238627	-8.165000E+00	  0.092238627	9.475400E+01	  0.092238627	3.480700E+01	  0.092238627	3.197500E+01
422	  0.092434436	-8.198000E+00	  0.092434436	9.415800E+01	  0.092434436	3.512900E+01	  0.092434436	3.213000E+01
423	  0.092630237	-8.229000E+00	  0.092630237	9.361000E+01	  0.092630237	3.542700E+01	  0.092630237	3.226800E+01
424	  0.092826046	-8.255000E+00	  0.092826046	9.305400E+01	  0.092826046	3.571900E+01	  0.092826046	3.242000E+01
425	  0.093021847	-8.281000E+00	  0.093021847	9.256600E+01	  0.093021847	3.598400E+01	  0.093021847	3.254500E+01
426	  0.093217656	-8.308000E+00	  0.093217656	9.203300E+01	  0.093217656	3.627400E+01	  0.093217656	3.268200E+01
427	  0.093413465	-8.330000E+00	  0.093413465	9.151300E+01	  0.093413465	3.654700E+01	  0.093413465	3.282600E+01
428	  0.093609273	-8.349000E+00	  0.093609273	9.102800E+01	  0.093609273	3.680000E+01	  0.093609273	3.296200E+01
429	  0.093805075	-8.366000E+00	  0.093805075	9.055700E+01	  0.093805075	3.704500E+01	  0.093805075	3.309700E+01
430	  0.094000883	-8.387000E+00	  0.094000883	9.012100E+01	  0.094000883	3.728600E+01	  0.094000883	3.320600E+01
431	  0.094196685	-8.402000E+00	  0.094196685	8.969300E+01	  0.094196685	3.751000E+01	  0.094196685	3.332700E+01
432	  0.094392493	-8.418000E+00	  0.094392493	8.923100E+01	  0.094392493	3.775300E+01	  0.094392493	3.345900E+01
433	  0.094588295	-8.432000E+00	  0.094588295	8.888000E+01	  0.094588295	3.794500E+01	  0.094588295	3.355100E+01
434	  0.094784103	-8.448000E+00	  0.094784103	8.852500E+01	  0.094784103	3.814200E+01	  0.094784103	3.364000E+01
435	  0.094979919	-8.466000E+00	  0.094979919	8.814400E+01	  0.094979919	3.835800E+01	  0.094979919	3.373200E+01
436	  0.095175721	-8.478000E+00	  0.095175721	8.782300E+01	  0.095175721	3.853400E+01	  0.095175721	3.381600E+01
437	  0.095371529	-8.502000E+00	  0.095371529	8.751100E+01	  0.095371529	3.873700E+01	  0.095371529	3.386000E+01
438	  0.095567331	-8.518000E+00	  0.095567331	8.714800E+01	  0.095567331	3.894200E+01	  0.095567331	3.395000E+01
439	  0.095763139	-8.539000E+00	  0.095763139	8.683300E+01	  0.095763139	3.914000E+01	  0.095763139	3.400100E+01
440	  0.095958941	-8.566000E+00	  0.095958941	8.657700E+01	  0.095958941	3.932400E+01	  0.095958941	3.401500E+01
441	  0.096154749	-8.585000E+00	  0.096154749	8.630300E+01	  0.096154749	3.950000E+01	  0.096154749	3.405400E+01
442	  0.096350558	-8.616000E+00	  0.096350558	8.602200E+01	  0.096350558	3.970700E+01	  0.096350558	3.406000E+01
443	  0.096546367	-8.640000E+00	  0.096546367	8.573800E+01	  0.096546367	3.989900E+01	  0.096546367	3.408800E+01
444	  0.096742168	-8.673000E+00	  0.096742168	8.540100E+01	  0.096742168	4.013700E+01	  0.096742168	3.410800E+01
445	  0.096937977	-8.712000E+00	  0.096937977	8.507300E+01	  0.096937977	4.038600E+01	  0.096937977	3.410000E+01
446	  0.097133778	-8.743000E+00	  0.097133778	8.472000E+01	  0.097133778	4.062800E+01	  0.097133778	3.412700E+01
447	  0.097329587	-8.780000E+00	  0.097329587	8.440800E+01	  0.097329587	4.086500E+01	  0.097329587	3.411700E+01
448	  0.097525395	-8.821000E+00	  0.097525395	8.403800E+01	  0.097525395	4.113900E+01	  0.097525395	3.411300E+01
449	  0.097721197	-8.866000E+00	  0.097721197	8.368900E+01	  0.097721197	4.141200E+01	  0.097721197	3.408800E+01
450	  0.097917013	-8.893000E+00	  0.097917013	8.334200E+01	  0.097917013	4.164500E+01	  0.097917013	3.411400E+01
451	  0.098112814	-8.936000E+00	  0.098112814	8.286200E+01	  0.098112814	4.197900E+01	  0.098112814	3.413500E+01
452	  0.098308623	-8.972000E+00	  0.098308623	8.240900E+01	  0.098308623	4.228300E+01	  0.098308623	3.416600E+01
453	  0.098504424	-9.007000E+00	  0.098504424	8.201600E+01	  0.098504424	4.255800E+01	  0.098504424	3.417700E+01
454	  0.098700233	-9.039000E+00	  0.098700233	8.156100E+01	  0.098700233	4.285900E+01	  0.098700233	3.421500E+01
455	  0.098896034	-9.075000E+00	  0.098896034	8.107600E+01	  0.098896034	4.318200E+01	  0.098896034	3.424900E+01
456	  0.099091843	-9.108000E+00	  0.099091843	8.057600E+01	  0.099091843	4.351100E+01	  0.099091843	3.429100E+01
457	  0.099287644	-9.130000E+00	  0.099287644	8.004800E+01	  0.099287644	4.383100E+01	  0.099287644	3.438100E+01
458	  0.099483460	-9.154000E+00	  0.099483460	7.963400E+01	  0.099483460	4.409800E+01	  0.099483460	3.442200E+01
459	  0.099679269	-9.184000E+00	  0.099679269	7.909200E+01	  0.099679269	4.444600E+01	  0.099679269	3.448200E+01
460	  0.099875070	-9.208000E+00	  0.099875070	7.856700E+01	  0.099875070	4.477600E+01	  0.099875070	3.455000E+01
461	  0.100070879	-9.207000E+00	  0.100070879	7.808300E+01	  0.100070879	4.503700E+01	  0.100070879	3.469600E+01
462	  0.100266680	-9.226000E+00	  0.100266680	7.755400E+01	  0.100266680	4.536300E+01	  0.100266680	3.478200E+01
463	  0.100462489	-9.238000E+00	  0.100462489	7.699100E+01	  0.100462489	4.569800E+01	  0.100462489	3.489900E+01
464	  0.100658290	-9.257000E+00	  0.100658290	7.645700E+01	  0.100658290	4.603100E+01	  0.100658290	3.497900E+01
465	  0.100854106	-9.247000E+00	  0.100854106	7.595500E+01	  0.100854106	4.629600E+01	  0.100854106	3.515700E+01
466	  0.101049908	-9.258000E+00	  0.101049908	7.542900E+01	  0.101049908	4.661800E+01	  0.101049908	3.525900E+01
467	  0.101245716	-9.255000E+00	  0.101245716	7.496600E+01	  0.101245716	4.688000E+01	  0.101245716	3.539600E+01
468	  0.101441517	-9.242000E+00	  0.101441517	7.449400E+01	  0.101441517	4.713000E+01	  0.101441517	3.557600E+01
469	  0.101637326	-9.237000E+00	  0.101637326	7.401800E+01	  0.101637326	4.740200E+01	  0.101637326	3.572200E+01
470	  0.101833127	-9.224000E+00	  0.101833127	7.355200E+01	  0.101833127	4.765500E+01	  0.101833127	3.589900E+01
471	  0.102028936	-9.210000E+00	  0.102028936	7.316500E+01	  0.102028936	4.786300E+01	  0.102028936	3.605700E+01
472	  0.102224737	-9.200000E+00	  0.102224737	7.270100E+01	  0.102224737	4.812600E+01	  0.102224737	3.621900E+01
473	  0.102420554	-9.182000E+00	  0.102420554	7.230200E+01	  0.102420554	4.834100E+01	  0.102420554	3.639100E+01
474	  0.102616362	-9.171000E+00	  0.102616362	7.188900E+01	  0.102616362	4.857500E+01	  0.102616362	3.654600E+01
475	  0.102812164	-9.158000E+00	  0.102812164	7.156300E+01	  0.102812164	4.875700E+01	  0.102812164	3.668200E+01
476	  0.103007972	-9.138000E+00	  0.103007972	7.119800E+01	  0.103007972	4.895100E+01	  0.103007972	3.686000E+01
477	  0.103203773	-9.130000E+00	  0.103203773	7.087400E+01	  0.103203773	4.914200E+01	  0.103203773	3.697600E+01
478	  0.103399582	-9.107000E+00	  0.103399582	7.047000E+01	  0.103399582	4.936300E+01	  0.103399582	3.717200E+01
479	  0.103595383	-9.092000E+00	  0.103595383	7.018300E+01	  0.103595383	4.952100E+01	  0.103595383	3.731000E+01
480	  0.103791192	-9.090000E+00	  0.103791192	6.983400E+01	  0.103791192	4.974500E+01	  0.103791192	3.740300E+01
481	  0.103987001	-9.077000E+00	  0.103987001	6.951900E+01	  0.103987001	4.992900E+01	  0.103987001	3.753600E+01
482	  0.104182810	-9.078000E+00	  0.104182810	6.905800E+01	  0.104182810	5.023400E+01	  0.104182810	3.764600E+01
483	  0.104378611	-9.063000E+00	  0.104378611	6.871700E+01	  0.104378611	5.043500E+01	  0.104378611	3.779500E+01
484	  0.104574420	-9.046000E+00	  0.104574420	6.844200E+01	  0.104574420	5.059200E+01	  0.104574420	3.793600E+01
485	  0.104770228	-9.041000E+00	  0.104770228	6.804200E+01	  0.104770228	5.085300E+01	  0.104770228	3.805400E+01
486	  0.104966030	-9.029000E+00	  0.104966030	6.762100E+01	  0.104966030	5.111900E+01	  0.104966030	3.820900E+01
487	  0.105161838	-9.019000E+00	  0.105161838	6.712300E+01	  0.105161838	5.144600E+01	  0.105161838	3.836700E+01
488	  0.105357639	-9.006000E+00	  0.105357639	6.681000E+01	  0.105357639	5.164200E+01	  0.105357639	3.850100E+01
489	  0.105553456	-8.993000E+00	  0.105553456	6.639700E+01	  0.105553456	5.191100E+01	  0.105553456	3.865500E+01
490	  0.105749257	-8.989000E+00	  0.105749257	6.596000E+01	  0.105749257	5.221300E+01	  0.105749257	3.877000E+01
491	  0.105945066	-8.982000E+00	  0.105945066	6.553000E+01	  0.105945066	5.250800E+01	  0.105945066	3.889800E+01
492	  0.106140867	-8.964000E+00	  0.106140867	6.504200E+01	  0.106140867	5.283100E+01	  0.106140867	3.909300E+01
493	  0.106336676	-8.958000E+00	  0.106336676	6.459100E+01	  0.106336676	5.314900E+01	  0.106336676	3.921600E+01
494	  0.106532477	-8.942000E+00	  0.106532477	6.414300E+01	  0.106532477	5.345500E+01	  0.106532477	3.938600E+01
495	  0.106728286	-8.928000E+00	  0.106728286	6.363000E+01	  0.106728286	5.381500E+01	  0.106728286	3.956100E+01
496	  0.106924094	-8.913000E+00	  0.106924094	6.312600E+01	  0.106924094	5.417100E+01	  0.106924094	3.973700E+01
497	  0.107119903	-8.896000E+00	  0.107119903	6.264800E+01	  0.107119903	5.451100E+01	  0.107119903	3.991400E+01
498	  0.107315712	-8.882000E+00	  0.107315712	6.216400E+01	  0.107315712	5.486200E+01	  0.107315712	4.007900E+01
499	  0.107511513	-8.857000E+00	  0.107511513	6.161300E+01	  0.107511513	5.525700E+01	  0.107511513	4.031300E+01
500	  0.107707322	-8.833000E+00	  0.107707322	6.108800E+01	  0.107707322	5.563900E+01	  0.107707322	4.053200E+01
501	  0.107903123	-8.811000E+00	  0.107903123	6.059600E+01	  0.107903123	5.600200E+01	  0.107903123	4.073600E+01
