! Anritsu VNA Master:             	Model: MS2036C/10/77
! SN:             	1601066
! /card0/usr/255.ew.sma.r20.1_1.txt
! Existing Calibration Information:
! TYPE:             	Current Settings	Active Cal Settings
! TIME:             	12/17/2017 05:52:28 PM	12/17/2017 05:44:58 PM
! INTERNAL TEMP:    	44.0 C	43.8 C
! # POINTS:         	501	501
! START FREQ:       	10.000 MHz	10.000 MHz
! STOP FREQ:        	107.903 125 MHz	107.903 125 MHz
! SOURCE POWER:     	High	High
! IFBW:             	100 Hz	100 Hz
! AVG FACTOR:       	  1 	  1 
! REF PLANE 1:      	0 mm	0 mm
! REF PLANE 2:      	0 mm	0 mm
! CAL TYPE:         	Full S11	Full S11
! CAL METHOD:       	SOLT	SOLT
! CAL LINE TYPE:    	Coax	Coax
! DUT PORT 1:       	K-Conn(F)	K-Conn(F)
! DUT PORT 2:       	K-Conn(F)	K-Conn(F)
! CAL STATUS:       	OK: Accuracy High	--
! PROP-V:       	0.700
! CABLE LOSS:       	0.000 dB/m
! REF IMPEDANCE:       	50.0
! Trace Specific Parameters:	TR1	TR2	TR3	TR4
! TRACE.#.Y (GRAPH TYPE)	LOG MAG	PHASE	REAL IMPEDANCE	IMAGINARY IMPEDANCE
! TRACE.#.X 	FREQ.GHZ	FREQ.GHZ	FREQ.GHZ	FREQ.GHZ
! S-PARAMETER	S11	S11	S22	S22
! SMOOTH/APERTURE %	0	0	0	0
! WINDOW	NSL	NSL	NSL	NSL
! GATING	OFF	OFF	OFF	OFF
! FGTD	OFF	OFF	OFF	OFF
Marker Information per Trace:	TR1	TR2	TR3	TR4
!MK1	--	--	--	--
!MK2	--	--	--	--
!MK3	--	--	--	--
!MK4	--	--	--	--
!MK5	--	--	--	--
!MK6	--	--	--	--
!MK7	--	--	--	--
!MK8	--	--	--	--
PNT	TR1.FREQ.GHZ	TR1.LOG MAG.dB	TR2.FREQ.GHZ	TR2.PHASE.deg	TR3.FREQ.GHZ	TR3.REAL IMPEDANCE.ohm	TR4.FREQ.GHZ	TR4.IMAGINARY IMPEDANCE.ohm
1	  0.010000000	-7.196000E+00	  0.010000000	1.678640E+02	  0.010000000	1.688000E+00	  0.010000000	3.378000E+00
2	  0.010195807	-7.181000E+00	  0.010195807	1.676780E+02	  0.010195807	1.767000E+00	  0.010195807	3.604000E+00
3	  0.010391613	-7.182000E+00	  0.010391613	1.674340E+02	  0.010391613	1.763000E+00	  0.010391613	3.665000E+00
4	  0.010587418	-7.183000E+00	  0.010587418	1.672140E+02	  0.010587418	1.750000E+00	  0.010587418	3.734000E+00
5	  0.010783225	-7.183000E+00	  0.010783225	1.669790E+02	  0.010783225	1.730000E+00	  0.010783225	3.797000E+00
6	  0.010979031	-7.179000E+00	  0.010979031	1.667360E+02	  0.010979031	1.731000E+00	  0.010979031	3.858000E+00
7	  0.011174837	-7.183000E+00	  0.011174837	1.664820E+02	  0.011174837	1.850000E+00	  0.011174837	4.094000E+00
8	  0.011370643	-7.181000E+00	  0.011370643	1.662740E+02	  0.011370643	1.863000E+00	  0.011370643	4.147000E+00
9	  0.011566450	-7.188000E+00	  0.011566450	1.660550E+02	  0.011566450	1.868000E+00	  0.011566450	4.199000E+00
10	  0.011762256	-7.189000E+00	  0.011762256	1.658270E+02	  0.011762256	1.877000E+00	  0.011762256	4.243000E+00
11	  0.011958062	-7.191000E+00	  0.011958062	1.655760E+02	  0.011958062	1.889000E+00	  0.011958062	4.289000E+00
12	  0.012153869	-7.195000E+00	  0.012153869	1.653170E+02	  0.012153869	2.026000E+00	  0.012153869	4.513000E+00
13	  0.012349674	-7.198000E+00	  0.012349674	1.651000E+02	  0.012349674	2.031000E+00	  0.012349674	4.558000E+00
14	  0.012545481	-7.193000E+00	  0.012545481	1.648340E+02	  0.012545481	2.040000E+00	  0.012545481	4.600000E+00
15	  0.012741288	-7.197000E+00	  0.012741288	1.645820E+02	  0.012741288	2.051000E+00	  0.012741288	4.638000E+00
16	  0.012937094	-7.199000E+00	  0.012937094	1.643820E+02	  0.012937094	2.061000E+00	  0.012937094	4.676000E+00
17	  0.013132900	-7.200000E+00	  0.013132900	1.641460E+02	  0.013132900	2.181000E+00	  0.013132900	4.890000E+00
18	  0.013328707	-7.202000E+00	  0.013328707	1.639070E+02	  0.013328707	2.159000E+00	  0.013328707	4.932000E+00
19	  0.013524513	-7.201000E+00	  0.013524513	1.637020E+02	  0.013524513	2.167000E+00	  0.013524513	4.969000E+00
20	  0.013720319	-7.202000E+00	  0.013720319	1.634760E+02	  0.013720319	2.170000E+00	  0.013720319	5.003000E+00
21	  0.013916126	-7.202000E+00	  0.013916126	1.632180E+02	  0.013916126	2.181000E+00	  0.013916126	5.044000E+00
22	  0.014111931	-7.201000E+00	  0.014111931	1.629920E+02	  0.014111931	2.304000E+00	  0.014111931	5.258000E+00
23	  0.014307737	-7.205000E+00	  0.014307737	1.627610E+02	  0.014307737	2.313000E+00	  0.014307737	5.297000E+00
24	  0.014503544	-7.204000E+00	  0.014503544	1.625380E+02	  0.014503544	2.317000E+00	  0.014503544	5.332000E+00
25	  0.014699350	-7.210000E+00	  0.014699350	1.623140E+02	  0.014699350	2.323000E+00	  0.014699350	5.367000E+00
26	  0.014895156	-7.209000E+00	  0.014895156	1.620510E+02	  0.014895156	2.327000E+00	  0.014895156	5.403000E+00
27	  0.015090963	-7.209000E+00	  0.015090963	1.618240E+02	  0.015090963	2.450000E+00	  0.015090963	5.619000E+00
28	  0.015286769	-7.214000E+00	  0.015286769	1.615910E+02	  0.015286769	2.449000E+00	  0.015286769	5.654000E+00
29	  0.015482575	-7.214000E+00	  0.015482575	1.613360E+02	  0.015482575	2.479000E+00	  0.015482575	5.669000E+00
30	  0.015678382	-7.213000E+00	  0.015678382	1.611270E+02	  0.015678382	2.477000E+00	  0.015678382	5.704000E+00
31	  0.015874187	-7.216000E+00	  0.015874187	1.608790E+02	  0.015874187	2.480000E+00	  0.015874187	5.738000E+00
32	  0.016069993	-7.220000E+00	  0.016069993	1.606510E+02	  0.016069993	2.593000E+00	  0.016069993	5.956000E+00
33	  0.016265800	-7.222000E+00	  0.016265800	1.604320E+02	  0.016265800	2.583000E+00	  0.016265800	5.995000E+00
34	  0.016461605	-7.219000E+00	  0.016461605	1.602070E+02	  0.016461605	2.577000E+00	  0.016461605	6.033000E+00
35	  0.016657412	-7.221000E+00	  0.016657412	1.599600E+02	  0.016657412	2.565000E+00	  0.016657412	6.073000E+00
36	  0.016853219	-7.222000E+00	  0.016853219	1.597610E+02	  0.016853219	2.554000E+00	  0.016853219	6.112000E+00
37	  0.017049024	-7.220000E+00	  0.017049024	1.595060E+02	  0.017049024	2.530000E+00	  0.017049024	6.150000E+00
38	  0.017244833	-7.219000E+00	  0.017244833	1.592620E+02	  0.017244833	2.625000E+00	  0.017244833	6.371000E+00
39	  0.017440638	-7.221000E+00	  0.017440638	1.590470E+02	  0.017440638	2.597000E+00	  0.017440638	6.410000E+00
40	  0.017636444	-7.226000E+00	  0.017636444	1.587940E+02	  0.017636444	2.562000E+00	  0.017636444	6.453000E+00
41	  0.017832249	-7.222000E+00	  0.017832249	1.585530E+02	  0.017832249	2.530000E+00	  0.017832249	6.496000E+00
42	  0.018028056	-7.222000E+00	  0.018028056	1.583450E+02	  0.018028056	2.493000E+00	  0.018028056	6.537000E+00
43	  0.018223861	-7.226000E+00	  0.018223861	1.580810E+02	  0.018223861	2.581000E+00	  0.018223861	6.765000E+00
44	  0.018419670	-7.223000E+00	  0.018419670	1.578570E+02	  0.018419670	2.542000E+00	  0.018419670	6.807000E+00
45	  0.018615475	-7.226000E+00	  0.018615475	1.576400E+02	  0.018615475	2.498000E+00	  0.018615475	6.853000E+00
46	  0.018811282	-7.225000E+00	  0.018811282	1.574150E+02	  0.018811282	2.471000E+00	  0.018811282	6.894000E+00
47	  0.019007087	-7.224000E+00	  0.019007087	1.571680E+02	  0.019007087	2.434000E+00	  0.019007087	6.930000E+00
48	  0.019202894	-7.224000E+00	  0.019202894	1.569510E+02	  0.019202894	2.524000E+00	  0.019202894	7.153000E+00
49	  0.019398699	-7.224000E+00	  0.019398699	1.566930E+02	  0.019398699	2.496000E+00	  0.019398699	7.193000E+00
50	  0.019594505	-7.228000E+00	  0.019594505	1.564920E+02	  0.019594505	2.479000E+00	  0.019594505	7.231000E+00
51	  0.019790314	-7.232000E+00	  0.019790314	1.562430E+02	  0.019790314	2.459000E+00	  0.019790314	7.264000E+00
52	  0.019986119	-7.231000E+00	  0.019986119	1.560420E+02	  0.019986119	2.445000E+00	  0.019986119	7.303000E+00
53	  0.020181926	-7.228000E+00	  0.020181926	1.558140E+02	  0.020181926	2.552000E+00	  0.020181926	7.514000E+00
54	  0.020377731	-7.224000E+00	  0.020377731	1.555520E+02	  0.020377731	2.534000E+00	  0.020377731	7.549000E+00
55	  0.020573538	-7.223000E+00	  0.020573538	1.553210E+02	  0.020573538	2.528000E+00	  0.020573538	7.584000E+00
56	  0.020769343	-7.222000E+00	  0.020769343	1.551000E+02	  0.020769343	2.506000E+00	  0.020769343	7.619000E+00
57	  0.020965151	-7.221000E+00	  0.020965151	1.548720E+02	  0.020965151	2.496000E+00	  0.020965151	7.650000E+00
58	  0.021160956	-7.220000E+00	  0.021160956	1.546090E+02	  0.021160956	2.607000E+00	  0.021160956	7.864000E+00
59	  0.021356763	-7.225000E+00	  0.021356763	1.543710E+02	  0.021356763	2.592000E+00	  0.021356763	7.895000E+00
60	  0.021552568	-7.226000E+00	  0.021552568	1.541630E+02	  0.021552568	2.584000E+00	  0.021552568	7.928000E+00
61	  0.021748375	-7.227000E+00	  0.021748375	1.539390E+02	  0.021748375	2.575000E+00	  0.021748375	7.955000E+00
62	  0.021944180	-7.227000E+00	  0.021944180	1.537390E+02	  0.021944180	2.559000E+00	  0.021944180	7.985000E+00
63	  0.022139989	-7.236000E+00	  0.022139989	1.535030E+02	  0.022139989	2.661000E+00	  0.022139989	8.197000E+00
64	  0.022335794	-7.236000E+00	  0.022335794	1.533000E+02	  0.022335794	2.658000E+00	  0.022335794	8.223000E+00
65	  0.022531601	-7.235000E+00	  0.022531601	1.530580E+02	  0.022531601	2.646000E+00	  0.022531601	8.252000E+00
66	  0.022727406	-7.236000E+00	  0.022727406	1.528370E+02	  0.022727406	2.628000E+00	  0.022727406	8.283000E+00
67	  0.022923212	-7.231000E+00	  0.022923212	1.526020E+02	  0.022923212	2.629000E+00	  0.022923212	8.312000E+00
68	  0.023119017	-7.237000E+00	  0.023119017	1.523570E+02	  0.023119017	2.617000E+00	  0.023119017	8.340000E+00
69	  0.023314826	-7.240000E+00	  0.023314826	1.521470E+02	  0.023314826	2.727000E+00	  0.023314826	8.549000E+00
70	  0.023510631	-7.237000E+00	  0.023510631	1.519210E+02	  0.023510631	2.720000E+00	  0.023510631	8.573000E+00
71	  0.023706438	-7.233000E+00	  0.023706438	1.516810E+02	  0.023706438	2.702000E+00	  0.023706438	8.599000E+00
72	  0.023902243	-7.236000E+00	  0.023902243	1.514120E+02	  0.023902243	2.691000E+00	  0.023902243	8.624000E+00
73	  0.024098050	-7.238000E+00	  0.024098050	1.512010E+02	  0.024098050	2.683000E+00	  0.024098050	8.648000E+00
74	  0.024293855	-7.242000E+00	  0.024293855	1.509240E+02	  0.024293855	2.800000E+00	  0.024293855	8.855000E+00
75	  0.024489662	-7.241000E+00	  0.024489662	1.506980E+02	  0.024489662	2.791000E+00	  0.024489662	8.875000E+00
76	  0.024685470	-7.238000E+00	  0.024685470	1.504230E+02	  0.024685470	2.783000E+00	  0.024685470	8.896000E+00
77	  0.024881275	-7.240000E+00	  0.024881275	1.501830E+02	  0.024881275	2.775000E+00	  0.024881275	8.920000E+00
78	  0.025077082	-7.239000E+00	  0.025077082	1.499690E+02	  0.025077082	2.766000E+00	  0.025077082	8.943000E+00
79	  0.025272887	-7.237000E+00	  0.025272887	1.497770E+02	  0.025272887	2.868000E+00	  0.025272887	9.146000E+00
80	  0.025468694	-7.239000E+00	  0.025468694	1.495250E+02	  0.025468694	2.861000E+00	  0.025468694	9.169000E+00
81	  0.025664499	-7.244000E+00	  0.025664499	1.493410E+02	  0.025664499	2.853000E+00	  0.025664499	9.189000E+00
82	  0.025860308	-7.245000E+00	  0.025860308	1.491250E+02	  0.025860308	2.842000E+00	  0.025860308	9.209000E+00
83	  0.026056113	-7.246000E+00	  0.026056113	1.488900E+02	  0.026056113	2.828000E+00	  0.026056113	9.225000E+00
84	  0.026251920	-7.246000E+00	  0.026251920	1.486720E+02	  0.026251920	2.939000E+00	  0.026251920	9.426000E+00
85	  0.026447725	-7.253000E+00	  0.026447725	1.484270E+02	  0.026447725	2.919000E+00	  0.026447725	9.444000E+00
86	  0.026643531	-7.257000E+00	  0.026643531	1.482030E+02	  0.026643531	2.906000E+00	  0.026643531	9.465000E+00
87	  0.026839336	-7.258000E+00	  0.026839336	1.479430E+02	  0.026839336	2.889000E+00	  0.026839336	9.482000E+00
88	  0.027035145	-7.255000E+00	  0.027035145	1.477050E+02	  0.027035145	2.871000E+00	  0.027035145	9.497000E+00
89	  0.027230950	-7.253000E+00	  0.027230950	1.474010E+02	  0.027230950	2.976000E+00	  0.027230950	9.699000E+00
90	  0.027426757	-7.249000E+00	  0.027426757	1.471650E+02	  0.027426757	2.950000E+00	  0.027426757	9.719000E+00
91	  0.027622562	-7.246000E+00	  0.027622562	1.469000E+02	  0.027622562	2.932000E+00	  0.027622562	9.739000E+00
92	  0.027818369	-7.244000E+00	  0.027818369	1.466460E+02	  0.027818369	2.910000E+00	  0.027818369	9.754000E+00
93	  0.028014174	-7.243000E+00	  0.028014174	1.464090E+02	  0.028014174	2.890000E+00	  0.028014174	9.769000E+00
94	  0.028209982	-7.238000E+00	  0.028209982	1.461910E+02	  0.028209982	2.999000E+00	  0.028209982	9.965000E+00
95	  0.028405787	-7.237000E+00	  0.028405787	1.459440E+02	  0.028405787	2.978000E+00	  0.028405787	9.978000E+00
96	  0.028601594	-7.235000E+00	  0.028601594	1.457560E+02	  0.028601594	2.958000E+00	  0.028601594	9.992000E+00
97	  0.028797399	-7.235000E+00	  0.028797399	1.455520E+02	  0.028797399	2.941000E+00	  0.028797399	1.000400E+01
98	  0.028993206	-7.230000E+00	  0.028993206	1.453720E+02	  0.028993206	2.915000E+00	  0.028993206	1.002000E+01
99	  0.029189013	-7.230000E+00	  0.029189013	1.452080E+02	  0.029189013	2.895000E+00	  0.029189013	1.003200E+01
100	  0.029384818	-7.230000E+00	  0.029384818	1.450290E+02	  0.029384818	2.998000E+00	  0.029384818	1.023100E+01
101	  0.029580627	-7.232000E+00	  0.029580627	1.448090E+02	  0.029580627	2.977000E+00	  0.029580627	1.025100E+01
102	  0.029776432	-7.233000E+00	  0.029776432	1.446150E+02	  0.029776432	2.957000E+00	  0.029776432	1.026600E+01
103	  0.029972238	-7.236000E+00	  0.029972238	1.443910E+02	  0.029972238	2.940000E+00	  0.029972238	1.028900E+01
104	  0.030168043	-7.239000E+00	  0.030168043	1.441440E+02	  0.030168043	2.917000E+00	  0.030168043	1.031000E+01
105	  0.030363850	-7.241000E+00	  0.030363850	1.439240E+02	  0.030363850	3.021000E+00	  0.030363850	1.051900E+01
106	  0.030559655	-7.240000E+00	  0.030559655	1.436630E+02	  0.030559655	3.004000E+00	  0.030559655	1.054500E+01
107	  0.030755464	-7.244000E+00	  0.030755464	1.434310E+02	  0.030755464	2.979000E+00	  0.030755464	1.057400E+01
108	  0.030951269	-7.243000E+00	  0.030951269	1.431850E+02	  0.030951269	2.954000E+00	  0.030951269	1.060300E+01
109	  0.031147076	-7.239000E+00	  0.031147076	1.430070E+02	  0.031147076	2.628000E+00	  0.031147076	1.061400E+01
110	  0.031342883	-7.242000E+00	  0.031342883	1.427350E+02	  0.031342883	2.737000E+00	  0.031342883	1.082000E+01
111	  0.031538688	-7.247000E+00	  0.031538688	1.425040E+02	  0.031538688	2.723000E+00	  0.031538688	1.084400E+01
112	  0.031734493	-7.244000E+00	  0.031734493	1.422420E+02	  0.031734493	2.711000E+00	  0.031734493	1.086900E+01
113	  0.031930301	-7.244000E+00	  0.031930301	1.420020E+02	  0.031930301	2.699000E+00	  0.031930301	1.089300E+01
114	  0.032126106	-7.242000E+00	  0.032126106	1.417750E+02	  0.032126106	2.687000E+00	  0.032126106	1.092000E+01
115	  0.032321911	-7.239000E+00	  0.032321911	1.415330E+02	  0.032321911	2.796000E+00	  0.032321911	1.113000E+01
116	  0.032517716	-7.232000E+00	  0.032517716	1.413170E+02	  0.032517716	2.784000E+00	  0.032517716	1.115600E+01
117	  0.032713525	-7.229000E+00	  0.032713525	1.410930E+02	  0.032713525	2.769000E+00	  0.032713525	1.118100E+01
118	  0.032909330	-7.227000E+00	  0.032909330	1.408800E+02	  0.032909330	2.753000E+00	  0.032909330	1.120800E+01
119	  0.033105139	-7.224000E+00	  0.033105139	1.406890E+02	  0.033105139	2.736000E+00	  0.033105139	1.123400E+01
120	  0.033300944	-7.228000E+00	  0.033300944	1.404860E+02	  0.033300944	2.847000E+00	  0.033300944	1.144900E+01
121	  0.033496749	-7.228000E+00	  0.033496749	1.402760E+02	  0.033496749	2.822000E+00	  0.033496749	1.147700E+01
122	  0.033692554	-7.231000E+00	  0.033692554	1.400770E+02	  0.033692554	2.802000E+00	  0.033692554	1.149800E+01
123	  0.033888362	-7.241000E+00	  0.033888362	1.398490E+02	  0.033888362	2.785000E+00	  0.033888362	1.152600E+01
124	  0.034084171	-7.239000E+00	  0.034084171	1.395950E+02	  0.034084171	2.761000E+00	  0.034084171	1.155100E+01
125	  0.034279976	-7.239000E+00	  0.034279976	1.393400E+02	  0.034279976	2.867000E+00	  0.034279976	1.176000E+01
126	  0.034475781	-7.243000E+00	  0.034475781	1.390590E+02	  0.034475781	2.844000E+00	  0.034475781	1.178400E+01
127	  0.034671586	-7.251000E+00	  0.034671586	1.388120E+02	  0.034671586	2.821000E+00	  0.034671586	1.181100E+01
128	  0.034867391	-7.245000E+00	  0.034867391	1.385580E+02	  0.034867391	2.796000E+00	  0.034867391	1.183500E+01
129	  0.035063203	-7.252000E+00	  0.035063203	1.382760E+02	  0.035063203	2.773000E+00	  0.035063203	1.185500E+01
130	  0.035259008	-7.250000E+00	  0.035259008	1.380520E+02	  0.035259008	2.750000E+00	  0.035259008	1.188200E+01
131	  0.035454813	-7.247000E+00	  0.035454813	1.377910E+02	  0.035454813	2.847000E+00	  0.035454813	1.209900E+01
132	  0.035650618	-7.238000E+00	  0.035650618	1.375400E+02	  0.035650618	2.821000E+00	  0.035650618	1.212500E+01
133	  0.035846427	-7.235000E+00	  0.035846427	1.372490E+02	  0.035846427	2.794000E+00	  0.035846427	1.215400E+01
134	  0.036042232	-7.231000E+00	  0.036042232	1.370330E+02	  0.036042232	2.768000E+00	  0.036042232	1.217800E+01
135	  0.036238037	-7.221000E+00	  0.036238037	1.368300E+02	  0.036238037	2.739000E+00	  0.036238037	1.221000E+01
136	  0.036433842	-7.215000E+00	  0.036433842	1.365990E+02	  0.036433842	2.837000E+00	  0.036433842	1.243000E+01
137	  0.036629651	-7.216000E+00	  0.036629651	1.363820E+02	  0.036629651	2.808000E+00	  0.036629651	1.246300E+01
138	  0.036825456	-7.211000E+00	  0.036825456	1.362000E+02	  0.036825456	2.783000E+00	  0.036825456	1.249100E+01
139	  0.037021261	-7.214000E+00	  0.037021261	1.359990E+02	  0.037021261	2.751000E+00	  0.037021261	1.252100E+01
140	  0.037217066	-7.212000E+00	  0.037217066	1.358090E+02	  0.037217066	2.719000E+00	  0.037217066	1.255200E+01
141	  0.037412878	-7.214000E+00	  0.037412878	1.355700E+02	  0.037412878	2.814000E+00	  0.037412878	1.276600E+01
142	  0.037608683	-7.220000E+00	  0.037608683	1.353790E+02	  0.037608683	2.785000E+00	  0.037608683	1.279700E+01
143	  0.037804488	-7.223000E+00	  0.037804488	1.351280E+02	  0.037804488	2.759000E+00	  0.037804488	1.282500E+01
144	  0.038000293	-7.222000E+00	  0.038000293	1.348750E+02	  0.038000293	2.730000E+00	  0.038000293	1.284800E+01
145	  0.038196102	-7.225000E+00	  0.038196102	1.346470E+02	  0.038196102	2.703000E+00	  0.038196102	1.287600E+01
146	  0.038391907	-7.228000E+00	  0.038391907	1.344130E+02	  0.038391907	2.805000E+00	  0.038391907	1.309500E+01
147	  0.038587712	-7.228000E+00	  0.038587712	1.341720E+02	  0.038587712	2.776000E+00	  0.038587712	1.312800E+01
148	  0.038783520	-7.231000E+00	  0.038783520	1.339530E+02	  0.038783520	2.749000E+00	  0.038783520	1.315700E+01
149	  0.038979325	-7.232000E+00	  0.038979325	1.336710E+02	  0.038979325	2.725000E+00	  0.038979325	1.319100E+01
150	  0.039175130	-7.234000E+00	  0.039175130	1.334840E+02	  0.039175130	2.700000E+00	  0.039175130	1.322300E+01
151	  0.039370935	-7.233000E+00	  0.039370935	1.332460E+02	  0.039370935	2.804000E+00	  0.039370935	1.344300E+01
152	  0.039566744	-7.223000E+00	  0.039566744	1.329830E+02	  0.039566744	2.781000E+00	  0.039566744	1.347400E+01
153	  0.039762549	-7.220000E+00	  0.039762549	1.327170E+02	  0.039762549	2.755000E+00	  0.039762549	1.350800E+01
154	  0.039958358	-7.212000E+00	  0.039958358	1.324770E+02	  0.039958358	2.734000E+00	  0.039958358	1.353800E+01
155	  0.040154163	-7.201000E+00	  0.040154163	1.322330E+02	  0.040154163	2.715000E+00	  0.040154163	1.356800E+01
156	  0.040349972	-7.201000E+00	  0.040349972	1.320530E+02	  0.040349972	2.823000E+00	  0.040349972	1.378800E+01
157	  0.040545776	-7.198000E+00	  0.040545776	1.318860E+02	  0.040545776	2.802000E+00	  0.040545776	1.381600E+01
158	  0.040741581	-7.199000E+00	  0.040741581	1.316710E+02	  0.040741581	2.779000E+00	  0.040741581	1.384400E+01
159	  0.040937386	-7.199000E+00	  0.040937386	1.314870E+02	  0.040937386	2.747000E+00	  0.040937386	1.387200E+01
160	  0.041133195	-7.206000E+00	  0.041133195	1.313160E+02	  0.041133195	2.728000E+00	  0.041133195	1.390000E+01
161	  0.041329000	-7.209000E+00	  0.041329000	1.311070E+02	  0.041329000	2.840000E+00	  0.041329000	1.412100E+01
162	  0.041524805	-7.215000E+00	  0.041524805	1.308510E+02	  0.041524805	2.819000E+00	  0.041524805	1.415100E+01
163	  0.041720610	-7.225000E+00	  0.041720610	1.306380E+02	  0.041720610	2.796000E+00	  0.041720610	1.418300E+01
164	  0.041916419	-7.226000E+00	  0.041916419	1.303840E+02	  0.041916419	2.772000E+00	  0.041916419	1.421000E+01
165	  0.042112224	-7.225000E+00	  0.042112224	1.301440E+02	  0.042112224	2.754000E+00	  0.042112224	1.423800E+01
166	  0.042308029	-7.227000E+00	  0.042308029	1.298910E+02	  0.042308029	2.737000E+00	  0.042308029	1.426500E+01
167	  0.042503837	-7.229000E+00	  0.042503837	1.296290E+02	  0.042503837	2.844000E+00	  0.042503837	1.448600E+01
168	  0.042699646	-7.223000E+00	  0.042699646	1.294180E+02	  0.042699646	2.824000E+00	  0.042699646	1.451000E+01
169	  0.042895451	-7.222000E+00	  0.042895451	1.291600E+02	  0.042895451	2.805000E+00	  0.042895451	1.454000E+01
170	  0.043091256	-7.221000E+00	  0.043091256	1.289010E+02	  0.043091256	2.785000E+00	  0.043091256	1.456200E+01
171	  0.043287061	-7.214000E+00	  0.043287061	1.286800E+02	  0.043287061	2.766000E+00	  0.043287061	1.458800E+01
172	  0.043482870	-7.208000E+00	  0.043482870	1.284460E+02	  0.043482870	2.879000E+00	  0.043482870	1.480500E+01
173	  0.043678675	-7.202000E+00	  0.043678675	1.282380E+02	  0.043678675	2.860000E+00	  0.043678675	1.483000E+01
174	  0.043874480	-7.200000E+00	  0.043874480	1.280470E+02	  0.043874480	2.842000E+00	  0.043874480	1.485500E+01
175	  0.044070289	-7.195000E+00	  0.044070289	1.278310E+02	  0.044070289	2.820000E+00	  0.044070289	1.488100E+01
176	  0.044266094	-7.199000E+00	  0.044266094	1.276380E+02	  0.044266094	2.798000E+00	  0.044266094	1.490300E+01
177	  0.044461899	-7.197000E+00	  0.044461899	1.274560E+02	  0.044461899	2.898000E+00	  0.044461899	1.512200E+01
178	  0.044657703	-7.207000E+00	  0.044657703	1.272410E+02	  0.044657703	2.879000E+00	  0.044657703	1.514800E+01
179	  0.044853516	-7.212000E+00	  0.044853516	1.270280E+02	  0.044853516	2.863000E+00	  0.044853516	1.517300E+01
180	  0.045049321	-7.215000E+00	  0.045049321	1.267980E+02	  0.045049321	2.846000E+00	  0.045049321	1.519300E+01
181	  0.045245126	-7.219000E+00	  0.045245126	1.265150E+02	  0.045245126	2.827000E+00	  0.045245126	1.521800E+01
182	  0.045440931	-7.216000E+00	  0.045440931	1.263220E+02	  0.045440931	2.932000E+00	  0.045440931	1.543800E+01
183	  0.045636740	-7.220000E+00	  0.045636740	1.260910E+02	  0.045636740	2.912000E+00	  0.045636740	1.546900E+01
184	  0.045832545	-7.219000E+00	  0.045832545	1.258540E+02	  0.045832545	2.895000E+00	  0.045832545	1.549600E+01
185	  0.046028350	-7.218000E+00	  0.046028350	1.256220E+02	  0.046028350	2.875000E+00	  0.046028350	1.552100E+01
186	  0.046224155	-7.216000E+00	  0.046224155	1.254090E+02	  0.046224155	2.859000E+00	  0.046224155	1.554100E+01
187	  0.046419963	-7.217000E+00	  0.046419963	1.251710E+02	  0.046419963	2.972000E+00	  0.046419963	1.575800E+01
188	  0.046615768	-7.216000E+00	  0.046615768	1.248800E+02	  0.046615768	2.958000E+00	  0.046615768	1.578400E+01
189	  0.046811573	-7.214000E+00	  0.046811573	1.246490E+02	  0.046811573	2.933000E+00	  0.046811573	1.580600E+01
190	  0.047007378	-7.205000E+00	  0.047007378	1.243760E+02	  0.047007378	2.933000E+00	  0.047007378	1.582700E+01
191	  0.047203191	-7.197000E+00	  0.047203191	1.241760E+02	  0.047203191	2.916000E+00	  0.047203191	1.585300E+01
192	  0.047398996	-7.197000E+00	  0.047398996	1.239500E+02	  0.047398996	3.033000E+00	  0.047398996	1.607100E+01
193	  0.047594801	-7.197000E+00	  0.047594801	1.237240E+02	  0.047594801	3.014000E+00	  0.047594801	1.608600E+01
194	  0.047790606	-7.196000E+00	  0.047790606	1.235330E+02	  0.047790606	2.995000E+00	  0.047790606	1.611000E+01
195	  0.047986414	-7.196000E+00	  0.047986414	1.233390E+02	  0.047986414	2.982000E+00	  0.047986414	1.613300E+01
196	  0.048182219	-7.198000E+00	  0.048182219	1.231460E+02	  0.048182219	2.965000E+00	  0.048182219	1.615300E+01
197	  0.048378024	-7.204000E+00	  0.048378024	1.229310E+02	  0.048378024	2.950000E+00	  0.048378024	1.617500E+01
198	  0.048573833	-7.204000E+00	  0.048573833	1.227220E+02	  0.048573833	3.066000E+00	  0.048573833	1.639100E+01
199	  0.048769638	-7.208000E+00	  0.048769638	1.224960E+02	  0.048769638	3.050000E+00	  0.048769638	1.641100E+01
200	  0.048965443	-7.213000E+00	  0.048965443	1.222720E+02	  0.048965443	3.033000E+00	  0.048965443	1.643300E+01
201	  0.049161248	-7.217000E+00	  0.049161248	1.220340E+02	  0.049161248	3.022000E+00	  0.049161248	1.645000E+01
202	  0.049357057	-7.215000E+00	  0.049357057	1.217890E+02	  0.049357057	3.003000E+00	  0.049357057	1.647300E+01
203	  0.049552862	-7.218000E+00	  0.049552862	1.215100E+02	  0.049552862	3.123000E+00	  0.049552862	1.668600E+01
204	  0.049748670	-7.216000E+00	  0.049748670	1.213440E+02	  0.049748670	3.111000E+00	  0.049748670	1.670900E+01
205	  0.049944475	-7.209000E+00	  0.049944475	1.210320E+02	  0.049944475	3.092000E+00	  0.049944475	1.673000E+01
206	  0.050140284	-7.206000E+00	  0.050140284	1.208000E+02	  0.050140284	3.075000E+00	  0.050140284	1.675100E+01
207	  0.050336089	-7.207000E+00	  0.050336089	1.205370E+02	  0.050336089	3.042000E+00	  0.050336089	1.677200E+01
208	  0.050531894	-7.198000E+00	  0.050531894	1.202880E+02	  0.050531894	3.165000E+00	  0.050531894	1.698600E+01
209	  0.050727699	-7.200000E+00	  0.050727699	1.201010E+02	  0.050727699	3.145000E+00	  0.050727699	1.700600E+01
210	  0.050923508	-7.188000E+00	  0.050923508	1.198520E+02	  0.050923508	3.133000E+00	  0.050923508	1.702500E+01
211	  0.051119313	-7.190000E+00	  0.051119313	1.196670E+02	  0.051119313	3.118000E+00	  0.051119313	1.704100E+01
212	  0.051315118	-7.187000E+00	  0.051315118	1.194910E+02	  0.051315118	3.103000E+00	  0.051315118	1.706200E+01
213	  0.051510923	-7.187000E+00	  0.051510923	1.192720E+02	  0.051510923	3.226000E+00	  0.051510923	1.727500E+01
214	  0.051706731	-7.190000E+00	  0.051706731	1.190660E+02	  0.051706731	3.211000E+00	  0.051706731	1.729100E+01
215	  0.051902536	-7.190000E+00	  0.051902536	1.188300E+02	  0.051902536	3.199000E+00	  0.051902536	1.730900E+01
216	  0.052098341	-7.192000E+00	  0.052098341	1.186080E+02	  0.052098341	3.183000E+00	  0.052098341	1.732000E+01
217	  0.052294150	-7.194000E+00	  0.052294150	1.184220E+02	  0.052294150	3.170000E+00	  0.052294150	1.733500E+01
218	  0.052489959	-7.194000E+00	  0.052489959	1.181760E+02	  0.052489959	3.296000E+00	  0.052489959	1.754200E+01
219	  0.052685764	-7.199000E+00	  0.052685764	1.179620E+02	  0.052685764	3.280000E+00	  0.052685764	1.755700E+01
220	  0.052881569	-7.194000E+00	  0.052881569	1.177610E+02	  0.052881569	3.268000E+00	  0.052881569	1.756600E+01
221	  0.053077377	-7.196000E+00	  0.053077377	1.175660E+02	  0.053077377	3.253000E+00	  0.053077377	1.757900E+01
222	  0.053273182	-7.194000E+00	  0.053273182	1.172760E+02	  0.053273182	3.239000E+00	  0.053273182	1.759100E+01
223	  0.053468987	-7.199000E+00	  0.053468987	1.170600E+02	  0.053468987	3.366000E+00	  0.053468987	1.779800E+01
224	  0.053664792	-7.191000E+00	  0.053664792	1.168190E+02	  0.053664792	3.345000E+00	  0.053664792	1.781100E+01
225	  0.053860601	-7.189000E+00	  0.053860601	1.166200E+02	  0.053860601	3.334000E+00	  0.053860601	1.782300E+01
226	  0.054056406	-7.188000E+00	  0.054056406	1.163300E+02	  0.054056406	3.319000E+00	  0.054056406	1.783700E+01
227	  0.054252211	-7.186000E+00	  0.054252211	1.161030E+02	  0.054252211	3.305000E+00	  0.054252211	1.784900E+01
228	  0.054448016	-7.179000E+00	  0.054448016	1.158820E+02	  0.054448016	3.293000E+00	  0.054448016	1.785600E+01
229	  0.054643828	-7.176000E+00	  0.054643828	1.156920E+02	  0.054643828	3.415000E+00	  0.054643828	1.806700E+01
230	  0.054839633	-7.174000E+00	  0.054839633	1.154870E+02	  0.054839633	3.399000E+00	  0.054839633	1.807600E+01
231	  0.055035438	-7.176000E+00	  0.055035438	1.153000E+02	  0.055035438	3.384000E+00	  0.055035438	1.808800E+01
232	  0.055231243	-7.171000E+00	  0.055231243	1.150950E+02	  0.055231243	3.371000E+00	  0.055231243	1.809700E+01
233	  0.055427052	-7.174000E+00	  0.055427052	1.148900E+02	  0.055427052	3.355000E+00	  0.055427052	1.810500E+01
234	  0.055622857	-7.177000E+00	  0.055622857	1.147360E+02	  0.055622857	3.482000E+00	  0.055622857	1.831300E+01
235	  0.055818662	-7.182000E+00	  0.055818662	1.145140E+02	  0.055818662	3.462000E+00	  0.055818662	1.832200E+01
236	  0.056014467	-7.189000E+00	  0.056014467	1.142930E+02	  0.056014467	3.449000E+00	  0.056014467	1.833000E+01
237	  0.056210276	-7.189000E+00	  0.056210276	1.140580E+02	  0.056210276	3.435000E+00	  0.056210276	1.834100E+01
238	  0.056406081	-7.193000E+00	  0.056406081	1.138620E+02	  0.056406081	3.426000E+00	  0.056406081	1.834300E+01
239	  0.056601886	-7.194000E+00	  0.056601886	1.136400E+02	  0.056601886	3.551000E+00	  0.056601886	1.854700E+01
240	  0.056797691	-7.196000E+00	  0.056797691	1.133860E+02	  0.056797691	3.536000E+00	  0.056797691	1.855300E+01
241	  0.056993503	-7.196000E+00	  0.056993503	1.131340E+02	  0.056993503	3.523000E+00	  0.056993503	1.856200E+01
242	  0.057189308	-7.192000E+00	  0.057189308	1.128560E+02	  0.057189308	3.507000E+00	  0.057189308	1.856500E+01
243	  0.057385113	-7.196000E+00	  0.057385113	1.126610E+02	  0.057385113	3.497000E+00	  0.057385113	1.857100E+01
244	  0.057580918	-7.191000E+00	  0.057580918	1.123990E+02	  0.057580918	3.625000E+00	  0.057580918	1.877700E+01
245	  0.057776727	-7.190000E+00	  0.057776727	1.121590E+02	  0.057776727	3.609000E+00	  0.057776727	1.878200E+01
246	  0.057972532	-7.187000E+00	  0.057972532	1.119290E+02	  0.057972532	3.596000E+00	  0.057972532	1.878800E+01
247	  0.058168337	-7.188000E+00	  0.058168337	1.116920E+02	  0.058168337	3.582000E+00	  0.058168337	1.879500E+01
248	  0.058364145	-7.188000E+00	  0.058364145	1.114900E+02	  0.058364145	3.567000E+00	  0.058364145	1.880100E+01
249	  0.058559950	-7.188000E+00	  0.058559950	1.112520E+02	  0.058559950	3.696000E+00	  0.058559950	1.900900E+01
250	  0.058755755	-7.189000E+00	  0.058755755	1.110530E+02	  0.058755755	3.675000E+00	  0.058755755	1.901800E+01
251	  0.058951560	-7.186000E+00	  0.058951560	1.108600E+02	  0.058951560	3.660000E+00	  0.058951560	1.902900E+01
252	  0.059147369	-7.189000E+00	  0.059147369	1.106110E+02	  0.059147369	3.644000E+00	  0.059147369	1.903600E+01
253	  0.059343174	-7.193000E+00	  0.059343174	1.103930E+02	  0.059343174	3.627000E+00	  0.059343174	1.904900E+01
254	  0.059538983	-7.196000E+00	  0.059538983	1.101920E+02	  0.059538983	3.751000E+00	  0.059538983	1.925500E+01
255	  0.059734788	-7.199000E+00	  0.059734788	1.099490E+02	  0.059734788	3.734000E+00	  0.059734788	1.926800E+01
256	  0.059930597	-7.196000E+00	  0.059930597	1.097250E+02	  0.059930597	3.712000E+00	  0.059930597	1.928700E+01
257	  0.060126401	-7.201000E+00	  0.060126401	1.094900E+02	  0.060126401	3.692000E+00	  0.060126401	1.929700E+01
258	  0.060322206	-7.198000E+00	  0.060322206	1.092630E+02	  0.060322206	3.671000E+00	  0.060322206	1.931700E+01
259	  0.060518011	-7.200000E+00	  0.060518011	1.090120E+02	  0.060518011	3.653000E+00	  0.060518011	1.933400E+01
260	  0.060713820	-7.194000E+00	  0.060713820	1.087510E+02	  0.060713820	3.768000E+00	  0.060713820	1.955400E+01
261	  0.060909625	-7.199000E+00	  0.060909625	1.084570E+02	  0.060909625	3.745000E+00	  0.060909625	1.957800E+01
262	  0.061105430	-7.197000E+00	  0.061105430	1.082330E+02	  0.061105430	3.723000E+00	  0.061105430	1.960000E+01
263	  0.061301235	-7.192000E+00	  0.061301235	1.079920E+02	  0.061301235	3.697000E+00	  0.061301235	1.962300E+01
264	  0.061497044	-7.191000E+00	  0.061497044	1.077710E+02	  0.061497044	3.688000E+00	  0.061497044	1.964700E+01
265	  0.061692849	-7.181000E+00	  0.061692849	1.075420E+02	  0.061692849	3.805000E+00	  0.061692849	1.987000E+01
266	  0.061888654	-7.179000E+00	  0.061888654	1.073180E+02	  0.061888654	3.780000E+00	  0.061888654	1.989500E+01
267	  0.062084462	-7.184000E+00	  0.062084462	1.071040E+02	  0.062084462	3.755000E+00	  0.062084462	1.991900E+01
268	  0.062280271	-7.173000E+00	  0.062280271	1.068590E+02	  0.062280271	3.732000E+00	  0.062280271	1.994000E+01
269	  0.062476076	-7.171000E+00	  0.062476076	1.067370E+02	  0.062476076	3.621000E+00	  0.062476076	1.987000E+01
270	  0.062671877	-7.172000E+00	  0.062671877	1.064960E+02	  0.062671877	3.741000E+00	  0.062671877	2.009900E+01
271	  0.062867686	-7.176000E+00	  0.062867686	1.062810E+02	  0.062867686	3.721000E+00	  0.062867686	2.012100E+01
272	  0.063063495	-7.176000E+00	  0.063063495	1.060750E+02	  0.063063495	3.701000E+00	  0.063063495	2.014700E+01
273	  0.063259304	-7.178000E+00	  0.063259304	1.059080E+02	  0.063259304	3.684000E+00	  0.063259304	2.017400E+01
274	  0.063455105	-7.176000E+00	  0.063455105	1.057130E+02	  0.063455105	3.666000E+00	  0.063455105	2.019700E+01
275	  0.063650914	-7.174000E+00	  0.063650914	1.054420E+02	  0.063650914	3.780000E+00	  0.063650914	2.041900E+01
276	  0.063846722	-7.169000E+00	  0.063846722	1.052210E+02	  0.063846722	3.762000E+00	  0.063846722	2.044600E+01
277	  0.064042524	-7.168000E+00	  0.064042524	1.049540E+02	  0.064042524	3.745000E+00	  0.064042524	2.047500E+01
278	  0.064238332	-7.167000E+00	  0.064238332	1.047010E+02	  0.064238332	3.719000E+00	  0.064238332	2.049800E+01
279	  0.064434141	-7.171000E+00	  0.064434141	1.044320E+02	  0.064434141	3.704000E+00	  0.064434141	2.052800E+01
280	  0.064629942	-7.165000E+00	  0.064629942	1.041890E+02	  0.064629942	3.826000E+00	  0.064629942	2.076400E+01
281	  0.064825751	-7.163000E+00	  0.064825751	1.039790E+02	  0.064825751	3.796000E+00	  0.064825751	2.079300E+01
282	  0.065021552	-7.164000E+00	  0.065021552	1.037760E+02	  0.065021552	3.777000E+00	  0.065021552	2.082100E+01
283	  0.065217361	-7.171000E+00	  0.065217361	1.035440E+02	  0.065217361	3.755000E+00	  0.065217361	2.085300E+01
284	  0.065413170	-7.166000E+00	  0.065413170	1.033300E+02	  0.065413170	3.736000E+00	  0.065413170	2.088000E+01
285	  0.065608978	-7.161000E+00	  0.065608978	1.031050E+02	  0.065608978	3.857000E+00	  0.065608978	2.111500E+01
286	  0.065804780	-7.162000E+00	  0.065804780	1.029000E+02	  0.065804780	3.831000E+00	  0.065804780	2.114500E+01
287	  0.066000588	-7.167000E+00	  0.066000588	1.026780E+02	  0.066000588	3.815000E+00	  0.066000588	2.117600E+01
288	  0.066196397	-7.155000E+00	  0.066196397	1.024790E+02	  0.066196397	3.789000E+00	  0.066196397	2.120400E+01
289	  0.066392198	-7.161000E+00	  0.066392198	1.022250E+02	  0.066392198	3.773000E+00	  0.066392198	2.123500E+01
290	  0.066588007	-7.156000E+00	  0.066588007	1.020620E+02	  0.066588007	3.887000E+00	  0.066588007	2.147100E+01
291	  0.066783816	-7.159000E+00	  0.066783816	1.018320E+02	  0.066783816	3.867000E+00	  0.066783816	2.149300E+01
292	  0.066979617	-7.155000E+00	  0.066979617	1.016040E+02	  0.066979617	3.849000E+00	  0.066979617	2.152700E+01
293	  0.067175426	-7.157000E+00	  0.067175426	1.013910E+02	  0.067175426	3.821000E+00	  0.067175426	2.156300E+01
294	  0.067371234	-7.155000E+00	  0.067371234	1.011600E+02	  0.067371234	3.808000E+00	  0.067371234	2.158700E+01
295	  0.067567036	-7.158000E+00	  0.067567036	1.009290E+02	  0.067567036	3.787000E+00	  0.067567036	2.161000E+01
296	  0.067762844	-7.160000E+00	  0.067762844	1.006520E+02	  0.067762844	3.902000E+00	  0.067762844	2.185000E+01
297	  0.067958646	-7.162000E+00	  0.067958646	1.004450E+02	  0.067958646	3.886000E+00	  0.067958646	2.187800E+01
298	  0.068154462	-7.154000E+00	  0.068154462	1.001990E+02	  0.068154462	3.861000E+00	  0.068154462	2.190800E+01
299	  0.068350263	-7.163000E+00	  0.068350263	9.996900E+01	  0.068350263	3.841000E+00	  0.068350263	2.193500E+01
300	  0.068546072	-7.161000E+00	  0.068546072	9.973200E+01	  0.068546072	3.825000E+00	  0.068546072	2.195900E+01
301	  0.068741873	-7.158000E+00	  0.068741873	9.945300E+01	  0.068741873	3.944000E+00	  0.068741873	2.219700E+01
302	  0.068937682	-7.158000E+00	  0.068937682	9.926700E+01	  0.068937682	3.918000E+00	  0.068937682	2.222700E+01
303	  0.069133483	-7.154000E+00	  0.069133483	9.900700E+01	  0.069133483	3.902000E+00	  0.069133483	2.225000E+01
304	  0.069329299	-7.150000E+00	  0.069329299	9.881300E+01	  0.069329299	3.877000E+00	  0.069329299	2.228500E+01
305	  0.069525100	-7.146000E+00	  0.069525100	9.859500E+01	  0.069525100	3.858000E+00	  0.069525100	2.230800E+01
306	  0.069720909	-7.150000E+00	  0.069720909	9.839300E+01	  0.069720909	3.989000E+00	  0.069720909	2.254000E+01
307	  0.069916710	-7.139000E+00	  0.069916710	9.816800E+01	  0.069916710	3.957000E+00	  0.069916710	2.257400E+01
308	  0.070112519	-7.140000E+00	  0.070112519	9.795900E+01	  0.070112519	3.931000E+00	  0.070112519	2.259700E+01
309	  0.070308320	-7.147000E+00	  0.070308320	9.781500E+01	  0.070308320	3.910000E+00	  0.070308320	2.262900E+01
310	  0.070504129	-7.149000E+00	  0.070504129	9.749100E+01	  0.070504129	3.887000E+00	  0.070504129	2.266200E+01
311	  0.070699938	-7.151000E+00	  0.070699938	9.734600E+01	  0.070699938	4.016000E+00	  0.070699938	2.289400E+01
312	  0.070895746	-7.148000E+00	  0.070895746	9.709800E+01	  0.070895746	3.986000E+00	  0.070895746	2.293000E+01
313	  0.071091555	-7.149000E+00	  0.071091555	9.687200E+01	  0.071091555	3.962000E+00	  0.071091555	2.296200E+01
314	  0.071287356	-7.151000E+00	  0.071287356	9.658900E+01	  0.071287356	3.942000E+00	  0.071287356	2.299300E+01
315	  0.071483165	-7.151000E+00	  0.071483165	9.635100E+01	  0.071483165	3.911000E+00	  0.071483165	2.302400E+01
316	  0.071678966	-7.151000E+00	  0.071678966	9.609400E+01	  0.071678966	4.035000E+00	  0.071678966	2.326400E+01
317	  0.071874775	-7.148000E+00	  0.071874775	9.593100E+01	  0.071874775	4.013000E+00	  0.071874775	2.330000E+01
318	  0.072070576	-7.149000E+00	  0.072070576	9.561800E+01	  0.072070576	3.983000E+00	  0.072070576	2.333300E+01
319	  0.072266392	-7.145000E+00	  0.072266392	9.543100E+01	  0.072266392	3.958000E+00	  0.072266392	2.336600E+01
320	  0.072462194	-7.148000E+00	  0.072462194	9.512400E+01	  0.072462194	3.889000E+00	  0.072462194	2.340400E+01
321	  0.072658002	-7.145000E+00	  0.072658002	9.495200E+01	  0.072658002	4.007000E+00	  0.072658002	2.365200E+01
322	  0.072853811	-7.141000E+00	  0.072853811	9.471100E+01	  0.072853811	3.979000E+00	  0.072853811	2.368700E+01
323	  0.073049612	-7.136000E+00	  0.073049612	9.445100E+01	  0.073049612	3.944000E+00	  0.073049612	2.372100E+01
324	  0.073245421	-7.133000E+00	  0.073245421	9.425400E+01	  0.073245421	3.923000E+00	  0.073245421	2.375800E+01
325	  0.073441222	-7.131000E+00	  0.073441222	9.407000E+01	  0.073441222	3.891000E+00	  0.073441222	2.379600E+01
326	  0.073637031	-7.131000E+00	  0.073637031	9.384400E+01	  0.073637031	3.861000E+00	  0.073637031	2.382300E+01
327	  0.073832840	-7.125000E+00	  0.073832840	9.361700E+01	  0.073832840	3.985000E+00	  0.073832840	2.407100E+01
328	  0.074028648	-7.123000E+00	  0.074028648	9.345500E+01	  0.074028648	3.954000E+00	  0.074028648	2.411100E+01
329	  0.074224450	-7.126000E+00	  0.074224450	9.323600E+01	  0.074224450	3.920000E+00	  0.074224450	2.414700E+01
330	  0.074420258	-7.123000E+00	  0.074420258	9.296700E+01	  0.074420258	3.890000E+00	  0.074420258	2.418100E+01
331	  0.074616060	-7.131000E+00	  0.074616060	9.279500E+01	  0.074616060	3.860000E+00	  0.074616060	2.421900E+01
332	  0.074811868	-7.120000E+00	  0.074811868	9.253100E+01	  0.074811868	3.970000E+00	  0.074811868	2.446900E+01
333	  0.075007670	-7.122000E+00	  0.075007670	9.232100E+01	  0.075007670	3.946000E+00	  0.075007670	2.450800E+01
334	  0.075203478	-7.127000E+00	  0.075203478	9.208700E+01	  0.075203478	3.914000E+00	  0.075203478	2.453900E+01
335	  0.075399294	-7.126000E+00	  0.075399294	9.185300E+01	  0.075399294	3.886000E+00	  0.075399294	2.457100E+01
336	  0.075595096	-7.130000E+00	  0.075595096	9.162000E+01	  0.075595096	3.864000E+00	  0.075595096	2.460100E+01
337	  0.075790904	-7.125000E+00	  0.075790904	9.140200E+01	  0.075790904	3.988000E+00	  0.075790904	2.485200E+01
338	  0.075986706	-7.121000E+00	  0.075986706	9.118400E+01	  0.075986706	3.957000E+00	  0.075986706	2.488300E+01
339	  0.076182514	-7.121000E+00	  0.076182514	9.094700E+01	  0.076182514	3.938000E+00	  0.076182514	2.491900E+01
340	  0.076378316	-7.111000E+00	  0.076378316	9.074400E+01	  0.076378316	3.908000E+00	  0.076378316	2.494700E+01
341	  0.076574124	-7.109000E+00	  0.076574124	9.050700E+01	  0.076574124	3.874000E+00	  0.076574124	2.498200E+01
342	  0.076769926	-7.108000E+00	  0.076769926	9.029500E+01	  0.076769926	4.004000E+00	  0.076769926	2.523200E+01
343	  0.076965742	-7.106000E+00	  0.076965742	9.008600E+01	  0.076965742	3.971000E+00	  0.076965742	2.526900E+01
344	  0.077161543	-7.106000E+00	  0.077161543	8.990600E+01	  0.077161543	3.935000E+00	  0.077161543	2.530600E+01
345	  0.077357352	-7.098000E+00	  0.077357352	8.969600E+01	  0.077357352	3.895000E+00	  0.077357352	2.534300E+01
346	  0.077553153	-7.099000E+00	  0.077553153	8.947700E+01	  0.077553153	3.859000E+00	  0.077553153	2.537900E+01
347	  0.077748962	-7.103000E+00	  0.077748962	8.930500E+01	  0.077748962	3.980000E+00	  0.077748962	2.563700E+01
348	  0.077944770	-7.102000E+00	  0.077944770	8.904600E+01	  0.077944770	3.948000E+00	  0.077944770	2.567800E+01
349	  0.078140572	-7.102000E+00	  0.078140572	8.883100E+01	  0.078140572	3.909000E+00	  0.078140572	2.571000E+01
350	  0.078336388	-7.101000E+00	  0.078336388	8.861500E+01	  0.078336388	3.872000E+00	  0.078336388	2.574600E+01
351	  0.078532189	-7.102000E+00	  0.078532189	8.836800E+01	  0.078532189	3.838000E+00	  0.078532189	2.578200E+01
352	  0.078727998	-7.108000E+00	  0.078727998	8.813400E+01	  0.078727998	3.961000E+00	  0.078727998	2.603700E+01
353	  0.078923799	-7.109000E+00	  0.078923799	8.789900E+01	  0.078923799	3.926000E+00	  0.078923799	2.607300E+01
354	  0.079119608	-7.107000E+00	  0.079119608	8.767400E+01	  0.079119608	3.892000E+00	  0.079119608	2.610800E+01
355	  0.079315409	-7.111000E+00	  0.079315409	8.745400E+01	  0.079315409	3.856000E+00	  0.079315409	2.614500E+01
356	  0.079511218	-7.112000E+00	  0.079511218	8.718800E+01	  0.079511218	3.823000E+00	  0.079511218	2.617700E+01
357	  0.079707019	-7.109000E+00	  0.079707019	8.695500E+01	  0.079707019	3.791000E+00	  0.079707019	2.621400E+01
358	  0.079902835	-7.106000E+00	  0.079902835	8.674300E+01	  0.079902835	3.905000E+00	  0.079902835	2.647300E+01
359	  0.080098644	-7.104000E+00	  0.080098644	8.648100E+01	  0.080098644	3.873000E+00	  0.080098644	2.650200E+01
360	  0.080294445	-7.096000E+00	  0.080294445	8.625900E+01	  0.080294445	3.842000E+00	  0.080294445	2.653900E+01
361	  0.080490254	-7.094000E+00	  0.080490254	8.609200E+01	  0.080490254	3.807000E+00	  0.080490254	2.657100E+01
362	  0.080686055	-7.095000E+00	  0.080686055	8.583300E+01	  0.080686055	3.772000E+00	  0.080686055	2.660300E+01
363	  0.080881864	-7.087000E+00	  0.080881864	8.560400E+01	  0.080881864	3.903000E+00	  0.080881864	2.685500E+01
364	  0.081077665	-7.085000E+00	  0.081077665	8.542900E+01	  0.081077665	3.874000E+00	  0.081077665	2.689500E+01
365	  0.081273474	-7.084000E+00	  0.081273474	8.518900E+01	  0.081273474	3.839000E+00	  0.081273474	2.692700E+01
366	  0.081469283	-7.084000E+00	  0.081469283	8.498900E+01	  0.081469283	3.808000E+00	  0.081469283	2.695700E+01
367	  0.081665091	-7.088000E+00	  0.081665091	8.479500E+01	  0.081665091	3.776000E+00	  0.081665091	2.698800E+01
368	  0.081860892	-7.085000E+00	  0.081860892	8.456700E+01	  0.081860892	3.905000E+00	  0.081860892	2.724400E+01
369	  0.082056701	-7.086000E+00	  0.082056701	8.440500E+01	  0.082056701	3.874000E+00	  0.082056701	2.727700E+01
370	  0.082252502	-7.082000E+00	  0.082252502	8.416500E+01	  0.082252502	3.839000E+00	  0.082252502	2.730800E+01
371	  0.082448311	-7.079000E+00	  0.082448311	8.394900E+01	  0.082448311	3.793000E+00	  0.082448311	2.734300E+01
372	  0.082644112	-7.078000E+00	  0.082644112	8.370500E+01	  0.082644112	3.761000E+00	  0.082644112	2.737900E+01
373	  0.082839929	-7.079000E+00	  0.082839929	8.351300E+01	  0.082839929	3.893000E+00	  0.082839929	2.763000E+01
374	  0.083035737	-7.075000E+00	  0.083035737	8.328400E+01	  0.083035737	3.854000E+00	  0.083035737	2.766500E+01
375	  0.083231539	-7.076000E+00	  0.083231539	8.305700E+01	  0.083231539	3.822000E+00	  0.083231539	2.770100E+01
376	  0.083427347	-7.077000E+00	  0.083427347	8.284300E+01	  0.083427347	3.785000E+00	  0.083427347	2.773400E+01
377	  0.083623149	-7.070000E+00	  0.083623149	8.264200E+01	  0.083623149	3.751000E+00	  0.083623149	2.776300E+01
378	  0.083818957	-7.069000E+00	  0.083818957	8.240800E+01	  0.083818957	3.882000E+00	  0.083818957	2.801800E+01
379	  0.084014758	-7.065000E+00	  0.084014758	8.219400E+01	  0.084014758	3.845000E+00	  0.084014758	2.805200E+01
380	  0.084210567	-7.070000E+00	  0.084210567	8.200400E+01	  0.084210567	3.816000E+00	  0.084210567	2.808700E+01
381	  0.084406376	-7.061000E+00	  0.084406376	8.183700E+01	  0.084406376	3.783000E+00	  0.084406376	2.811800E+01
382	  0.084602185	-7.062000E+00	  0.084602185	8.164300E+01	  0.084602185	3.750000E+00	  0.084602185	2.814800E+01
383	  0.084797986	-7.061000E+00	  0.084797986	8.142800E+01	  0.084797986	3.887000E+00	  0.084797986	2.840700E+01
384	  0.084993795	-7.060000E+00	  0.084993795	8.120700E+01	  0.084993795	3.852000E+00	  0.084993795	2.843600E+01
385	  0.085189603	-7.060000E+00	  0.085189603	8.101200E+01	  0.085189603	3.819000E+00	  0.085189603	2.846900E+01
386	  0.085385405	-7.064000E+00	  0.085385405	8.082300E+01	  0.085385405	3.789000E+00	  0.085385405	2.850200E+01
387	  0.085581213	-7.065000E+00	  0.085581213	8.060300E+01	  0.085581213	3.760000E+00	  0.085581213	2.852900E+01
388	  0.085777014	-7.067000E+00	  0.085777014	8.036000E+01	  0.085777014	3.897000E+00	  0.085777014	2.878500E+01
389	  0.085972831	-7.070000E+00	  0.085972831	8.015900E+01	  0.085972831	3.870000E+00	  0.085972831	2.881800E+01
390	  0.086168632	-7.065000E+00	  0.086168632	7.994000E+01	  0.086168632	3.840000E+00	  0.086168632	2.884800E+01
391	  0.086364441	-7.072000E+00	  0.086364441	7.975500E+01	  0.086364441	3.807000E+00	  0.086364441	2.888000E+01
392	  0.086560242	-7.068000E+00	  0.086560242	7.948000E+01	  0.086560242	3.782000E+00	  0.086560242	2.890500E+01
393	  0.086756051	-7.072000E+00	  0.086756051	7.929600E+01	  0.086756051	3.753000E+00	  0.086756051	2.893800E+01
394	  0.086951852	-7.067000E+00	  0.086951852	7.903300E+01	  0.086951852	3.890000E+00	  0.086951852	2.919500E+01
395	  0.087147661	-7.065000E+00	  0.087147661	7.882300E+01	  0.087147661	3.857000E+00	  0.087147661	2.922300E+01
396	  0.087343477	-7.066000E+00	  0.087343477	7.859800E+01	  0.087343477	3.824000E+00	  0.087343477	2.925600E+01
397	  0.087539278	-7.056000E+00	  0.087539278	7.840200E+01	  0.087539278	3.796000E+00	  0.087539278	2.928500E+01
398	  0.087735087	-7.055000E+00	  0.087735087	7.817400E+01	  0.087735087	3.766000E+00	  0.087735087	2.931400E+01
399	  0.087930888	-7.054000E+00	  0.087930888	7.800200E+01	  0.087930888	3.906000E+00	  0.087930888	2.957300E+01
400	  0.088126697	-7.052000E+00	  0.088126697	7.778600E+01	  0.088126697	3.880000E+00	  0.088126697	2.960600E+01
401	  0.088322498	-7.053000E+00	  0.088322498	7.759600E+01	  0.088322498	3.849000E+00	  0.088322498	2.963500E+01
402	  0.088518307	-7.050000E+00	  0.088518307	7.736800E+01	  0.088518307	3.829000E+00	  0.088518307	2.966700E+01
403	  0.088714108	-7.047000E+00	  0.088714108	7.717200E+01	  0.088714108	3.789000E+00	  0.088714108	2.969100E+01
404	  0.088909924	-7.052000E+00	  0.088909924	7.698200E+01	  0.088909924	3.937000E+00	  0.088909924	2.994700E+01
405	  0.089105725	-7.051000E+00	  0.089105725	7.675800E+01	  0.089105725	3.903000E+00	  0.089105725	2.998400E+01
406	  0.089301534	-7.053000E+00	  0.089301534	7.656800E+01	  0.089301534	3.885000E+00	  0.089301534	3.001100E+01
407	  0.089497335	-7.052000E+00	  0.089497335	7.634100E+01	  0.089497335	3.847000E+00	  0.089497335	3.005000E+01
408	  0.089693144	-7.052000E+00	  0.089693144	7.616000E+01	  0.089693144	3.823000E+00	  0.089693144	3.007400E+01
409	  0.089888945	-7.056000E+00	  0.089888945	7.592000E+01	  0.089888945	3.960000E+00	  0.089888945	3.033400E+01
410	  0.090084754	-7.049000E+00	  0.090084754	7.572900E+01	  0.090084754	3.935000E+00	  0.090084754	3.036400E+01
411	  0.090280563	-7.057000E+00	  0.090280563	7.548300E+01	  0.090280563	3.902000E+00	  0.090280563	3.040000E+01
412	  0.090476371	-7.051000E+00	  0.090476371	7.528600E+01	  0.090476371	3.873000E+00	  0.090476371	3.042100E+01
413	  0.090672180	-7.057000E+00	  0.090672180	7.506900E+01	  0.090672180	3.838000E+00	  0.090672180	3.045800E+01
414	  0.090867981	-7.050000E+00	  0.090867981	7.488400E+01	  0.090867981	3.986000E+00	  0.090867981	3.071600E+01
415	  0.091063790	-7.048000E+00	  0.091063790	7.466800E+01	  0.091063790	3.949000E+00	  0.091063790	3.075100E+01
416	  0.091259591	-7.047000E+00	  0.091259591	7.449100E+01	  0.091259591	3.926000E+00	  0.091259591	3.077800E+01
417	  0.091455400	-7.044000E+00	  0.091455400	7.426600E+01	  0.091455400	3.882000E+00	  0.091455400	3.081200E+01
418	  0.091651201	-7.047000E+00	  0.091651201	7.407200E+01	  0.091651201	3.863000E+00	  0.091651201	3.083800E+01
419	  0.091847017	-7.048000E+00	  0.091847017	7.390700E+01	  0.091847017	3.998000E+00	  0.091847017	3.110900E+01
420	  0.092042819	-7.045000E+00	  0.092042819	7.368200E+01	  0.092042819	3.969000E+00	  0.092042819	3.114000E+01
421	  0.092238627	-7.042000E+00	  0.092238627	7.348300E+01	  0.092238627	3.931000E+00	  0.092238627	3.116900E+01
422	  0.092434436	-7.045000E+00	  0.092434436	7.329500E+01	  0.092434436	3.898000E+00	  0.092434436	3.120300E+01
423	  0.092630237	-7.043000E+00	  0.092630237	7.303500E+01	  0.092630237	3.874000E+00	  0.092630237	3.122800E+01
424	  0.092826046	-7.050000E+00	  0.092826046	7.283600E+01	  0.092826046	3.839000E+00	  0.092826046	3.126000E+01
425	  0.093021847	-7.050000E+00	  0.093021847	7.265300E+01	  0.093021847	3.992000E+00	  0.093021847	3.152400E+01
426	  0.093217656	-7.054000E+00	  0.093217656	7.243100E+01	  0.093217656	3.956000E+00	  0.093217656	3.155900E+01
427	  0.093413465	-7.058000E+00	  0.093413465	7.222000E+01	  0.093413465	3.935000E+00	  0.093413465	3.158400E+01
428	  0.093609273	-7.064000E+00	  0.093609273	7.200000E+01	  0.093609273	3.897000E+00	  0.093609273	3.161700E+01
429	  0.093805075	-7.061000E+00	  0.093805075	7.173800E+01	  0.093805075	3.880000E+00	  0.093805075	3.164400E+01
430	  0.094000883	-7.057000E+00	  0.094000883	7.152800E+01	  0.094000883	4.014000E+00	  0.094000883	3.191200E+01
431	  0.094196685	-7.061000E+00	  0.094196685	7.130100E+01	  0.094196685	3.997000E+00	  0.094196685	3.193800E+01
432	  0.094392493	-7.062000E+00	  0.094392493	7.106900E+01	  0.094392493	3.962000E+00	  0.094392493	3.197200E+01
433	  0.094588295	-7.061000E+00	  0.094588295	7.086400E+01	  0.094588295	3.939000E+00	  0.094588295	3.199800E+01
434	  0.094784103	-7.065000E+00	  0.094784103	7.063600E+01	  0.094784103	3.910000E+00	  0.094784103	3.202700E+01
435	  0.094979919	-7.055000E+00	  0.094979919	7.042300E+01	  0.094979919	4.071000E+00	  0.094979919	3.229800E+01
436	  0.095175721	-7.053000E+00	  0.095175721	7.019800E+01	  0.095175721	4.036000E+00	  0.095175721	3.232600E+01
437	  0.095371529	-7.057000E+00	  0.095371529	6.995400E+01	  0.095371529	4.016000E+00	  0.095371529	3.235700E+01
438	  0.095567331	-7.054000E+00	  0.095567331	6.973500E+01	  0.095567331	3.988000E+00	  0.095567331	3.238100E+01
439	  0.095763139	-7.058000E+00	  0.095763139	6.953600E+01	  0.095763139	3.960000E+00	  0.095763139	3.240800E+01
440	  0.095958941	-7.052000E+00	  0.095958941	6.931000E+01	  0.095958941	4.115000E+00	  0.095958941	3.268300E+01
441	  0.096154749	-7.057000E+00	  0.096154749	6.909100E+01	  0.096154749	4.089000E+00	  0.096154749	3.271000E+01
442	  0.096350558	-7.057000E+00	  0.096350558	6.888400E+01	  0.096350558	4.064000E+00	  0.096350558	3.273900E+01
443	  0.096546367	-7.051000E+00	  0.096546367	6.861100E+01	  0.096546367	4.035000E+00	  0.096546367	3.276300E+01
444	  0.096742168	-7.056000E+00	  0.096742168	6.842600E+01	  0.096742168	4.013000E+00	  0.096742168	3.280000E+01
445	  0.096937977	-7.058000E+00	  0.096937977	6.818100E+01	  0.096937977	4.169000E+00	  0.096937977	3.307200E+01
446	  0.097133778	-7.058000E+00	  0.097133778	6.795900E+01	  0.097133778	4.146000E+00	  0.097133778	3.309900E+01
447	  0.097329587	-7.053000E+00	  0.097329587	6.775900E+01	  0.097329587	4.119000E+00	  0.097329587	3.312700E+01
448	  0.097525395	-7.051000E+00	  0.097525395	6.749500E+01	  0.097525395	4.094000E+00	  0.097525395	3.314700E+01
449	  0.097721197	-7.055000E+00	  0.097721197	6.729500E+01	  0.097721197	4.070000E+00	  0.097721197	3.318600E+01
450	  0.097917013	-7.051000E+00	  0.097917013	6.706800E+01	  0.097917013	4.232000E+00	  0.097917013	3.345200E+01
451	  0.098112814	-7.045000E+00	  0.098112814	6.687100E+01	  0.098112814	4.204000E+00	  0.098112814	3.348500E+01
452	  0.098308623	-7.050000E+00	  0.098308623	6.664300E+01	  0.098308623	4.183000E+00	  0.098308623	3.351500E+01
453	  0.098504424	-7.048000E+00	  0.098504424	6.642300E+01	  0.098504424	4.154000E+00	  0.098504424	3.354400E+01
454	  0.098700233	-7.046000E+00	  0.098700233	6.623900E+01	  0.098700233	4.139000E+00	  0.098700233	3.357000E+01
455	  0.098896034	-7.044000E+00	  0.098896034	6.601100E+01	  0.098896034	4.111000E+00	  0.098896034	3.359700E+01
456	  0.099091843	-7.048000E+00	  0.099091843	6.582300E+01	  0.099091843	4.270000E+00	  0.099091843	3.387300E+01
457	  0.099287644	-7.052000E+00	  0.099287644	6.555800E+01	  0.099287644	4.242000E+00	  0.099287644	3.390100E+01
458	  0.099483460	-7.049000E+00	  0.099483460	6.535000E+01	  0.099483460	4.218000E+00	  0.099483460	3.393200E+01
459	  0.099679269	-7.050000E+00	  0.099679269	6.517600E+01	  0.099679269	4.192000E+00	  0.099679269	3.396100E+01
460	  0.099875070	-7.057000E+00	  0.099875070	6.492100E+01	  0.099875070	5.915000E+00	  0.099875070	3.371100E+01
461	  0.100070879	-7.044000E+00	  0.100070879	6.471300E+01	  0.100070879	6.078000E+00	  0.100070879	3.400100E+01
462	  0.100266680	-7.053000E+00	  0.100266680	6.455300E+01	  0.100266680	6.007000E+00	  0.100266680	3.400900E+01
463	  0.100462489	-7.042000E+00	  0.100462489	6.435900E+01	  0.100462489	6.015000E+00	  0.100462489	3.411800E+01
464	  0.100658290	-7.055000E+00	  0.100658290	6.413400E+01	  0.100658290	5.958000E+00	  0.100658290	3.412400E+01
465	  0.100854106	-7.046000E+00	  0.100854106	6.388600E+01	  0.100854106	5.890000E+00	  0.100854106	3.413900E+01
466	  0.101049908	-7.053000E+00	  0.101049908	6.371700E+01	  0.101049908	6.060000E+00	  0.101049908	3.441500E+01
467	  0.101245716	-7.045000E+00	  0.101245716	6.346100E+01	  0.101245716	6.063000E+00	  0.101245716	3.452500E+01
468	  0.101441517	-7.055000E+00	  0.101441517	6.324200E+01	  0.101441517	6.018000E+00	  0.101441517	3.454000E+01
469	  0.101637326	-7.057000E+00	  0.101637326	6.299400E+01	  0.101637326	5.945000E+00	  0.101637326	3.455500E+01
470	  0.101833127	-7.048000E+00	  0.101833127	6.281100E+01	  0.101833127	5.965000E+00	  0.101833127	3.465300E+01
471	  0.102028936	-7.051000E+00	  0.102028936	6.256400E+01	  0.102028936	6.127000E+00	  0.102028936	3.493700E+01
472	  0.102224737	-7.047000E+00	  0.102224737	6.241900E+01	  0.102224737	6.072000E+00	  0.102224737	3.495700E+01
473	  0.102420554	-7.050000E+00	  0.102420554	6.215900E+01	  0.102420554	6.007000E+00	  0.102420554	3.496600E+01
474	  0.102616362	-7.042000E+00	  0.102616362	6.190100E+01	  0.102616362	6.023000E+00	  0.102616362	3.507300E+01
475	  0.102812164	-7.049000E+00	  0.102812164	6.172000E+01	  0.102812164	5.968000E+00	  0.102812164	3.508000E+01
476	  0.103007972	-7.049000E+00	  0.103007972	6.147800E+01	  0.103007972	6.133000E+00	  0.103007972	3.536700E+01
477	  0.103203773	-7.044000E+00	  0.103203773	6.129800E+01	  0.103203773	6.068000E+00	  0.103203773	3.538600E+01
478	  0.103399582	-7.049000E+00	  0.103399582	6.106100E+01	  0.103399582	6.089000E+00	  0.103399582	3.548300E+01
479	  0.103595383	-7.053000E+00	  0.103595383	6.080900E+01	  0.103595383	6.023000E+00	  0.103595383	3.550100E+01
480	  0.103791192	-7.055000E+00	  0.103791192	6.059700E+01	  0.103791192	5.971000E+00	  0.103791192	3.551600E+01
481	  0.103987001	-7.047000E+00	  0.103987001	6.040100E+01	  0.103987001	6.120000E+00	  0.103987001	3.580500E+01
482	  0.104182810	-7.042000E+00	  0.104182810	6.021700E+01	  0.104182810	6.148000E+00	  0.104182810	3.590400E+01
483	  0.104378611	-7.056000E+00	  0.104378611	5.996000E+01	  0.104378611	6.082000E+00	  0.104378611	3.592100E+01
484	  0.104574420	-7.035000E+00	  0.104574420	5.970700E+01	  0.104574420	6.045000E+00	  0.104574420	3.591600E+01
485	  0.104770228	-7.053000E+00	  0.104770228	5.949900E+01	  0.104770228	6.057000E+00	  0.104770228	3.602500E+01
486	  0.104966030	-7.044000E+00	  0.104966030	5.930500E+01	  0.104966030	6.003000E+00	  0.104966030	3.603400E+01
487	  0.105161838	-7.049000E+00	  0.105161838	5.905800E+01	  0.105161838	6.172000E+00	  0.105161838	3.632600E+01
488	  0.105357639	-7.047000E+00	  0.105357639	5.882300E+01	  0.105357639	6.110000E+00	  0.105357639	3.634600E+01
489	  0.105553456	-7.049000E+00	  0.105553456	5.867100E+01	  0.105553456	6.131000E+00	  0.105553456	3.643900E+01
490	  0.105749257	-7.048000E+00	  0.105749257	5.845100E+01	  0.105749257	6.060000E+00	  0.105749257	3.646600E+01
491	  0.105945066	-7.048000E+00	  0.105945066	5.816400E+01	  0.105945066	6.005000E+00	  0.105945066	3.646600E+01
492	  0.106140867	-7.045000E+00	  0.106140867	5.795400E+01	  0.106140867	6.164000E+00	  0.106140867	3.676100E+01
493	  0.106336676	-7.055000E+00	  0.106336676	5.775100E+01	  0.106336676	6.182000E+00	  0.106336676	3.686800E+01
494	  0.106532477	-7.047000E+00	  0.106532477	5.751600E+01	  0.106532477	6.116000E+00	  0.106532477	3.687900E+01
495	  0.106728286	-7.056000E+00	  0.106728286	5.728200E+01	  0.106728286	6.042000E+00	  0.106728286	3.689000E+01
496	  0.106924094	-7.049000E+00	  0.106924094	5.706800E+01	  0.106924094	6.060000E+00	  0.106924094	3.700400E+01
497	  0.107119903	-7.053000E+00	  0.107119903	5.686600E+01	  0.107119903	6.217000E+00	  0.107119903	3.729600E+01
498	  0.107315712	-7.048000E+00	  0.107315712	5.660400E+01	  0.107315712	6.166000E+00	  0.107315712	3.731000E+01
499	  0.107511513	-7.049000E+00	  0.107511513	5.641700E+01	  0.107511513	6.084000E+00	  0.107511513	3.732500E+01
500	  0.107707322	-7.048000E+00	  0.107707322	5.617800E+01	  0.107707322	6.087000E+00	  0.107707322	3.742200E+01
501	  0.107903123	-7.050000E+00	  0.107903123	5.596700E+01	  0.107903123	6.036000E+00	  0.107903123	3.744000E+01
