! Anritsu VNA Master:             	Model: MS2036C/10/77
! SN:             	1601066
! /card0/usr/255.ew.n.r20.2_1.txt
! Existing Calibration Information:
! TYPE:             	Current Settings	Active Cal Settings
! TIME:             	12/17/2017 06:52:35 PM	12/17/2017 06:38:14 PM
! INTERNAL TEMP:    	43.0 C	43.8 C
! # POINTS:         	501	501
! START FREQ:       	10.000 MHz	10.000 MHz
! STOP FREQ:        	107.903 125 MHz	107.903 125 MHz
! SOURCE POWER:     	High	High
! IFBW:             	100 Hz	100 Hz
! AVG FACTOR:       	  1 	  1 
! REF PLANE 1:      	0 mm	0 mm
! REF PLANE 2:      	0 mm	0 mm
! CAL TYPE:         	Full S11	Full S11
! CAL METHOD:       	SOLT	SOLT
! CAL LINE TYPE:    	Coax	Coax
! DUT PORT 1:       	N-Conn(F)	N-Conn(F)
! DUT PORT 2:       	K-Conn(F)	K-Conn(F)
! CAL STATUS:       	OK: Accuracy High	--
! PROP-V:       	0.700
! CABLE LOSS:       	0.000 dB/m
! REF IMPEDANCE:       	50.0
! Trace Specific Parameters:	TR1	TR2	TR3	TR4
! TRACE.#.Y (GRAPH TYPE)	LOG MAG	PHASE	REAL IMPEDANCE	IMAGINARY IMPEDANCE
! TRACE.#.X 	FREQ.GHZ	FREQ.GHZ	FREQ.GHZ	FREQ.GHZ
! S-PARAMETER	S11	S11	S11	S11
! SMOOTH/APERTURE %	0	0	0	0
! WINDOW	NSL	NSL	NSL	NSL
! GATING	OFF	OFF	OFF	OFF
! FGTD	OFF	OFF	OFF	OFF
Marker Information per Trace:	TR1	TR2	TR3	TR4
!MK1	--	--	--	--
!MK2	--	--	--	--
!MK3	--	--	--	--
!MK4	--	--	--	--
!MK5	--	--	--	--
!MK6	--	--	--	--
!MK7	--	--	--	--
!MK8	--	--	--	--
PNT	TR1.FREQ.GHZ	TR1.LOG MAG.dB	TR2.FREQ.GHZ	TR2.PHASE.deg	TR3.FREQ.GHZ	TR3.REAL IMPEDANCE.ohm	TR4.FREQ.GHZ	TR4.IMAGINARY IMPEDANCE.ohm
1	  0.010000000	-7.252000E+00	  0.010000000	1.666220E+02	  0.010000000	1.996900E+01	  0.010000000	4.939000E+00
2	  0.010195807	-7.242000E+00	  0.010195807	1.663640E+02	  0.010195807	1.995300E+01	  0.010195807	5.037000E+00
3	  0.010391613	-7.241000E+00	  0.010391613	1.660860E+02	  0.010391613	1.996000E+01	  0.010391613	5.140000E+00
4	  0.010587418	-7.242000E+00	  0.010587418	1.658010E+02	  0.010587418	1.997200E+01	  0.010587418	5.246000E+00
5	  0.010783225	-7.240000E+00	  0.010783225	1.655210E+02	  0.010783225	1.997900E+01	  0.010783225	5.350000E+00
6	  0.010979031	-7.244000E+00	  0.010979031	1.652170E+02	  0.010979031	1.999900E+01	  0.010979031	5.462000E+00
7	  0.011174837	-7.245000E+00	  0.011174837	1.649180E+02	  0.011174837	2.001300E+01	  0.011174837	5.573000E+00
8	  0.011370643	-7.241000E+00	  0.011370643	1.646570E+02	  0.011370643	2.001400E+01	  0.011370643	5.671000E+00
9	  0.011566450	-7.249000E+00	  0.011566450	1.643630E+02	  0.011566450	2.004700E+01	  0.011566450	5.779000E+00
10	  0.011762256	-7.241000E+00	  0.011762256	1.641060E+02	  0.011762256	2.003700E+01	  0.011762256	5.876000E+00
11	  0.011958062	-7.241000E+00	  0.011958062	1.638040E+02	  0.011958062	2.005000E+01	  0.011958062	5.989000E+00
12	  0.012153869	-7.241000E+00	  0.012153869	1.635570E+02	  0.012153869	2.006000E+01	  0.012153869	6.081000E+00
13	  0.012349674	-7.238000E+00	  0.012349674	1.632710E+02	  0.012349674	2.006500E+01	  0.012349674	6.188000E+00
14	  0.012545481	-7.237000E+00	  0.012545481	1.630170E+02	  0.012545481	2.007300E+01	  0.012545481	6.283000E+00
15	  0.012741288	-7.237000E+00	  0.012741288	1.627500E+02	  0.012741288	2.008600E+01	  0.012741288	6.383000E+00
16	  0.012937094	-7.237000E+00	  0.012937094	1.625640E+02	  0.012937094	2.009400E+01	  0.012937094	6.452000E+00
17	  0.013132900	-7.240000E+00	  0.013132900	1.622850E+02	  0.013132900	2.011500E+01	  0.013132900	6.555000E+00
18	  0.013328707	-7.242000E+00	  0.013328707	1.620580E+02	  0.013328707	2.012900E+01	  0.013328707	6.639000E+00
19	  0.013524513	-7.239000E+00	  0.013524513	1.618310E+02	  0.013524513	2.013200E+01	  0.013524513	6.725000E+00
20	  0.013720319	-7.236000E+00	  0.013720319	1.615890E+02	  0.013720319	2.013600E+01	  0.013720319	6.816000E+00
21	  0.013916126	-7.237000E+00	  0.013916126	1.613370E+02	  0.013916126	2.015000E+01	  0.013916126	6.911000E+00
22	  0.014111931	-7.244000E+00	  0.014111931	1.611370E+02	  0.014111931	2.017800E+01	  0.014111931	6.983000E+00
23	  0.014307737	-7.244000E+00	  0.014307737	1.608850E+02	  0.014307737	2.019000E+01	  0.014307737	7.077000E+00
24	  0.014503544	-7.247000E+00	  0.014503544	1.606520E+02	  0.014503544	2.020900E+01	  0.014503544	7.163000E+00
25	  0.014699350	-7.252000E+00	  0.014699350	1.603730E+02	  0.014699350	2.023700E+01	  0.014699350	7.266000E+00
26	  0.014895156	-7.254000E+00	  0.014895156	1.601310E+02	  0.014895156	2.025500E+01	  0.014895156	7.356000E+00
27	  0.015090963	-7.260000E+00	  0.015090963	1.598730E+02	  0.015090963	2.028300E+01	  0.015090963	7.450000E+00
28	  0.015286769	-7.264000E+00	  0.015286769	1.596300E+02	  0.015286769	2.030600E+01	  0.015286769	7.540000E+00
29	  0.015482575	-7.267000E+00	  0.015482575	1.593490E+02	  0.015482575	2.032800E+01	  0.015482575	7.644000E+00
30	  0.015678382	-7.275000E+00	  0.015678382	1.590900E+02	  0.015678382	2.036200E+01	  0.015678382	7.738000E+00
31	  0.015874187	-7.277000E+00	  0.015874187	1.588060E+02	  0.015874187	2.038200E+01	  0.015874187	7.844000E+00
32	  0.016069993	-7.283000E+00	  0.016069993	1.585390E+02	  0.016069993	2.041100E+01	  0.016069993	7.942000E+00
33	  0.016265800	-7.285000E+00	  0.016265800	1.582980E+02	  0.016265800	2.043100E+01	  0.016265800	8.031000E+00
34	  0.016461605	-7.288000E+00	  0.016461605	1.579970E+02	  0.016461605	2.045600E+01	  0.016461605	8.142000E+00
35	  0.016657412	-7.285000E+00	  0.016657412	1.577260E+02	  0.016657412	2.046500E+01	  0.016657412	8.245000E+00
36	  0.016853219	-7.285000E+00	  0.016853219	1.574550E+02	  0.016853219	2.048000E+01	  0.016853219	8.347000E+00
37	  0.017049024	-7.287000E+00	  0.017049024	1.571480E+02	  0.017049024	2.050300E+01	  0.017049024	8.462000E+00
38	  0.017244833	-7.287000E+00	  0.017244833	1.568810E+02	  0.017244833	2.052000E+01	  0.017244833	8.562000E+00
39	  0.017440638	-7.288000E+00	  0.017440638	1.566090E+02	  0.017440638	2.053800E+01	  0.017440638	8.664000E+00
40	  0.017636444	-7.286000E+00	  0.017636444	1.563070E+02	  0.017636444	2.055300E+01	  0.017636444	8.778000E+00
41	  0.017832249	-7.288000E+00	  0.017832249	1.560360E+02	  0.017832249	2.057400E+01	  0.017832249	8.879000E+00
42	  0.018028056	-7.287000E+00	  0.018028056	1.557450E+02	  0.018028056	2.059100E+01	  0.018028056	8.989000E+00
43	  0.018223861	-7.284000E+00	  0.018223861	1.554760E+02	  0.018223861	2.060200E+01	  0.018223861	9.091000E+00
44	  0.018419670	-7.282000E+00	  0.018419670	1.552340E+02	  0.018419670	2.061200E+01	  0.018419670	9.184000E+00
45	  0.018615475	-7.284000E+00	  0.018615475	1.549940E+02	  0.018615475	2.063200E+01	  0.018615475	9.274000E+00
46	  0.018811282	-7.282000E+00	  0.018811282	1.547120E+02	  0.018811282	2.064700E+01	  0.018811282	9.380000E+00
47	  0.019007087	-7.279000E+00	  0.019007087	1.544640E+02	  0.019007087	2.065600E+01	  0.019007087	9.475000E+00
48	  0.019202894	-7.274000E+00	  0.019202894	1.542330E+02	  0.019202894	2.066100E+01	  0.019202894	9.565000E+00
49	  0.019398699	-7.274000E+00	  0.019398699	1.539950E+02	  0.019398699	2.067500E+01	  0.019398699	9.655000E+00
50	  0.019594505	-7.277000E+00	  0.019594505	1.537610E+02	  0.019594505	2.070000E+01	  0.019594505	9.742000E+00
51	  0.019790314	-7.278000E+00	  0.019790314	1.535130E+02	  0.019790314	2.072100E+01	  0.019790314	9.835000E+00
52	  0.019986119	-7.276000E+00	  0.019986119	1.532580E+02	  0.019986119	2.073400E+01	  0.019986119	9.933000E+00
53	  0.020181926	-7.274000E+00	  0.020181926	1.530360E+02	  0.020181926	2.074500E+01	  0.020181926	1.001800E+01
54	  0.020377731	-7.277000E+00	  0.020377731	1.527750E+02	  0.020377731	2.077000E+01	  0.020377731	1.011500E+01
55	  0.020573538	-7.274000E+00	  0.020573538	1.525590E+02	  0.020573538	2.078000E+01	  0.020573538	1.019900E+01
56	  0.020769343	-7.274000E+00	  0.020769343	1.523030E+02	  0.020769343	2.079800E+01	  0.020769343	1.029500E+01
57	  0.020965151	-7.276000E+00	  0.020965151	1.520510E+02	  0.020965151	2.082200E+01	  0.020965151	1.039000E+01
58	  0.021160956	-7.278000E+00	  0.021160956	1.517970E+02	  0.021160956	2.084600E+01	  0.021160956	1.048600E+01
59	  0.021356763	-7.284000E+00	  0.021356763	1.515490E+02	  0.021356763	2.088000E+01	  0.021356763	1.057700E+01
60	  0.021552568	-7.286000E+00	  0.021552568	1.512830E+02	  0.021552568	2.090700E+01	  0.021552568	1.067700E+01
61	  0.021748375	-7.288000E+00	  0.021748375	1.510510E+02	  0.021748375	2.092900E+01	  0.021748375	1.076400E+01
62	  0.021944180	-7.294000E+00	  0.021944180	1.507960E+02	  0.021944180	2.096500E+01	  0.021944180	1.085700E+01
63	  0.022139989	-7.302000E+00	  0.022139989	1.505310E+02	  0.022139989	2.100500E+01	  0.022139989	1.095400E+01
64	  0.022335794	-7.303000E+00	  0.022335794	1.502550E+02	  0.022335794	2.103000E+01	  0.022335794	1.105900E+01
65	  0.022531601	-7.307000E+00	  0.022531601	1.500030E+02	  0.022531601	2.106200E+01	  0.022531601	1.115200E+01
66	  0.022727406	-7.306000E+00	  0.022727406	1.497030E+02	  0.022727406	2.108300E+01	  0.022727406	1.126700E+01
67	  0.022923212	-7.310000E+00	  0.022923212	1.494440E+02	  0.022923212	2.111400E+01	  0.022923212	1.136400E+01
68	  0.023119017	-7.307000E+00	  0.023119017	1.491310E+02	  0.023119017	2.113500E+01	  0.023119017	1.148500E+01
69	  0.023314826	-7.305000E+00	  0.023314826	1.488530E+02	  0.023314826	2.115300E+01	  0.023314826	1.159200E+01
70	  0.023510631	-7.308000E+00	  0.023510631	1.485880E+02	  0.023510631	2.118200E+01	  0.023510631	1.169200E+01
71	  0.023706438	-7.307000E+00	  0.023706438	1.482860E+02	  0.023706438	2.120700E+01	  0.023706438	1.180700E+01
72	  0.023902243	-7.301000E+00	  0.023902243	1.480110E+02	  0.023902243	2.121600E+01	  0.023902243	1.191600E+01
73	  0.024098050	-7.299000E+00	  0.024098050	1.477140E+02	  0.024098050	2.123800E+01	  0.024098050	1.203000E+01
74	  0.024293855	-7.295000E+00	  0.024293855	1.474370E+02	  0.024293855	2.125200E+01	  0.024293855	1.213900E+01
75	  0.024489662	-7.289000E+00	  0.024489662	1.471640E+02	  0.024489662	2.126100E+01	  0.024489662	1.224700E+01
76	  0.024685470	-7.285000E+00	  0.024685470	1.468770E+02	  0.024685470	2.127800E+01	  0.024685470	1.236000E+01
77	  0.024881275	-7.284000E+00	  0.024881275	1.466160E+02	  0.024881275	2.130000E+01	  0.024881275	1.246100E+01
78	  0.025077082	-7.276000E+00	  0.025077082	1.463880E+02	  0.025077082	2.130000E+01	  0.025077082	1.255300E+01
79	  0.025272887	-7.273000E+00	  0.025272887	1.461700E+02	  0.025272887	2.131300E+01	  0.025272887	1.263900E+01
80	  0.025468694	-7.270000E+00	  0.025468694	1.459750E+02	  0.025468694	2.132400E+01	  0.025468694	1.271600E+01
81	  0.025664499	-7.274000E+00	  0.025664499	1.457520E+02	  0.025664499	2.135500E+01	  0.025664499	1.280000E+01
82	  0.025860308	-7.268000E+00	  0.025860308	1.455380E+02	  0.025860308	2.136000E+01	  0.025860308	1.288600E+01
83	  0.026056113	-7.269000E+00	  0.026056113	1.453520E+02	  0.026056113	2.138000E+01	  0.026056113	1.295700E+01
84	  0.026251920	-7.268000E+00	  0.026251920	1.451540E+02	  0.026251920	2.139800E+01	  0.026251920	1.303400E+01
85	  0.026447725	-7.275000E+00	  0.026447725	1.449340E+02	  0.026447725	2.143600E+01	  0.026447725	1.311500E+01
86	  0.026643531	-7.276000E+00	  0.026643531	1.447470E+02	  0.026643531	2.145800E+01	  0.026643531	1.318600E+01
87	  0.026839336	-7.278000E+00	  0.026839336	1.445310E+02	  0.026839336	2.148500E+01	  0.026839336	1.326800E+01
88	  0.027035145	-7.283000E+00	  0.027035145	1.442970E+02	  0.027035145	2.151900E+01	  0.027035145	1.335600E+01
89	  0.027230950	-7.285000E+00	  0.027230950	1.440480E+02	  0.027230950	2.155100E+01	  0.027230950	1.345000E+01
90	  0.027426757	-7.285000E+00	  0.027426757	1.438450E+02	  0.027426757	2.157000E+01	  0.027426757	1.352900E+01
91	  0.027622562	-7.286000E+00	  0.027622562	1.435830E+02	  0.027622562	2.160100E+01	  0.027622562	1.362900E+01
92	  0.027818369	-7.291000E+00	  0.027818369	1.433460E+02	  0.027818369	2.163800E+01	  0.027818369	1.371800E+01
93	  0.028014174	-7.299000E+00	  0.028014174	1.430920E+02	  0.028014174	2.168400E+01	  0.028014174	1.381100E+01
94	  0.028209982	-7.305000E+00	  0.028209982	1.428490E+02	  0.028209982	2.172400E+01	  0.028209982	1.390100E+01
95	  0.028405787	-7.310000E+00	  0.028405787	1.426130E+02	  0.028405787	2.176300E+01	  0.028405787	1.398900E+01
96	  0.028601594	-7.316000E+00	  0.028601594	1.423640E+02	  0.028601594	2.180600E+01	  0.028601594	1.408100E+01
97	  0.028797399	-7.325000E+00	  0.028797399	1.421380E+02	  0.028797399	2.185300E+01	  0.028797399	1.416300E+01
98	  0.028993206	-7.330000E+00	  0.028993206	1.419080E+02	  0.028993206	2.189000E+01	  0.028993206	1.424800E+01
99	  0.029189013	-7.334000E+00	  0.029189013	1.416520E+02	  0.029189013	2.192800E+01	  0.029189013	1.434500E+01
100	  0.029384818	-7.344000E+00	  0.029384818	1.414060E+02	  0.029384818	2.198100E+01	  0.029384818	1.443300E+01
101	  0.029580627	-7.350000E+00	  0.029580627	1.411390E+02	  0.029580627	2.202600E+01	  0.029580627	1.453300E+01
102	  0.029776432	-7.359000E+00	  0.029776432	1.408470E+02	  0.029776432	2.208100E+01	  0.029776432	1.464000E+01
103	  0.029972238	-7.367000E+00	  0.029972238	1.404940E+02	  0.029972238	2.214400E+01	  0.029972238	1.477000E+01
104	  0.030168043	-7.372000E+00	  0.030168043	1.401880E+02	  0.030168043	2.219100E+01	  0.030168043	1.488500E+01
105	  0.030363850	-7.377000E+00	  0.030363850	1.398450E+02	  0.030363850	2.224200E+01	  0.030363850	1.501500E+01
106	  0.030559655	-7.381000E+00	  0.030559655	1.394400E+02	  0.030559655	2.230000E+01	  0.030559655	1.517000E+01
107	  0.030755464	-7.378000E+00	  0.030755464	1.391140E+02	  0.030755464	2.233200E+01	  0.030755464	1.529900E+01
108	  0.030951269	-7.379000E+00	  0.030951269	1.387620E+02	  0.030951269	2.237600E+01	  0.030951269	1.543600E+01
109	  0.031147076	-7.369000E+00	  0.031147076	1.384540E+02	  0.031147076	2.238900E+01	  0.031147076	1.556400E+01
110	  0.031342883	-7.364000E+00	  0.031342883	1.380950E+02	  0.031342883	2.242000E+01	  0.031342883	1.570900E+01
111	  0.031538688	-7.362000E+00	  0.031538688	1.377790E+02	  0.031538688	2.245200E+01	  0.031538688	1.583500E+01
112	  0.031734493	-7.354000E+00	  0.031734493	1.374350E+02	  0.031734493	2.247600E+01	  0.031734493	1.597600E+01
113	  0.031930301	-7.342000E+00	  0.031930301	1.371250E+02	  0.031930301	2.248400E+01	  0.031930301	1.610800E+01
114	  0.032126106	-7.335000E+00	  0.032126106	1.368040E+02	  0.032126106	2.250400E+01	  0.032126106	1.624000E+01
115	  0.032321911	-7.320000E+00	  0.032321911	1.365270E+02	  0.032321911	2.250300E+01	  0.032321911	1.636200E+01
116	  0.032517716	-7.303000E+00	  0.032517716	1.362680E+02	  0.032517716	2.249200E+01	  0.032517716	1.647900E+01
117	  0.032713525	-7.290000E+00	  0.032713525	1.360570E+02	  0.032713525	2.248500E+01	  0.032713525	1.657300E+01
118	  0.032909330	-7.277000E+00	  0.032909330	1.358310E+02	  0.032909330	2.248000E+01	  0.032909330	1.667400E+01
119	  0.033105139	-7.268000E+00	  0.033105139	1.356360E+02	  0.033105139	2.248200E+01	  0.033105139	1.675900E+01
120	  0.033300944	-7.262000E+00	  0.033300944	1.354600E+02	  0.033300944	2.248900E+01	  0.033300944	1.683500E+01
121	  0.033496749	-7.258000E+00	  0.033496749	1.352950E+02	  0.033496749	2.250000E+01	  0.033496749	1.690400E+01
122	  0.033692554	-7.254000E+00	  0.033692554	1.351070E+02	  0.033692554	2.251600E+01	  0.033692554	1.698200E+01
123	  0.033888362	-7.254000E+00	  0.033888362	1.349120E+02	  0.033888362	2.254200E+01	  0.033888362	1.705900E+01
124	  0.034084171	-7.256000E+00	  0.034084171	1.346820E+02	  0.034084171	2.257800E+01	  0.034084171	1.715000E+01
125	  0.034279976	-7.254000E+00	  0.034279976	1.344590E+02	  0.034279976	2.260400E+01	  0.034279976	1.724000E+01
126	  0.034475781	-7.253000E+00	  0.034475781	1.342290E+02	  0.034475781	2.263100E+01	  0.034475781	1.733300E+01
127	  0.034671586	-7.259000E+00	  0.034671586	1.340240E+02	  0.034671586	2.267600E+01	  0.034671586	1.740900E+01
128	  0.034867391	-7.265000E+00	  0.034867391	1.338180E+02	  0.034867391	2.271900E+01	  0.034867391	1.748600E+01
129	  0.035063203	-7.262000E+00	  0.035063203	1.335960E+02	  0.035063203	2.274300E+01	  0.035063203	1.757700E+01
130	  0.035259008	-7.266000E+00	  0.035259008	1.333470E+02	  0.035259008	2.278700E+01	  0.035259008	1.767400E+01
131	  0.035454813	-7.264000E+00	  0.035454813	1.331650E+02	  0.035454813	2.280800E+01	  0.035454813	1.774900E+01
132	  0.035650618	-7.267000E+00	  0.035650618	1.329170E+02	  0.035650618	2.285200E+01	  0.035650618	1.784500E+01
133	  0.035846427	-7.266000E+00	  0.035846427	1.326760E+02	  0.035846427	2.288200E+01	  0.035846427	1.794300E+01
134	  0.036042232	-7.262000E+00	  0.036042232	1.324400E+02	  0.036042232	2.290700E+01	  0.036042232	1.804100E+01
135	  0.036238037	-7.266000E+00	  0.036238037	1.322170E+02	  0.036238037	2.294900E+01	  0.036238037	1.812700E+01
136	  0.036433842	-7.264000E+00	  0.036433842	1.319950E+02	  0.036433842	2.297600E+01	  0.036433842	1.821900E+01
137	  0.036629651	-7.261000E+00	  0.036629651	1.317910E+02	  0.036629651	2.299800E+01	  0.036629651	1.830300E+01
138	  0.036825456	-7.266000E+00	  0.036825456	1.315500E+02	  0.036825456	2.304900E+01	  0.036825456	1.839500E+01
139	  0.037021261	-7.273000E+00	  0.037021261	1.313540E+02	  0.037021261	2.309600E+01	  0.037021261	1.846700E+01
140	  0.037217066	-7.282000E+00	  0.037217066	1.310940E+02	  0.037217066	2.315700E+01	  0.037217066	1.856300E+01
141	  0.037412878	-7.286000E+00	  0.037412878	1.308230E+02	  0.037412878	2.320900E+01	  0.037412878	1.866800E+01
142	  0.037608683	-7.289000E+00	  0.037608683	1.305490E+02	  0.037608683	2.326000E+01	  0.037608683	1.877500E+01
143	  0.037804488	-7.301000E+00	  0.037804488	1.302850E+02	  0.037804488	2.333200E+01	  0.037804488	1.887000E+01
144	  0.038000293	-7.301000E+00	  0.038000293	1.299880E+02	  0.038000293	2.337800E+01	  0.038000293	1.899000E+01
145	  0.038196102	-7.310000E+00	  0.038196102	1.297510E+02	  0.038196102	2.343900E+01	  0.038196102	1.907600E+01
146	  0.038391907	-7.314000E+00	  0.038391907	1.294430E+02	  0.038391907	2.349800E+01	  0.038391907	1.919600E+01
147	  0.038587712	-7.315000E+00	  0.038587712	1.291470E+02	  0.038587712	2.354700E+01	  0.038587712	1.931500E+01
148	  0.038783520	-7.317000E+00	  0.038783520	1.288780E+02	  0.038783520	2.359400E+01	  0.038783520	1.942200E+01
149	  0.038979325	-7.313000E+00	  0.038979325	1.285750E+02	  0.038979325	2.363200E+01	  0.038979325	1.955000E+01
150	  0.039175130	-7.312000E+00	  0.039175130	1.283330E+02	  0.039175130	2.366800E+01	  0.039175130	1.964900E+01
151	  0.039370935	-7.304000E+00	  0.039370935	1.280510E+02	  0.039370935	2.369400E+01	  0.039370935	1.977200E+01
152	  0.039566744	-7.300000E+00	  0.039566744	1.277930E+02	  0.039566744	2.372500E+01	  0.039566744	1.988100E+01
153	  0.039762549	-7.293000E+00	  0.039762549	1.275010E+02	  0.039762549	2.375400E+01	  0.039762549	2.000800E+01
154	  0.039958358	-7.281000E+00	  0.039958358	1.272590E+02	  0.039958358	2.376300E+01	  0.039958358	2.012000E+01
155	  0.040154163	-7.273000E+00	  0.040154163	1.270540E+02	  0.040154163	2.377600E+01	  0.040154163	2.021200E+01
156	  0.040349972	-7.265000E+00	  0.040349972	1.268580E+02	  0.040349972	2.378700E+01	  0.040349972	2.030100E+01
157	  0.040545776	-7.267000E+00	  0.040545776	1.266550E+02	  0.040545776	2.382800E+01	  0.040545776	2.038200E+01
158	  0.040741581	-7.262000E+00	  0.040741581	1.264900E+02	  0.040741581	2.384100E+01	  0.040741581	2.045500E+01
159	  0.040937386	-7.272000E+00	  0.040937386	1.263180E+02	  0.040937386	2.389800E+01	  0.040937386	2.051500E+01
160	  0.041133195	-7.279000E+00	  0.041133195	1.261300E+02	  0.041133195	2.395000E+01	  0.041133195	2.058300E+01
161	  0.041329000	-7.283000E+00	  0.041329000	1.259260E+02	  0.041329000	2.399300E+01	  0.041329000	2.066300E+01
162	  0.041524805	-7.298000E+00	  0.041524805	1.257040E+02	  0.041524805	2.407500E+01	  0.041524805	2.073600E+01
163	  0.041720610	-7.307000E+00	  0.041720610	1.254870E+02	  0.041720610	2.413500E+01	  0.041720610	2.081600E+01
164	  0.041916419	-7.320000E+00	  0.041916419	1.252030E+02	  0.041916419	2.422000E+01	  0.041916419	2.091800E+01
165	  0.042112224	-7.328000E+00	  0.042112224	1.249400E+02	  0.042112224	2.428800E+01	  0.042112224	2.101600E+01
166	  0.042308029	-7.333000E+00	  0.042308029	1.246670E+02	  0.042308029	2.435200E+01	  0.042308029	2.112200E+01
167	  0.042503837	-7.342000E+00	  0.042503837	1.243750E+02	  0.042503837	2.442900E+01	  0.042503837	2.123100E+01
168	  0.042699646	-7.348000E+00	  0.042699646	1.241130E+02	  0.042699646	2.449200E+01	  0.042699646	2.133200E+01
169	  0.042895451	-7.350000E+00	  0.042895451	1.237890E+02	  0.042895451	2.455600E+01	  0.042895451	2.146300E+01
170	  0.043091256	-7.353000E+00	  0.043091256	1.234850E+02	  0.043091256	2.462300E+01	  0.043091256	2.158400E+01
171	  0.043287061	-7.351000E+00	  0.043287061	1.231540E+02	  0.043287061	2.467700E+01	  0.043287061	2.172300E+01
172	  0.043482870	-7.351000E+00	  0.043482870	1.228340E+02	  0.043482870	2.473800E+01	  0.043482870	2.185500E+01
173	  0.043678675	-7.352000E+00	  0.043678675	1.225530E+02	  0.043678675	2.479300E+01	  0.043678675	2.197000E+01
174	  0.043874480	-7.352000E+00	  0.043874480	1.222300E+02	  0.043874480	2.485700E+01	  0.043874480	2.210300E+01
175	  0.044070289	-7.351000E+00	  0.044070289	1.219570E+02	  0.044070289	2.490600E+01	  0.044070289	2.221700E+01
176	  0.044266094	-7.357000E+00	  0.044266094	1.216340E+02	  0.044266094	2.498400E+01	  0.044266094	2.234400E+01
177	  0.044461899	-7.354000E+00	  0.044461899	1.213260E+02	  0.044461899	2.503600E+01	  0.044461899	2.247500E+01
178	  0.044657703	-7.354000E+00	  0.044657703	1.210180E+02	  0.044657703	2.509800E+01	  0.044657703	2.260300E+01
179	  0.044853516	-7.357000E+00	  0.044853516	1.206640E+02	  0.044853516	2.517600E+01	  0.044853516	2.274700E+01
180	  0.045049321	-7.357000E+00	  0.045049321	1.203160E+02	  0.045049321	2.524700E+01	  0.045049321	2.289100E+01
181	  0.045245126	-7.353000E+00	  0.045245126	1.200020E+02	  0.045245126	2.529900E+01	  0.045245126	2.302800E+01
182	  0.045440931	-7.348000E+00	  0.045440931	1.196790E+02	  0.045440931	2.535200E+01	  0.045440931	2.316800E+01
183	  0.045636740	-7.342000E+00	  0.045636740	1.193440E+02	  0.045636740	2.540400E+01	  0.045636740	2.331700E+01
184	  0.045832545	-7.328000E+00	  0.045832545	1.190700E+02	  0.045832545	2.542300E+01	  0.045832545	2.345100E+01
185	  0.046028350	-7.319000E+00	  0.046028350	1.187710E+02	  0.046028350	2.546000E+01	  0.046028350	2.358900E+01
186	  0.046224155	-7.309000E+00	  0.046224155	1.184440E+02	  0.046224155	2.550000E+01	  0.046224155	2.374100E+01
187	  0.046419963	-7.299000E+00	  0.046419963	1.181750E+02	  0.046419963	2.553000E+01	  0.046419963	2.386800E+01
188	  0.046615768	-7.278000E+00	  0.046615768	1.179180E+02	  0.046615768	2.552700E+01	  0.046615768	2.400600E+01
189	  0.046811573	-7.264000E+00	  0.046811573	1.176330E+02	  0.046811573	2.554600E+01	  0.046811573	2.414700E+01
190	  0.047007378	-7.247000E+00	  0.047007378	1.173840E+02	  0.047007378	2.555400E+01	  0.047007378	2.427700E+01
191	  0.047203191	-7.228000E+00	  0.047203191	1.171980E+02	  0.047203191	2.554100E+01	  0.047203191	2.438300E+01
192	  0.047398996	-7.213000E+00	  0.047398996	1.169860E+02	  0.047398996	2.554400E+01	  0.047398996	2.449600E+01
193	  0.047594801	-7.208000E+00	  0.047594801	1.168330E+02	  0.047594801	2.556300E+01	  0.047594801	2.456900E+01
194	  0.047790606	-7.197000E+00	  0.047790606	1.167460E+02	  0.047790606	2.555100E+01	  0.047790606	2.462200E+01
195	  0.047986414	-7.188000E+00	  0.047986414	1.166120E+02	  0.047986414	2.555800E+01	  0.047986414	2.469100E+01
196	  0.048182219	-7.184000E+00	  0.048182219	1.164350E+02	  0.048182219	2.558500E+01	  0.048182219	2.477300E+01
197	  0.048378024	-7.185000E+00	  0.048378024	1.163510E+02	  0.048378024	2.560600E+01	  0.048378024	2.480800E+01
198	  0.048573833	-7.188000E+00	  0.048573833	1.161780E+02	  0.048573833	2.565300E+01	  0.048573833	2.487800E+01
199	  0.048769638	-7.188000E+00	  0.048769638	1.160940E+02	  0.048769638	2.567200E+01	  0.048769638	2.491400E+01
200	  0.048965443	-7.202000E+00	  0.048965443	1.159320E+02	  0.048965443	2.574600E+01	  0.048965443	2.496400E+01
201	  0.049161248	-7.206000E+00	  0.049161248	1.157410E+02	  0.049161248	2.580100E+01	  0.049161248	2.503900E+01
202	  0.049357057	-7.210000E+00	  0.049357057	1.155740E+02	  0.049357057	2.585100E+01	  0.049357057	2.510400E+01
203	  0.049552862	-7.215000E+00	  0.049552862	1.153840E+02	  0.049552862	2.590900E+01	  0.049552862	2.517800E+01
204	  0.049748670	-7.222000E+00	  0.049748670	1.152430E+02	  0.049748670	2.596100E+01	  0.049748670	2.522800E+01
205	  0.049944475	-7.227000E+00	  0.049944475	1.150300E+02	  0.049944475	2.602300E+01	  0.049944475	2.531300E+01
206	  0.050140284	-7.237000E+00	  0.050140284	1.148190E+02	  0.050140284	2.610000E+01	  0.050140284	2.538800E+01
207	  0.050336089	-7.238000E+00	  0.050336089	1.145590E+02	  0.050336089	2.616400E+01	  0.050336089	2.549800E+01
208	  0.050531894	-7.249000E+00	  0.050531894	1.143560E+02	  0.050531894	2.624100E+01	  0.050531894	2.556900E+01
209	  0.050727699	-7.253000E+00	  0.050727699	1.141450E+02	  0.050727699	2.630400E+01	  0.050727699	2.565300E+01
210	  0.050923508	-7.260000E+00	  0.050923508	1.139320E+02	  0.050923508	2.637400E+01	  0.050923508	2.573400E+01
211	  0.051119313	-7.272000E+00	  0.051119313	1.136540E+02	  0.051119313	2.647200E+01	  0.051119313	2.583600E+01
212	  0.051315118	-7.281000E+00	  0.051315118	1.134240E+02	  0.051315118	2.655400E+01	  0.051315118	2.592000E+01
213	  0.051510923	-7.289000E+00	  0.051510923	1.131950E+02	  0.051510923	2.663100E+01	  0.051510923	2.600600E+01
214	  0.051706731	-7.304000E+00	  0.051706731	1.129180E+02	  0.051706731	2.674200E+01	  0.051706731	2.610100E+01
215	  0.051902536	-7.316000E+00	  0.051902536	1.126310E+02	  0.051902536	2.684600E+01	  0.051902536	2.620500E+01
216	  0.052098341	-7.325000E+00	  0.052098341	1.123450E+02	  0.052098341	2.694300E+01	  0.052098341	2.631300E+01
217	  0.052294150	-7.333000E+00	  0.052294150	1.120510E+02	  0.052294150	2.703700E+01	  0.052294150	2.642700E+01
218	  0.052489959	-7.346000E+00	  0.052489959	1.117000E+02	  0.052489959	2.716100E+01	  0.052489959	2.655800E+01
219	  0.052685764	-7.347000E+00	  0.052685764	1.113800E+02	  0.052685764	2.724600E+01	  0.052685764	2.669300E+01
220	  0.052881569	-7.354000E+00	  0.052881569	1.110680E+02	  0.052881569	2.734600E+01	  0.052881569	2.681600E+01
221	  0.053077377	-7.351000E+00	  0.053077377	1.107540E+02	  0.053077377	2.741800E+01	  0.053077377	2.695600E+01
222	  0.053273182	-7.359000E+00	  0.053273182	1.104000E+02	  0.053273182	2.753200E+01	  0.053273182	2.709600E+01
223	  0.053468987	-7.348000E+00	  0.053468987	1.100390E+02	  0.053468987	2.759600E+01	  0.053468987	2.727100E+01
224	  0.053664792	-7.351000E+00	  0.053664792	1.096960E+02	  0.053664792	2.769500E+01	  0.053664792	2.741400E+01
225	  0.053860601	-7.345000E+00	  0.053860601	1.093490E+02	  0.053860601	2.776900E+01	  0.053860601	2.757600E+01
226	  0.054056406	-7.337000E+00	  0.054056406	1.090640E+02	  0.054056406	2.782300E+01	  0.054056406	2.771400E+01
227	  0.054252211	-7.333000E+00	  0.054252211	1.087190E+02	  0.054252211	2.790600E+01	  0.054252211	2.787000E+01
228	  0.054448016	-7.325000E+00	  0.054448016	1.084460E+02	  0.054448016	2.795700E+01	  0.054448016	2.800400E+01
229	  0.054643828	-7.316000E+00	  0.054643828	1.081360E+02	  0.054643828	2.801500E+01	  0.054643828	2.815700E+01
230	  0.054839633	-7.311000E+00	  0.054839633	1.078770E+02	  0.054839633	2.807100E+01	  0.054839633	2.828000E+01
231	  0.055035438	-7.301000E+00	  0.055035438	1.076190E+02	  0.055035438	2.811500E+01	  0.055035438	2.841000E+01
232	  0.055231243	-7.298000E+00	  0.055231243	1.073610E+02	  0.055231243	2.817800E+01	  0.055231243	2.853000E+01
233	  0.055427052	-7.300000E+00	  0.055427052	1.071160E+02	  0.055427052	2.825200E+01	  0.055427052	2.863400E+01
234	  0.055622857	-7.293000E+00	  0.055622857	1.068840E+02	  0.055622857	2.829800E+01	  0.055622857	2.875000E+01
235	  0.055818662	-7.287000E+00	  0.055818662	1.066300E+02	  0.055818662	2.835300E+01	  0.055818662	2.887200E+01
236	  0.056014467	-7.287000E+00	  0.056014467	1.063580E+02	  0.056014467	2.843100E+01	  0.056014467	2.899300E+01
237	  0.056210276	-7.287000E+00	  0.056210276	1.061190E+02	  0.056210276	2.850000E+01	  0.056210276	2.909800E+01
238	  0.056406081	-7.281000E+00	  0.056406081	1.058740E+02	  0.056406081	2.855500E+01	  0.056406081	2.921700E+01
239	  0.056601886	-7.279000E+00	  0.056601886	1.056320E+02	  0.056601886	2.861900E+01	  0.056601886	2.932900E+01
240	  0.056797691	-7.278000E+00	  0.056797691	1.053600E+02	  0.056797691	2.869700E+01	  0.056797691	2.945100E+01
241	  0.056993503	-7.275000E+00	  0.056993503	1.050910E+02	  0.056993503	2.876800E+01	  0.056993503	2.957600E+01
242	  0.057189308	-7.269000E+00	  0.057189308	1.048130E+02	  0.057189308	2.883200E+01	  0.057189308	2.971300E+01
243	  0.057385113	-7.258000E+00	  0.057385113	1.045550E+02	  0.057385113	2.887600E+01	  0.057385113	2.985000E+01
244	  0.057580918	-7.256000E+00	  0.057580918	1.042910E+02	  0.057580918	2.895300E+01	  0.057580918	2.997000E+01
245	  0.057776727	-7.253000E+00	  0.057776727	1.040230E+02	  0.057776727	2.902300E+01	  0.057776727	3.009700E+01
246	  0.057972532	-7.244000E+00	  0.057972532	1.037800E+02	  0.057972532	2.907200E+01	  0.057972532	3.022400E+01
247	  0.058168337	-7.242000E+00	  0.058168337	1.035350E+02	  0.058168337	2.914000E+01	  0.058168337	3.033900E+01
248	  0.058364145	-7.232000E+00	  0.058364145	1.033470E+02	  0.058364145	2.917000E+01	  0.058364145	3.044300E+01
249	  0.058559950	-7.229000E+00	  0.058559950	1.031110E+02	  0.058559950	2.923300E+01	  0.058559950	3.055600E+01
250	  0.058755755	-7.225000E+00	  0.058755755	1.028740E+02	  0.058755755	2.929600E+01	  0.058755755	3.067000E+01
251	  0.058951560	-7.225000E+00	  0.058951560	1.026810E+02	  0.058951560	2.935600E+01	  0.058951560	3.075800E+01
252	  0.059147369	-7.220000E+00	  0.059147369	1.024660E+02	  0.059147369	2.941000E+01	  0.059147369	3.086400E+01
253	  0.059343174	-7.218000E+00	  0.059343174	1.022470E+02	  0.059343174	2.947400E+01	  0.059343174	3.096700E+01
254	  0.059538983	-7.217000E+00	  0.059538983	1.020370E+02	  0.059538983	2.953900E+01	  0.059538983	3.106400E+01
255	  0.059734788	-7.214000E+00	  0.059734788	1.018350E+02	  0.059734788	2.959300E+01	  0.059734788	3.116300E+01
256	  0.059930597	-7.213000E+00	  0.059930597	1.016200E+02	  0.059930597	2.966100E+01	  0.059930597	3.126200E+01
257	  0.060126401	-7.210000E+00	  0.060126401	1.013880E+02	  0.060126401	2.972700E+01	  0.060126401	3.137400E+01
258	  0.060322206	-7.204000E+00	  0.060322206	1.011970E+02	  0.060322206	2.977200E+01	  0.060322206	3.147300E+01
259	  0.060518011	-7.205000E+00	  0.060518011	1.009510E+02	  0.060518011	2.985300E+01	  0.060518011	3.158400E+01
260	  0.060713820	-7.201000E+00	  0.060713820	1.007480E+02	  0.060713820	2.990900E+01	  0.060713820	3.168500E+01
261	  0.060909625	-7.199000E+00	  0.060909625	1.004960E+02	  0.060909625	2.998800E+01	  0.060909625	3.180300E+01
262	  0.061105430	-7.198000E+00	  0.061105430	1.003090E+02	  0.061105430	3.004700E+01	  0.061105430	3.189000E+01
263	  0.061301235	-7.190000E+00	  0.061301235	1.000990E+02	  0.061301235	3.009300E+01	  0.061301235	3.200400E+01
264	  0.061497044	-7.186000E+00	  0.061497044	9.990900E+01	  0.061497044	3.014600E+01	  0.061497044	3.210000E+01
265	  0.061692849	-7.189000E+00	  0.061692849	9.974600E+01	  0.061692849	3.020900E+01	  0.061692849	3.216900E+01
266	  0.061888654	-7.190000E+00	  0.061888654	9.956300E+01	  0.061888654	3.027300E+01	  0.061888654	3.225100E+01
267	  0.062084462	-7.187000E+00	  0.062084462	9.939600E+01	  0.062084462	3.032300E+01	  0.062084462	3.233300E+01
268	  0.062280271	-7.192000E+00	  0.062280271	9.922600E+01	  0.062280271	3.039500E+01	  0.062280271	3.240000E+01
269	  0.062476076	-7.189000E+00	  0.062476076	9.911200E+01	  0.062476076	3.042600E+01	  0.062476076	3.245900E+01
270	  0.062671877	-7.192000E+00	  0.062671877	9.892900E+01	  0.062671877	3.049700E+01	  0.062671877	3.253700E+01
271	  0.062867686	-7.198000E+00	  0.062867686	9.874700E+01	  0.062867686	3.057900E+01	  0.062867686	3.260500E+01
272	  0.063063495	-7.209000E+00	  0.063063495	9.855300E+01	  0.063063495	3.068000E+01	  0.063063495	3.266900E+01
273	  0.063259304	-7.218000E+00	  0.063259304	9.839100E+01	  0.063259304	3.076600E+01	  0.063259304	3.272200E+01
274	  0.063455105	-7.224000E+00	  0.063455105	9.814300E+01	  0.063455105	3.087100E+01	  0.063455105	3.282200E+01
275	  0.063650914	-7.234000E+00	  0.063650914	9.792500E+01	  0.063650914	3.097700E+01	  0.063650914	3.289900E+01
276	  0.063846722	-7.251000E+00	  0.063846722	9.764200E+01	  0.063846722	3.112900E+01	  0.063846722	3.298900E+01
277	  0.064042524	-7.259000E+00	  0.064042524	9.739700E+01	  0.064042524	3.124100E+01	  0.064042524	3.308200E+01
278	  0.064238332	-7.261000E+00	  0.064238332	9.714600E+01	  0.064238332	3.133800E+01	  0.064238332	3.319200E+01
279	  0.064434141	-7.278000E+00	  0.064434141	9.686100E+01	  0.064434141	3.149300E+01	  0.064434141	3.328100E+01
280	  0.064629942	-7.278000E+00	  0.064629942	9.657200E+01	  0.064629942	3.160000E+01	  0.064629942	3.341300E+01
281	  0.064825751	-7.288000E+00	  0.064825751	9.629300E+01	  0.064825751	3.173300E+01	  0.064825751	3.351500E+01
282	  0.065021552	-7.296000E+00	  0.065021552	9.597100E+01	  0.065021552	3.187700E+01	  0.065021552	3.364300E+01
283	  0.065217361	-7.299000E+00	  0.065217361	9.568200E+01	  0.065217361	3.199500E+01	  0.065217361	3.376700E+01
284	  0.065413170	-7.304000E+00	  0.065413170	9.539100E+01	  0.065413170	3.212000E+01	  0.065413170	3.388800E+01
285	  0.065608978	-7.309000E+00	  0.065608978	9.513400E+01	  0.065608978	3.223400E+01	  0.065608978	3.399200E+01
286	  0.065804780	-7.315000E+00	  0.065804780	9.482500E+01	  0.065804780	3.236900E+01	  0.065804780	3.411900E+01
287	  0.066000588	-7.312000E+00	  0.066000588	9.449400E+01	  0.066000588	3.248900E+01	  0.066000588	3.427700E+01
288	  0.066196397	-7.322000E+00	  0.066196397	9.414500E+01	  0.066196397	3.265400E+01	  0.066196397	3.441200E+01
289	  0.066392198	-7.323000E+00	  0.066392198	9.389500E+01	  0.066392198	3.275700E+01	  0.066392198	3.452300E+01
290	  0.066588007	-7.323000E+00	  0.066588007	9.352100E+01	  0.066588007	3.290500E+01	  0.066588007	3.469400E+01
291	  0.066783816	-7.324000E+00	  0.066783816	9.321400E+01	  0.066783816	3.303100E+01	  0.066783816	3.483200E+01
292	  0.066979617	-7.320000E+00	  0.066979617	9.292000E+01	  0.066979617	3.313800E+01	  0.066979617	3.497600E+01
293	  0.067175426	-7.317000E+00	  0.067175426	9.261400E+01	  0.067175426	3.325300E+01	  0.067175426	3.512500E+01
294	  0.067371234	-7.320000E+00	  0.067371234	9.230400E+01	  0.067371234	3.338900E+01	  0.067371234	3.525900E+01
295	  0.067567036	-7.313000E+00	  0.067567036	9.196400E+01	  0.067567036	3.350800E+01	  0.067567036	3.543500E+01
296	  0.067762844	-7.310000E+00	  0.067762844	9.158500E+01	  0.067762844	3.365600E+01	  0.067762844	3.561800E+01
297	  0.067958646	-7.309000E+00	  0.067958646	9.130800E+01	  0.067958646	3.376900E+01	  0.067958646	3.574800E+01
298	  0.068154462	-7.301000E+00	  0.068154462	9.099800E+01	  0.068154462	3.387500E+01	  0.068154462	3.591400E+01
299	  0.068350263	-7.293000E+00	  0.068350263	9.071100E+01	  0.068350263	3.397600E+01	  0.068350263	3.606600E+01
300	  0.068546072	-7.292000E+00	  0.068546072	9.040900E+01	  0.068546072	3.410200E+01	  0.068546072	3.620900E+01
301	  0.068741873	-7.275000E+00	  0.068741873	9.010900E+01	  0.068741873	3.417900E+01	  0.068741873	3.639800E+01
302	  0.068937682	-7.270000E+00	  0.068937682	8.986800E+01	  0.068937682	3.427000E+01	  0.068937682	3.652300E+01
303	  0.069133483	-7.255000E+00	  0.069133483	8.959200E+01	  0.069133483	3.434300E+01	  0.069133483	3.669500E+01
304	  0.069329299	-7.248000E+00	  0.069329299	8.933900E+01	  0.069329299	3.443400E+01	  0.069329299	3.683400E+01
305	  0.069525100	-7.236000E+00	  0.069525100	8.907200E+01	  0.069525100	3.451500E+01	  0.069525100	3.699400E+01
306	  0.069720909	-7.230000E+00	  0.069720909	8.883100E+01	  0.069720909	3.460400E+01	  0.069720909	3.712300E+01
307	  0.069916710	-7.226000E+00	  0.069916710	8.866700E+01	  0.069916710	3.466600E+01	  0.069916710	3.721200E+01
308	  0.070112519	-7.219000E+00	  0.070112519	8.838900E+01	  0.070112519	3.477100E+01	  0.070112519	3.736200E+01
309	  0.070308320	-7.209000E+00	  0.070308320	8.820800E+01	  0.070308320	3.482000E+01	  0.070308320	3.747900E+01
310	  0.070504129	-7.206000E+00	  0.070504129	8.798200E+01	  0.070504129	3.491500E+01	  0.070504129	3.759500E+01
311	  0.070699938	-7.199000E+00	  0.070699938	8.781300E+01	  0.070699938	3.497300E+01	  0.070699938	3.769300E+01
312	  0.070895746	-7.203000E+00	  0.070895746	8.761300E+01	  0.070895746	3.507700E+01	  0.070895746	3.777600E+01
313	  0.071091555	-7.193000E+00	  0.071091555	8.733700E+01	  0.071091555	3.517200E+01	  0.071091555	3.793800E+01
314	  0.071287356	-7.187000E+00	  0.071287356	8.713600E+01	  0.071287356	3.524700E+01	  0.071287356	3.805100E+01
315	  0.071483165	-7.183000E+00	  0.071483165	8.693300E+01	  0.071483165	3.533100E+01	  0.071483165	3.815900E+01
316	  0.071678966	-7.186000E+00	  0.071678966	8.670600E+01	  0.071678966	3.544600E+01	  0.071678966	3.825800E+01
317	  0.071874775	-7.182000E+00	  0.071874775	8.649400E+01	  0.071874775	3.553600E+01	  0.071874775	3.836900E+01
318	  0.072070576	-7.183000E+00	  0.072070576	8.627700E+01	  0.072070576	3.564400E+01	  0.072070576	3.846700E+01
319	  0.072266392	-7.179000E+00	  0.072266392	8.606600E+01	  0.072266392	3.573100E+01	  0.072266392	3.858100E+01
320	  0.072462194	-7.182000E+00	  0.072462194	8.589400E+01	  0.072462194	3.582500E+01	  0.072462194	3.865100E+01
321	  0.072658002	-7.180000E+00	  0.072658002	8.565900E+01	  0.072658002	3.593000E+01	  0.072658002	3.877100E+01
322	  0.072853811	-7.173000E+00	  0.072853811	8.544000E+01	  0.072853811	3.601600E+01	  0.072853811	3.889600E+01
323	  0.073049612	-7.179000E+00	  0.073049612	8.527000E+01	  0.073049612	3.611900E+01	  0.073049612	3.895700E+01
324	  0.073245421	-7.173000E+00	  0.073245421	8.507000E+01	  0.073245421	3.619700E+01	  0.073245421	3.907300E+01
325	  0.073441222	-7.175000E+00	  0.073441222	8.483400E+01	  0.073441222	3.632000E+01	  0.073441222	3.917800E+01
326	  0.073637031	-7.172000E+00	  0.073637031	8.466300E+01	  0.073637031	3.639800E+01	  0.073637031	3.926700E+01
327	  0.073832840	-7.177000E+00	  0.073832840	8.445700E+01	  0.073832840	3.651500E+01	  0.073832840	3.935000E+01
328	  0.074028648	-7.185000E+00	  0.074028648	8.429500E+01	  0.074028648	3.662200E+01	  0.074028648	3.939900E+01
329	  0.074224450	-7.185000E+00	  0.074224450	8.408000E+01	  0.074224450	3.673000E+01	  0.074224450	3.950200E+01
330	  0.074420258	-7.193000E+00	  0.074420258	8.380100E+01	  0.074420258	3.689700E+01	  0.074420258	3.960800E+01
331	  0.074616060	-7.198000E+00	  0.074616060	8.361300E+01	  0.074616060	3.700900E+01	  0.074616060	3.967800E+01
332	  0.074811868	-7.205000E+00	  0.074811868	8.331200E+01	  0.074811868	3.718500E+01	  0.074811868	3.979700E+01
333	  0.075007670	-7.210000E+00	  0.075007670	8.314100E+01	  0.075007670	3.728900E+01	  0.075007670	3.986100E+01
334	  0.075203478	-7.215000E+00	  0.075203478	8.284200E+01	  0.075203478	3.746100E+01	  0.075203478	3.998400E+01
335	  0.075399294	-7.219000E+00	  0.075399294	8.256500E+01	  0.075399294	3.761700E+01	  0.075399294	4.010100E+01
336	  0.075595096	-7.222000E+00	  0.075595096	8.227200E+01	  0.075595096	3.778200E+01	  0.075595096	4.022800E+01
337	  0.075790904	-7.228000E+00	  0.075790904	8.202900E+01	  0.075790904	3.793100E+01	  0.075790904	4.032000E+01
338	  0.075986706	-7.225000E+00	  0.075986706	8.175100E+01	  0.075986706	3.807100E+01	  0.075986706	4.046100E+01
339	  0.076182514	-7.230000E+00	  0.076182514	8.148200E+01	  0.076182514	3.823100E+01	  0.076182514	4.057000E+01
340	  0.076378316	-7.229000E+00	  0.076378316	8.115600E+01	  0.076378316	3.840600E+01	  0.076378316	4.072500E+01
341	  0.076574124	-7.225000E+00	  0.076574124	8.092800E+01	  0.076574124	3.851800E+01	  0.076574124	4.084600E+01
342	  0.076769926	-7.226000E+00	  0.076769926	8.063200E+01	  0.076769926	3.868500E+01	  0.076769926	4.098100E+01
343	  0.076965742	-7.226000E+00	  0.076965742	8.036500E+01	  0.076965742	3.883300E+01	  0.076965742	4.110700E+01
344	  0.077161543	-7.229000E+00	  0.077161543	8.006800E+01	  0.077161543	3.900800E+01	  0.077161543	4.123500E+01
345	  0.077357352	-7.221000E+00	  0.077357352	7.979700E+01	  0.077357352	3.913600E+01	  0.077357352	4.139000E+01
346	  0.077553153	-7.220000E+00	  0.077553153	7.950200E+01	  0.077553153	3.929900E+01	  0.077553153	4.153400E+01
347	  0.077748962	-7.219000E+00	  0.077748962	7.925400E+01	  0.077748962	3.943800E+01	  0.077748962	4.165400E+01
348	  0.077944770	-7.218000E+00	  0.077944770	7.896800E+01	  0.077944770	3.960200E+01	  0.077944770	4.178900E+01
349	  0.078140572	-7.217000E+00	  0.078140572	7.867500E+01	  0.078140572	3.976900E+01	  0.078140572	4.193000E+01
350	  0.078336388	-7.215000E+00	  0.078336388	7.841300E+01	  0.078336388	3.991300E+01	  0.078336388	4.206200E+01
351	  0.078532189	-7.210000E+00	  0.078532189	7.813900E+01	  0.078532189	4.005900E+01	  0.078532189	4.221000E+01
352	  0.078727998	-7.209000E+00	  0.078727998	7.781800E+01	  0.078727998	4.024600E+01	  0.078727998	4.236400E+01
353	  0.078923799	-7.203000E+00	  0.078923799	7.756900E+01	  0.078923799	4.037600E+01	  0.078923799	4.250400E+01
354	  0.079119608	-7.195000E+00	  0.079119608	7.731100E+01	  0.079119608	4.050900E+01	  0.079119608	4.265400E+01
355	  0.079315409	-7.193000E+00	  0.079315409	7.703900E+01	  0.079315409	4.066600E+01	  0.079315409	4.278900E+01
356	  0.079511218	-7.186000E+00	  0.079511218	7.680700E+01	  0.079511218	4.078700E+01	  0.079511218	4.292500E+01
357	  0.079707019	-7.184000E+00	  0.079707019	7.654500E+01	  0.079707019	4.094000E+01	  0.079707019	4.305800E+01
358	  0.079902835	-7.173000E+00	  0.079902835	7.629100E+01	  0.079902835	4.106400E+01	  0.079902835	4.322000E+01
359	  0.080098644	-7.162000E+00	  0.080098644	7.610500E+01	  0.080098644	4.114600E+01	  0.080098644	4.335100E+01
360	  0.080294445	-7.156000E+00	  0.080294445	7.585300E+01	  0.080294445	4.128400E+01	  0.080294445	4.349500E+01
361	  0.080490254	-7.148000E+00	  0.080490254	7.566700E+01	  0.080490254	4.137600E+01	  0.080490254	4.361600E+01
362	  0.080686055	-7.144000E+00	  0.080686055	7.542400E+01	  0.080686055	4.151700E+01	  0.080686055	4.374700E+01
363	  0.080881864	-7.140000E+00	  0.080881864	7.526500E+01	  0.080881864	4.160500E+01	  0.080881864	4.383900E+01
364	  0.081077665	-7.139000E+00	  0.081077665	7.507800E+01	  0.081077665	4.172200E+01	  0.081077665	4.393000E+01
365	  0.081273474	-7.142000E+00	  0.081273474	7.485200E+01	  0.081273474	4.187600E+01	  0.081273474	4.402400E+01
366	  0.081469283	-7.136000E+00	  0.081469283	7.464800E+01	  0.081469283	4.198900E+01	  0.081469283	4.414400E+01
367	  0.081665091	-7.138000E+00	  0.081665091	7.444400E+01	  0.081665091	4.212800E+01	  0.081665091	4.423100E+01
368	  0.081860892	-7.138000E+00	  0.081860892	7.426500E+01	  0.081860892	4.224300E+01	  0.081860892	4.431700E+01
369	  0.082056701	-7.137000E+00	  0.082056701	7.403600E+01	  0.082056701	4.239200E+01	  0.082056701	4.442500E+01
370	  0.082252502	-7.134000E+00	  0.082252502	7.383100E+01	  0.082252502	4.251900E+01	  0.082252502	4.453400E+01
371	  0.082448311	-7.144000E+00	  0.082448311	7.362800E+01	  0.082448311	4.268300E+01	  0.082448311	4.458600E+01
372	  0.082644112	-7.144000E+00	  0.082644112	7.341900E+01	  0.082644112	4.282200E+01	  0.082644112	4.468500E+01
373	  0.082839929	-7.147000E+00	  0.082839929	7.318300E+01	  0.082839929	4.298900E+01	  0.082839929	4.478000E+01
374	  0.083035737	-7.148000E+00	  0.083035737	7.294700E+01	  0.083035737	4.315000E+01	  0.083035737	4.488700E+01
375	  0.083231539	-7.149000E+00	  0.083231539	7.272400E+01	  0.083231539	4.330600E+01	  0.083231539	4.498200E+01
376	  0.083427347	-7.151000E+00	  0.083427347	7.245900E+01	  0.083427347	4.349200E+01	  0.083427347	4.509700E+01
377	  0.083623149	-7.152000E+00	  0.083623149	7.224100E+01	  0.083623149	4.364400E+01	  0.083623149	4.519500E+01
378	  0.083818957	-7.154000E+00	  0.083818957	7.197000E+01	  0.083818957	4.383900E+01	  0.083818957	4.530700E+01
379	  0.084014758	-7.150000E+00	  0.084014758	7.176700E+01	  0.084014758	4.396900E+01	  0.084014758	4.541800E+01
380	  0.084210567	-7.150000E+00	  0.084210567	7.149700E+01	  0.084210567	4.415500E+01	  0.084210567	4.554500E+01
381	  0.084406376	-7.150000E+00	  0.084406376	7.129100E+01	  0.084406376	4.430200E+01	  0.084406376	4.563600E+01
382	  0.084602185	-7.151000E+00	  0.084602185	7.106500E+01	  0.084602185	4.446400E+01	  0.084602185	4.573800E+01
383	  0.084797986	-7.147000E+00	  0.084797986	7.076300E+01	  0.084797986	4.466800E+01	  0.084797986	4.589200E+01
384	  0.084993795	-7.147000E+00	  0.084993795	7.055200E+01	  0.084993795	4.481900E+01	  0.084993795	4.599000E+01
385	  0.085189603	-7.146000E+00	  0.085189603	7.033500E+01	  0.085189603	4.497300E+01	  0.085189603	4.609300E+01
386	  0.085385405	-7.151000E+00	  0.085385405	7.013400E+01	  0.085385405	4.513300E+01	  0.085385405	4.616000E+01
387	  0.085581213	-7.152000E+00	  0.085581213	6.985700E+01	  0.085581213	4.533700E+01	  0.085581213	4.628200E+01
388	  0.085777014	-7.144000E+00	  0.085777014	6.962100E+01	  0.085777014	4.548900E+01	  0.085777014	4.642500E+01
389	  0.085972831	-7.146000E+00	  0.085972831	6.934600E+01	  0.085972831	4.569800E+01	  0.085972831	4.653900E+01
390	  0.086168632	-7.146000E+00	  0.086168632	6.920100E+01	  0.086168632	4.580600E+01	  0.086168632	4.660500E+01
391	  0.086364441	-7.146000E+00	  0.086364441	6.896100E+01	  0.086364441	4.598400E+01	  0.086364441	4.671400E+01
392	  0.086560242	-7.145000E+00	  0.086560242	6.874700E+01	  0.086560242	4.614300E+01	  0.086560242	4.681200E+01
393	  0.086756051	-7.142000E+00	  0.086756051	6.849300E+01	  0.086756051	4.632600E+01	  0.086756051	4.694100E+01
394	  0.086951852	-7.138000E+00	  0.086951852	6.828300E+01	  0.086951852	4.647400E+01	  0.086951852	4.705500E+01
395	  0.087147661	-7.139000E+00	  0.087147661	6.805900E+01	  0.087147661	4.664800E+01	  0.087147661	4.715000E+01
396	  0.087343477	-7.139000E+00	  0.087343477	6.783800E+01	  0.087343477	4.681900E+01	  0.087343477	4.724900E+01
397	  0.087539278	-7.139000E+00	  0.087539278	6.764900E+01	  0.087539278	4.696600E+01	  0.087539278	4.733100E+01
398	  0.087735087	-7.134000E+00	  0.087735087	6.744100E+01	  0.087735087	4.711300E+01	  0.087735087	4.744800E+01
399	  0.087930888	-7.138000E+00	  0.087930888	6.724700E+01	  0.087930888	4.727500E+01	  0.087930888	4.751400E+01
400	  0.088126697	-7.145000E+00	  0.088126697	6.704100E+01	  0.088126697	4.745900E+01	  0.088126697	4.756800E+01
401	  0.088322498	-7.149000E+00	  0.088322498	6.684300E+01	  0.088322498	4.762500E+01	  0.088322498	4.763700E+01
402	  0.088518307	-7.154000E+00	  0.088518307	6.664000E+01	  0.088518307	4.780200E+01	  0.088518307	4.769500E+01
403	  0.088714108	-7.164000E+00	  0.088714108	6.644100E+01	  0.088714108	4.798900E+01	  0.088714108	4.772800E+01
404	  0.088909924	-7.168000E+00	  0.088909924	6.617900E+01	  0.088909924	4.821000E+01	  0.088909924	4.782200E+01
405	  0.089105725	-7.180000E+00	  0.089105725	6.593200E+01	  0.089105725	4.844500E+01	  0.089105725	4.786200E+01
406	  0.089301534	-7.187000E+00	  0.089301534	6.570100E+01	  0.089301534	4.865000E+01	  0.089301534	4.792700E+01
407	  0.089497335	-7.200000E+00	  0.089497335	6.546000E+01	  0.089497335	4.888500E+01	  0.089497335	4.795400E+01
408	  0.089693144	-7.209000E+00	  0.089693144	6.514600E+01	  0.089693144	4.916700E+01	  0.089693144	4.803700E+01
409	  0.089888945	-7.217000E+00	  0.089888945	6.485300E+01	  0.089888945	4.942900E+01	  0.089888945	4.812000E+01
410	  0.090084754	-7.227000E+00	  0.090084754	6.457600E+01	  0.090084754	4.968900E+01	  0.090084754	4.817600E+01
411	  0.090280563	-7.231000E+00	  0.090280563	6.425400E+01	  0.090280563	4.997000E+01	  0.090280563	4.828500E+01
412	  0.090476371	-7.234000E+00	  0.090476371	6.391500E+01	  0.090476371	5.026400E+01	  0.090476371	4.840600E+01
413	  0.090672180	-7.241000E+00	  0.090672180	6.361200E+01	  0.090672180	5.054100E+01	  0.090672180	4.849100E+01
414	  0.090867981	-7.238000E+00	  0.090867981	6.325500E+01	  0.090867981	5.084100E+01	  0.090867981	4.864900E+01
415	  0.091063790	-7.238000E+00	  0.091063790	6.295700E+01	  0.091063790	5.110000E+01	  0.091063790	4.876500E+01
416	  0.091259591	-7.240000E+00	  0.091259591	6.261600E+01	  0.091259591	5.140200E+01	  0.091259591	4.888900E+01
417	  0.091455400	-7.237000E+00	  0.091455400	6.229700E+01	  0.091455400	5.167500E+01	  0.091455400	4.903300E+01
418	  0.091651201	-7.234000E+00	  0.091651201	6.193200E+01	  0.091651201	5.199100E+01	  0.091651201	4.919200E+01
419	  0.091847017	-7.222000E+00	  0.091847017	6.165100E+01	  0.091847017	5.221200E+01	  0.091847017	4.937200E+01
420	  0.092042819	-7.217000E+00	  0.092042819	6.131700E+01	  0.092042819	5.250300E+01	  0.092042819	4.952800E+01
421	  0.092238627	-7.209000E+00	  0.092238627	6.104000E+01	  0.092238627	5.273500E+01	  0.092238627	4.968100E+01
422	  0.092434436	-7.198000E+00	  0.092434436	6.072700E+01	  0.092434436	5.299300E+01	  0.092434436	4.987300E+01
423	  0.092630237	-7.187000E+00	  0.092630237	6.041800E+01	  0.092630237	5.325200E+01	  0.092630237	5.005600E+01
424	  0.092826046	-7.177000E+00	  0.092826046	6.016400E+01	  0.092826046	5.346500E+01	  0.092826046	5.021200E+01
425	  0.093021847	-7.165000E+00	  0.093021847	5.996200E+01	  0.093021847	5.362400E+01	  0.093021847	5.036500E+01
426	  0.093217656	-7.159000E+00	  0.093217656	5.968100E+01	  0.093217656	5.387500E+01	  0.093217656	5.050900E+01
427	  0.093413465	-7.146000E+00	  0.093413465	5.944300E+01	  0.093413465	5.407100E+01	  0.093413465	5.067700E+01
428	  0.093609273	-7.131000E+00	  0.093609273	5.926700E+01	  0.093609273	5.420300E+01	  0.093609273	5.083700E+01
429	  0.093805075	-7.121000E+00	  0.093805075	5.905400E+01	  0.093805075	5.438200E+01	  0.093805075	5.098400E+01
430	  0.094000883	-7.109000E+00	  0.094000883	5.885000E+01	  0.094000883	5.455100E+01	  0.094000883	5.113500E+01
431	  0.094196685	-7.096000E+00	  0.094196685	5.869400E+01	  0.094196685	5.467200E+01	  0.094196685	5.127500E+01
432	  0.094392493	-7.086000E+00	  0.094392493	5.850500E+01	  0.094392493	5.483200E+01	  0.094392493	5.141300E+01
433	  0.094588295	-7.077000E+00	  0.094588295	5.839400E+01	  0.094588295	5.492100E+01	  0.094588295	5.150900E+01
434	  0.094784103	-7.075000E+00	  0.094784103	5.826000E+01	  0.094784103	5.504800E+01	  0.094784103	5.157300E+01
435	  0.094979919	-7.072000E+00	  0.094979919	5.813000E+01	  0.094979919	5.516900E+01	  0.094979919	5.164300E+01
436	  0.095175721	-7.066000E+00	  0.095175721	5.799600E+01	  0.095175721	5.528900E+01	  0.095175721	5.172900E+01
437	  0.095371529	-7.070000E+00	  0.095371529	5.789900E+01	  0.095371529	5.539600E+01	  0.095371529	5.173900E+01
438	  0.095567331	-7.071000E+00	  0.095567331	5.775200E+01	  0.095567331	5.554500E+01	  0.095567331	5.178800E+01
439	  0.095763139	-7.078000E+00	  0.095763139	5.761700E+01	  0.095763139	5.569700E+01	  0.095763139	5.179300E+01
440	  0.095958941	-7.084000E+00	  0.095958941	5.751100E+01	  0.095958941	5.581700E+01	  0.095958941	5.179100E+01
441	  0.096154749	-7.092000E+00	  0.096154749	5.738300E+01	  0.096154749	5.596700E+01	  0.096154749	5.177900E+01
442	  0.096350558	-7.105000E+00	  0.096350558	5.724900E+01	  0.096350558	5.613300E+01	  0.096350558	5.174100E+01
443	  0.096546367	-7.121000E+00	  0.096546367	5.707700E+01	  0.096546367	5.634400E+01	  0.096546367	5.169600E+01
444	  0.096742168	-7.133000E+00	  0.096742168	5.687900E+01	  0.096742168	5.657400E+01	  0.096742168	5.168100E+01
445	  0.096937977	-7.155000E+00	  0.096937977	5.670900E+01	  0.096937977	5.679800E+01	  0.096937977	5.159200E+01
446	  0.097133778	-7.166000E+00	  0.097133778	5.647800E+01	  0.097133778	5.705800E+01	  0.097133778	5.159600E+01
447	  0.097329587	-7.184000E+00	  0.097329587	5.621600E+01	  0.097329587	5.736700E+01	  0.097329587	5.156000E+01
448	  0.097525395	-7.205000E+00	  0.097525395	5.594400E+01	  0.097525395	5.769200E+01	  0.097525395	5.150700E+01
449	  0.097721197	-7.223000E+00	  0.097721197	5.565200E+01	  0.097721197	5.803500E+01	  0.097721197	5.147100E+01
450	  0.097917013	-7.236000E+00	  0.097917013	5.538300E+01	  0.097917013	5.834100E+01	  0.097917013	5.146800E+01
451	  0.098112814	-7.253000E+00	  0.098112814	5.503800E+01	  0.098112814	5.873800E+01	  0.098112814	5.145300E+01
452	  0.098308623	-7.265000E+00	  0.098308623	5.467500E+01	  0.098308623	5.914500E+01	  0.098308623	5.147600E+01
453	  0.098504424	-7.279000E+00	  0.098504424	5.436700E+01	  0.098504424	5.949900E+01	  0.098504424	5.146600E+01
454	  0.098700233	-7.285000E+00	  0.098700233	5.397500E+01	  0.098700233	5.993300E+01	  0.098700233	5.152700E+01
455	  0.098896034	-7.299000E+00	  0.098896034	5.360900E+01	  0.098896034	6.035200E+01	  0.098896034	5.153100E+01
456	  0.099091843	-7.303000E+00	  0.099091843	5.317800E+01	  0.099091843	6.083000E+01	  0.099091843	5.161200E+01
457	  0.099287644	-7.302000E+00	  0.099287644	5.280700E+01	  0.099287644	6.123700E+01	  0.099287644	5.171100E+01
458	  0.099483460	-7.304000E+00	  0.099483460	5.243700E+01	  0.099483460	6.165100E+01	  0.099483460	5.178500E+01
459	  0.099679269	-7.305000E+00	  0.099679269	5.204000E+01	  0.099679269	6.209600E+01	  0.099679269	5.187500E+01
460	  0.099875070	-7.309000E+00	  0.099875070	5.168000E+01	  0.099875070	6.250900E+01	  0.099875070	5.192700E+01
461	  0.100070879	-7.297000E+00	  0.100070879	5.126500E+01	  0.100070879	6.296400E+01	  0.100070879	5.211100E+01
462	  0.100266680	-7.290000E+00	  0.100266680	5.091000E+01	  0.100266680	6.336200E+01	  0.100266680	5.223700E+01
463	  0.100462489	-7.283000E+00	  0.100462489	5.048400E+01	  0.100462489	6.384900E+01	  0.100462489	5.237800E+01
464	  0.100658290	-7.284000E+00	  0.100658290	5.011800E+01	  0.100658290	6.427800E+01	  0.100658290	5.244900E+01
465	  0.100854106	-7.258000E+00	  0.100854106	4.980400E+01	  0.100854106	6.461600E+01	  0.100854106	5.270900E+01
466	  0.101049908	-7.250000E+00	  0.101049908	4.944900E+01	  0.101049908	6.503000E+01	  0.101049908	5.283700E+01
467	  0.101245716	-7.237000E+00	  0.101245716	4.912800E+01	  0.101245716	6.540100E+01	  0.101245716	5.300000E+01
468	  0.101441517	-7.219000E+00	  0.101441517	4.885400E+01	  0.101441517	6.571300E+01	  0.101441517	5.319100E+01
469	  0.101637326	-7.206000E+00	  0.101637326	4.856800E+01	  0.101637326	6.604900E+01	  0.101637326	5.334900E+01
470	  0.101833127	-7.189000E+00	  0.101833127	4.831700E+01	  0.101833127	6.634000E+01	  0.101833127	5.353000E+01
471	  0.102028936	-7.182000E+00	  0.102028936	4.810500E+01	  0.102028936	6.659500E+01	  0.102028936	5.362400E+01
472	  0.102224737	-7.155000E+00	  0.102224737	4.783000E+01	  0.102224737	6.690900E+01	  0.102224737	5.389300E+01
473	  0.102420554	-7.149000E+00	  0.102420554	4.760900E+01	  0.102420554	6.718400E+01	  0.102420554	5.397600E+01
474	  0.102616362	-7.131000E+00	  0.102616362	4.737000E+01	  0.102616362	6.746800E+01	  0.102616362	5.416300E+01
475	  0.102812164	-7.124000E+00	  0.102812164	4.721700E+01	  0.102812164	6.765700E+01	  0.102812164	5.424900E+01
476	  0.103007972	-7.118000E+00	  0.103007972	4.698800E+01	  0.103007972	6.794600E+01	  0.103007972	5.432900E+01
477	  0.103203773	-7.117000E+00	  0.103203773	4.684000E+01	  0.103203773	6.813500E+01	  0.103203773	5.436300E+01
478	  0.103399582	-7.104000E+00	  0.103399582	4.661500E+01	  0.103399582	6.841600E+01	  0.103399582	5.450300E+01
479	  0.103595383	-7.096000E+00	  0.103595383	4.644700E+01	  0.103595383	6.862700E+01	  0.103595383	5.459400E+01
480	  0.103791192	-7.106000E+00	  0.103791192	4.627200E+01	  0.103791192	6.886500E+01	  0.103791192	5.452900E+01
481	  0.103987001	-7.101000E+00	  0.103987001	4.607100E+01	  0.103987001	6.912500E+01	  0.103987001	5.460000E+01
482	  0.104182810	-7.103000E+00	  0.104182810	4.585500E+01	  0.104182810	6.941100E+01	  0.104182810	5.461400E+01
483	  0.104378611	-7.101000E+00	  0.104378611	4.564000E+01	  0.104378611	6.969500E+01	  0.104378611	5.465100E+01
484	  0.104574420	-7.096000E+00	  0.104574420	4.548500E+01	  0.104574420	6.989800E+01	  0.104574420	5.471200E+01
485	  0.104770228	-7.099000E+00	  0.104770228	4.523700E+01	  0.104770228	7.023100E+01	  0.104770228	5.471500E+01
486	  0.104966030	-7.092000E+00	  0.104966030	4.504100E+01	  0.104966030	7.049100E+01	  0.104966030	5.479200E+01
487	  0.105161838	-7.097000E+00	  0.105161838	4.476700E+01	  0.105161838	7.086400E+01	  0.105161838	5.476800E+01
488	  0.105357639	-7.097000E+00	  0.105357639	4.457800E+01	  0.105357639	7.112100E+01	  0.105357639	5.478900E+01
489	  0.105553456	-7.096000E+00	  0.105553456	4.435400E+01	  0.105553456	7.142600E+01	  0.105553456	5.481200E+01
490	  0.105749257	-7.100000E+00	  0.105749257	4.404700E+01	  0.105749257	7.184800E+01	  0.105749257	5.479600E+01
491	  0.105945066	-7.103000E+00	  0.105945066	4.382300E+01	  0.105945066	7.215800E+01	  0.105945066	5.478000E+01
492	  0.106140867	-7.103000E+00	  0.106140867	4.359100E+01	  0.106140867	7.247900E+01	  0.106140867	5.479000E+01
493	  0.106336676	-7.099000E+00	  0.106336676	4.335200E+01	  0.106336676	7.281100E+01	  0.106336676	5.483900E+01
494	  0.106532477	-7.100000E+00	  0.106532477	4.306300E+01	  0.106532477	7.321400E+01	  0.106532477	5.483900E+01
495	  0.106728286	-7.094000E+00	  0.106728286	4.285500E+01	  0.106728286	7.350600E+01	  0.106728286	5.490100E+01
496	  0.106924094	-7.089000E+00	  0.106924094	4.257100E+01	  0.106924094	7.390600E+01	  0.106924094	5.495100E+01
497	  0.107119903	-7.096000E+00	  0.107119903	4.234900E+01	  0.107119903	7.422200E+01	  0.107119903	5.488200E+01
498	  0.107315712	-7.090000E+00	  0.107315712	4.208700E+01	  0.107315712	7.459600E+01	  0.107315712	5.493600E+01
499	  0.107511513	-7.087000E+00	  0.107511513	4.181700E+01	  0.107511513	7.498300E+01	  0.107511513	5.496100E+01
500	  0.107707322	-7.072000E+00	  0.107707322	4.157000E+01	  0.107707322	7.534100E+01	  0.107707322	5.510200E+01
501	  0.107903123	-7.064000E+00	  0.107903123	4.136700E+01	  0.107903123	7.563800E+01	  0.107903123	5.517500E+01
