! Anritsu VNA Master:             	Model: MS2036C/10/77
! SN:             	1601066
! /card0/usr/255.ew.sma.r50.v2_1.txt
! Existing Calibration Information:
! TYPE:             	Current Settings	Active Cal Settings
! TIME:             	12/17/2017 06:17:04 PM	12/17/2017 06:11:23 PM
! INTERNAL TEMP:    	43.8 C	43.8 C
! # POINTS:         	501	501
! START FREQ:       	10.000 MHz	10.000 MHz
! STOP FREQ:        	107.903 125 MHz	107.903 125 MHz
! SOURCE POWER:     	High	High
! IFBW:             	100 Hz	100 Hz
! AVG FACTOR:       	  1 	  1 
! REF PLANE 1:      	0 mm	0 mm
! REF PLANE 2:      	0 mm	0 mm
! CAL TYPE:         	Full S11	Full S11
! CAL METHOD:       	SOLT	SOLT
! CAL LINE TYPE:    	Coax	Coax
! DUT PORT 1:       	K-Conn(F)	K-Conn(F)
! DUT PORT 2:       	K-Conn(F)	K-Conn(F)
! CAL STATUS:       	OK: Accuracy High	--
! PROP-V:       	0.700
! CABLE LOSS:       	0.000 dB/m
! REF IMPEDANCE:       	50.0
! Trace Specific Parameters:	TR1	TR2	TR3	TR4
! TRACE.#.Y (GRAPH TYPE)	LOG MAG	PHASE	REAL IMPEDANCE	IMAGINARY IMPEDANCE
! TRACE.#.X 	FREQ.GHZ	FREQ.GHZ	FREQ.GHZ	FREQ.GHZ
! S-PARAMETER	S11	S11	S11	S11
! SMOOTH/APERTURE %	0	0	0	0
! WINDOW	NSL	NSL	NSL	NSL
! GATING	OFF	OFF	OFF	OFF
! FGTD	OFF	OFF	OFF	OFF
Marker Information per Trace:	TR1	TR2	TR3	TR4
!MK1	--	--	--	--
!MK2	--	--	--	--
!MK3	--	--	--	--
!MK4	--	--	--	--
!MK5	--	--	--	--
!MK6	--	--	--	--
!MK7	--	--	--	--
!MK8	--	--	--	--
PNT	TR1.FREQ.GHZ	TR1.LOG MAG.dB	TR2.FREQ.GHZ	TR2.PHASE.deg	TR3.FREQ.GHZ	TR3.REAL IMPEDANCE.ohm	TR4.FREQ.GHZ	TR4.IMAGINARY IMPEDANCE.ohm
1	  0.010000000	-4.504100E+01	  0.010000000	6.561900E+01	  0.010000000	5.022800E+01	  0.010000000	5.120000E-01
2	  0.010195807	-4.456700E+01	  0.010195807	6.572700E+01	  0.010195807	5.024000E+01	  0.010195807	5.410000E-01
3	  0.010391613	-4.475200E+01	  0.010391613	6.652100E+01	  0.010391613	5.022800E+01	  0.010391613	5.330000E-01
4	  0.010587418	-4.451000E+01	  0.010587418	6.557400E+01	  0.010587418	5.024300E+01	  0.010587418	5.440000E-01
5	  0.010783225	-4.446400E+01	  0.010783225	6.391800E+01	  0.010783225	5.026000E+01	  0.010783225	5.400000E-01
6	  0.010979031	-4.401000E+01	  0.010979031	6.585800E+01	  0.010979031	5.025500E+01	  0.010979031	5.780000E-01
7	  0.011174837	-4.393400E+01	  0.011174837	6.501600E+01	  0.011174837	5.026500E+01	  0.011174837	5.790000E-01
8	  0.011370643	-4.392300E+01	  0.011370643	6.471400E+01	  0.011370643	5.026900E+01	  0.011370643	5.780000E-01
9	  0.011566450	-4.390500E+01	  0.011566450	6.428300E+01	  0.011566450	5.027400E+01	  0.011566450	5.770000E-01
10	  0.011762256	-4.372100E+01	  0.011762256	6.524400E+01	  0.011762256	5.027000E+01	  0.011762256	5.940000E-01
11	  0.011958062	-4.328200E+01	  0.011958062	6.615000E+01	  0.011958062	5.027300E+01	  0.011958062	6.300000E-01
12	  0.012153869	-4.330200E+01	  0.012153869	6.448200E+01	  0.012153869	5.029100E+01	  0.012153869	6.200000E-01
13	  0.012349674	-4.321400E+01	  0.012349674	6.441300E+01	  0.012349674	5.029500E+01	  0.012349674	6.260000E-01
14	  0.012545481	-4.312900E+01	  0.012545481	6.465700E+01	  0.012545481	5.029500E+01	  0.012545481	6.340000E-01
15	  0.012741288	-4.298800E+01	  0.012741288	6.322600E+01	  0.012741288	5.031600E+01	  0.012741288	6.360000E-01
16	  0.012937094	-4.300300E+01	  0.012937094	6.296700E+01	  0.012937094	5.031800E+01	  0.012937094	6.340000E-01
17	  0.013132900	-4.270000E+01	  0.013132900	6.406500E+01	  0.013132900	5.031700E+01	  0.013132900	6.630000E-01
18	  0.013328707	-4.278000E+01	  0.013328707	6.343300E+01	  0.013328707	5.032100E+01	  0.013328707	6.530000E-01
19	  0.013524513	-4.255500E+01	  0.013524513	6.470400E+01	  0.013524513	5.031400E+01	  0.013524513	6.770000E-01
20	  0.013720319	-4.257500E+01	  0.013720319	6.524400E+01	  0.013720319	5.030700E+01	  0.013720319	6.790000E-01
21	  0.013916126	-4.246300E+01	  0.013916126	6.571500E+01	  0.013916126	5.030500E+01	  0.013916126	6.900000E-01
22	  0.014111931	-4.241900E+01	  0.014111931	6.404400E+01	  0.014111931	5.032700E+01	  0.014111931	6.850000E-01
23	  0.014307737	-4.240800E+01	  0.014307737	6.562100E+01	  0.014307737	5.030900E+01	  0.014307737	6.940000E-01
24	  0.014503544	-4.248400E+01	  0.014503544	6.459500E+01	  0.014503544	5.031800E+01	  0.014503544	6.820000E-01
25	  0.014699350	-4.235500E+01	  0.014699350	6.414300E+01	  0.014699350	5.032800E+01	  0.014699350	6.900000E-01
26	  0.014895156	-4.223300E+01	  0.014895156	6.396500E+01	  0.014895156	5.033500E+01	  0.014895156	6.990000E-01
27	  0.015090963	-4.216700E+01	  0.015090963	6.415300E+01	  0.015090963	5.033500E+01	  0.015090963	7.060000E-01
28	  0.015286769	-4.197000E+01	  0.015286769	6.352700E+01	  0.015286769	5.035100E+01	  0.015286769	7.180000E-01
29	  0.015482575	-4.190800E+01	  0.015482575	6.296600E+01	  0.015482575	5.036100E+01	  0.015482575	7.200000E-01
30	  0.015678382	-4.197700E+01	  0.015678382	6.298200E+01	  0.015678382	5.035700E+01	  0.015678382	7.140000E-01
31	  0.015874187	-4.188400E+01	  0.015874187	6.287600E+01	  0.015874187	5.036300E+01	  0.015874187	7.210000E-01
32	  0.016069993	-4.185200E+01	  0.016069993	6.360600E+01	  0.016069993	5.035500E+01	  0.016069993	7.280000E-01
33	  0.016265800	-4.167000E+01	  0.016265800	6.382500E+01	  0.016265800	5.035900E+01	  0.016265800	7.450000E-01
34	  0.016461605	-4.174700E+01	  0.016461605	6.334500E+01	  0.016461605	5.036200E+01	  0.016461605	7.360000E-01
35	  0.016657412	-4.141500E+01	  0.016657412	6.208800E+01	  0.016657412	5.039300E+01	  0.016657412	7.560000E-01
36	  0.016853219	-4.155000E+01	  0.016853219	6.318900E+01	  0.016853219	5.037300E+01	  0.016853219	7.520000E-01
37	  0.017049024	-4.139600E+01	  0.017049024	6.216800E+01	  0.017049024	5.039300E+01	  0.017049024	7.580000E-01
38	  0.017244833	-4.141900E+01	  0.017244833	6.244200E+01	  0.017244833	5.038800E+01	  0.017244833	7.580000E-01
39	  0.017440638	-4.117600E+01	  0.017440638	6.250000E+01	  0.017440638	5.039800E+01	  0.017440638	7.800000E-01
40	  0.017636444	-4.119400E+01	  0.017636444	6.183600E+01	  0.017636444	5.040700E+01	  0.017636444	7.740000E-01
41	  0.017832249	-4.109500E+01	  0.017832249	6.139100E+01	  0.017832249	5.041700E+01	  0.017832249	7.800000E-01
42	  0.018028056	-4.112300E+01	  0.018028056	6.092000E+01	  0.018028056	5.042200E+01	  0.018028056	7.740000E-01
43	  0.018223861	-4.088400E+01	  0.018223861	6.204400E+01	  0.018223861	5.041800E+01	  0.018223861	8.040000E-01
44	  0.018419670	-4.097000E+01	  0.018419670	6.272700E+01	  0.018419670	5.040500E+01	  0.018419670	8.010000E-01
45	  0.018615475	-4.065600E+01	  0.018615475	6.150100E+01	  0.018615475	5.043700E+01	  0.018615475	8.220000E-01
46	  0.018811282	-4.058000E+01	  0.018811282	6.154400E+01	  0.018811282	5.044000E+01	  0.018811282	8.290000E-01
47	  0.019007087	-4.061100E+01	  0.019007087	6.119300E+01	  0.019007087	5.044400E+01	  0.019007087	8.240000E-01
48	  0.019202894	-4.053100E+01	  0.019202894	6.137700E+01	  0.019202894	5.044500E+01	  0.019202894	8.330000E-01
49	  0.019398699	-4.054400E+01	  0.019398699	6.099300E+01	  0.019398699	5.045000E+01	  0.019398699	8.280000E-01
50	  0.019594505	-4.043100E+01	  0.019594505	6.086300E+01	  0.019594505	5.045800E+01	  0.019594505	8.380000E-01
51	  0.019790314	-4.044100E+01	  0.019790314	6.190500E+01	  0.019790314	5.044200E+01	  0.019790314	8.450000E-01
52	  0.019986119	-4.023200E+01	  0.019986119	6.176100E+01	  0.019986119	5.045500E+01	  0.019986119	8.650000E-01
53	  0.020181926	-4.035700E+01	  0.020181926	6.127700E+01	  0.020181926	5.045600E+01	  0.020181926	8.490000E-01
54	  0.020377731	-4.025900E+01	  0.020377731	6.164800E+01	  0.020377731	5.045500E+01	  0.020377731	8.620000E-01
55	  0.020573538	-4.022400E+01	  0.020573538	6.114100E+01	  0.020573538	5.046500E+01	  0.020573538	8.610000E-01
56	  0.020769343	-4.015000E+01	  0.020769343	6.156600E+01	  0.020769343	5.046200E+01	  0.020769343	8.720000E-01
57	  0.020965151	-4.018100E+01	  0.020965151	6.157700E+01	  0.020965151	5.046000E+01	  0.020965151	8.690000E-01
58	  0.021160956	-4.009200E+01	  0.021160956	6.057700E+01	  0.021160956	5.048000E+01	  0.021160956	8.700000E-01
59	  0.021356763	-4.001200E+01	  0.021356763	6.074400E+01	  0.021356763	5.048200E+01	  0.021356763	8.790000E-01
60	  0.021552568	-4.003200E+01	  0.021552568	6.102400E+01	  0.021552568	5.047700E+01	  0.021552568	8.790000E-01
61	  0.021748375	-3.993600E+01	  0.021748375	6.059600E+01	  0.021748375	5.048900E+01	  0.021748375	8.860000E-01
62	  0.021944180	-3.986600E+01	  0.021944180	6.108900E+01	  0.021944180	5.048500E+01	  0.021944180	8.970000E-01
63	  0.022139989	-3.986900E+01	  0.022139989	5.993700E+01	  0.022139989	5.050300E+01	  0.022139989	8.870000E-01
64	  0.022335794	-3.987600E+01	  0.022335794	6.039600E+01	  0.022335794	5.049500E+01	  0.022335794	8.900000E-01
65	  0.022531601	-3.995200E+01	  0.022531601	5.999900E+01	  0.022531601	5.049700E+01	  0.022531601	8.790000E-01
66	  0.022727406	-3.976900E+01	  0.022727406	5.992200E+01	  0.022727406	5.050900E+01	  0.022727406	8.970000E-01
67	  0.022923212	-3.975100E+01	  0.022923212	5.958700E+01	  0.022923212	5.051500E+01	  0.022923212	8.960000E-01
68	  0.023119017	-3.966600E+01	  0.023119017	5.953700E+01	  0.023119017	5.052100E+01	  0.023119017	9.050000E-01
69	  0.023314826	-3.963700E+01	  0.023314826	5.782900E+01	  0.023314826	5.055000E+01	  0.023314826	8.920000E-01
70	  0.023510631	-3.965200E+01	  0.023510631	5.866700E+01	  0.023510631	5.053600E+01	  0.023510631	8.980000E-01
71	  0.023706438	-3.960400E+01	  0.023706438	5.832300E+01	  0.023706438	5.054400E+01	  0.023706438	9.000000E-01
72	  0.023902243	-3.941600E+01	  0.023902243	5.806000E+01	  0.023902243	5.056000E+01	  0.023902243	9.170000E-01
73	  0.024098050	-3.950900E+01	  0.024098050	5.805900E+01	  0.024098050	5.055400E+01	  0.024098050	9.070000E-01
74	  0.024293855	-3.938400E+01	  0.024293855	5.672100E+01	  0.024293855	5.058400E+01	  0.024293855	9.070000E-01
75	  0.024489662	-3.924400E+01	  0.024489662	5.702800E+01	  0.024489662	5.058800E+01	  0.024489662	9.260000E-01
76	  0.024685470	-3.931100E+01	  0.024685470	5.686900E+01	  0.024685470	5.058600E+01	  0.024685470	9.170000E-01
77	  0.024881275	-3.922300E+01	  0.024881275	5.725500E+01	  0.024881275	5.058600E+01	  0.024881275	9.300000E-01
78	  0.025077082	-3.917700E+01	  0.025077082	5.635700E+01	  0.025077082	5.060400E+01	  0.025077082	9.260000E-01
79	  0.025272887	-3.909900E+01	  0.025272887	5.620900E+01	  0.025272887	5.061200E+01	  0.025272887	9.330000E-01
80	  0.025468694	-3.906200E+01	  0.025468694	5.635200E+01	  0.025468694	5.061200E+01	  0.025468694	9.380000E-01
81	  0.025664499	-3.898100E+01	  0.025664499	5.596900E+01	  0.025664499	5.062400E+01	  0.025664499	9.430000E-01
82	  0.025860308	-3.886900E+01	  0.025860308	5.597900E+01	  0.025860308	5.063200E+01	  0.025860308	9.560000E-01
83	  0.026056113	-3.887000E+01	  0.026056113	5.631900E+01	  0.026056113	5.062600E+01	  0.026056113	9.590000E-01
84	  0.026251920	-3.875900E+01	  0.026251920	5.575800E+01	  0.026251920	5.064400E+01	  0.026251920	9.650000E-01
85	  0.026447725	-3.866200E+01	  0.026447725	5.623500E+01	  0.026447725	5.064200E+01	  0.026447725	9.820000E-01
86	  0.026643531	-3.870100E+01	  0.026643531	5.487100E+01	  0.026643531	5.066300E+01	  0.026643531	9.620000E-01
87	  0.026839336	-3.859100E+01	  0.026839336	5.502500E+01	  0.026839336	5.066900E+01	  0.026839336	9.760000E-01
88	  0.027035145	-3.853700E+01	  0.027035145	5.626400E+01	  0.027035145	5.065100E+01	  0.027035145	9.970000E-01
89	  0.027230950	-3.847800E+01	  0.027230950	5.507300E+01	  0.027230950	5.067700E+01	  0.027230950	9.900000E-01
90	  0.027426757	-3.836800E+01	  0.027426757	5.558000E+01	  0.027426757	5.067600E+01	  0.027426757	1.008000E+00
91	  0.027622562	-3.838100E+01	  0.027622562	5.539600E+01	  0.027622562	5.067800E+01	  0.027622562	1.005000E+00
92	  0.027818369	-3.828600E+01	  0.027818369	5.564900E+01	  0.027818369	5.068100E+01	  0.027818369	1.019000E+00
93	  0.028014174	-3.831700E+01	  0.028014174	5.552700E+01	  0.028014174	5.068100E+01	  0.028014174	1.014000E+00
94	  0.028209982	-3.826600E+01	  0.028209982	5.527600E+01	  0.028209982	5.069000E+01	  0.028209982	1.017000E+00
95	  0.028405787	-3.814400E+01	  0.028405787	5.520200E+01	  0.028405787	5.070100E+01	  0.028405787	1.031000E+00
96	  0.028601594	-3.819300E+01	  0.028601594	5.477300E+01	  0.028601594	5.070400E+01	  0.028601594	1.020000E+00
97	  0.028797399	-3.818900E+01	  0.028797399	5.498500E+01	  0.028797399	5.070100E+01	  0.028797399	1.023000E+00
98	  0.028993206	-3.835200E+01	  0.028993206	5.568400E+01	  0.028993206	5.067600E+01	  0.028993206	1.012000E+00
99	  0.029189013	-3.811800E+01	  0.029189013	5.526900E+01	  0.029189013	5.070100E+01	  0.029189013	1.035000E+00
100	  0.029384818	-3.809300E+01	  0.029384818	5.491100E+01	  0.029384818	5.071000E+01	  0.029384818	1.033000E+00
101	  0.029580627	-3.808200E+01	  0.029580627	5.547100E+01	  0.029580627	5.070100E+01	  0.029580627	1.041000E+00
102	  0.029776432	-3.814700E+01	  0.029776432	5.478000E+01	  0.029776432	5.070800E+01	  0.029776432	1.025000E+00
103	  0.029972238	-3.811600E+01	  0.029972238	5.431500E+01	  0.029972238	5.071900E+01	  0.029972238	1.023000E+00
104	  0.030168043	-3.808800E+01	  0.030168043	5.375100E+01	  0.030168043	5.073100E+01	  0.030168043	1.019000E+00
105	  0.030363850	-3.803900E+01	  0.030363850	5.411700E+01	  0.030363850	5.072900E+01	  0.030363850	1.030000E+00
106	  0.030559655	-3.792700E+01	  0.030559655	5.387400E+01	  0.030559655	5.074300E+01	  0.030559655	1.040000E+00
107	  0.030755464	-3.791300E+01	  0.030755464	5.334000E+01	  0.030755464	5.075400E+01	  0.030755464	1.035000E+00
108	  0.030951269	-3.792400E+01	  0.030951269	5.304500E+01	  0.030951269	5.075800E+01	  0.030951269	1.030000E+00
109	  0.031147076	-3.794500E+01	  0.031147076	5.334000E+01	  0.031147076	5.075100E+01	  0.031147076	1.031000E+00
110	  0.031342883	-3.774000E+01	  0.031342883	5.301100E+01	  0.031342883	5.077500E+01	  0.031342883	1.052000E+00
111	  0.031538688	-3.790100E+01	  0.031538688	5.282400E+01	  0.031538688	5.076400E+01	  0.031538688	1.030000E+00
112	  0.031734493	-3.771700E+01	  0.031734493	5.162800E+01	  0.031734493	5.080300E+01	  0.031734493	1.036000E+00
113	  0.031930301	-3.779900E+01	  0.031930301	5.168900E+01	  0.031930301	5.079400E+01	  0.031930301	1.027000E+00
114	  0.032126106	-3.759900E+01	  0.032126106	5.124300E+01	  0.032126106	5.082100E+01	  0.032126106	1.045000E+00
115	  0.032321911	-3.758000E+01	  0.032321911	5.099400E+01	  0.032321911	5.082700E+01	  0.032321911	1.043000E+00
116	  0.032517716	-3.765400E+01	  0.032517716	4.986100E+01	  0.032517716	5.084100E+01	  0.032517716	1.018000E+00
117	  0.032713525	-3.749800E+01	  0.032713525	5.042300E+01	  0.032713525	5.084600E+01	  0.032713525	1.045000E+00
118	  0.032909330	-3.759500E+01	  0.032909330	4.970200E+01	  0.032909330	5.085000E+01	  0.032909330	1.023000E+00
119	  0.033105139	-3.737500E+01	  0.033105139	4.962700E+01	  0.033105139	5.087300E+01	  0.033105139	1.048000E+00
120	  0.033300944	-3.742400E+01	  0.033300944	4.982600E+01	  0.033300944	5.086400E+01	  0.033300944	1.045000E+00
121	  0.033496749	-3.724100E+01	  0.033496749	4.974300E+01	  0.033496749	5.088400E+01	  0.033496749	1.067000E+00
122	  0.033692554	-3.724800E+01	  0.033692554	4.953600E+01	  0.033692554	5.088700E+01	  0.033692554	1.063000E+00
123	  0.033888362	-3.720600E+01	  0.033888362	4.863500E+01	  0.033888362	5.090800E+01	  0.033888362	1.054000E+00
124	  0.034084171	-3.723500E+01	  0.034084171	4.894400E+01	  0.034084171	5.090000E+01	  0.034084171	1.055000E+00
125	  0.034279976	-3.709300E+01	  0.034279976	4.957800E+01	  0.034279976	5.090200E+01	  0.034279976	1.083000E+00
126	  0.034475781	-3.693700E+01	  0.034475781	4.863900E+01	  0.034475781	5.093700E+01	  0.034475781	1.088000E+00
127	  0.034671586	-3.687300E+01	  0.034671586	4.910400E+01	  0.034671586	5.093500E+01	  0.034671586	1.103000E+00
128	  0.034867391	-3.695600E+01	  0.034867391	4.856600E+01	  0.034867391	5.093600E+01	  0.034867391	1.084000E+00
129	  0.035063203	-3.689800E+01	  0.035063203	4.886300E+01	  0.035063203	5.093700E+01	  0.035063203	1.096000E+00
130	  0.035259008	-3.671600E+01	  0.035259008	4.864900E+01	  0.035259008	5.096100E+01	  0.035259008	1.116000E+00
131	  0.035454813	-3.673800E+01	  0.035454813	4.897800E+01	  0.035454813	5.095200E+01	  0.035454813	1.119000E+00
132	  0.035650618	-3.671900E+01	  0.035650618	4.886500E+01	  0.035650618	5.095600E+01	  0.035650618	1.120000E+00
133	  0.035846427	-3.647100E+01	  0.035846427	4.855900E+01	  0.035846427	5.099000E+01	  0.035846427	1.147000E+00
134	  0.036042232	-3.655900E+01	  0.036042232	4.821700E+01	  0.036042232	5.098700E+01	  0.036042232	1.130000E+00
135	  0.036238037	-3.654800E+01	  0.036238037	4.848900E+01	  0.036238037	5.098300E+01	  0.036238037	1.136000E+00
136	  0.036433842	-3.640300E+01	  0.036433842	4.872200E+01	  0.036433842	5.099400E+01	  0.036433842	1.159000E+00
137	  0.036629651	-3.643900E+01	  0.036629651	4.853200E+01	  0.036629651	5.099400E+01	  0.036629651	1.151000E+00
138	  0.036825456	-3.634700E+01	  0.036825456	4.885100E+01	  0.036825456	5.099800E+01	  0.036825456	1.169000E+00
139	  0.037021261	-3.633900E+01	  0.037021261	4.861500E+01	  0.037021261	5.100400E+01	  0.037021261	1.166000E+00
140	  0.037217066	-3.634900E+01	  0.037217066	4.831500E+01	  0.037217066	5.100900E+01	  0.037217066	1.160000E+00
141	  0.037412878	-3.640000E+01	  0.037412878	4.828500E+01	  0.037412878	5.100400E+01	  0.037412878	1.152000E+00
142	  0.037608683	-3.622900E+01	  0.037608683	4.858400E+01	  0.037608683	5.101700E+01	  0.037608683	1.181000E+00
143	  0.037804488	-3.619600E+01	  0.037804488	4.827400E+01	  0.037804488	5.102800E+01	  0.037804488	1.180000E+00
144	  0.038000293	-3.619300E+01	  0.038000293	4.784700E+01	  0.038000293	5.103700E+01	  0.038000293	1.173000E+00
145	  0.038196102	-3.616200E+01	  0.038196102	4.778400E+01	  0.038196102	5.104200E+01	  0.038196102	1.176000E+00
146	  0.038391907	-3.613600E+01	  0.038391907	4.751000E+01	  0.038391907	5.105100E+01	  0.038391907	1.174000E+00
147	  0.038587712	-3.613600E+01	  0.038587712	4.705500E+01	  0.038587712	5.106000E+01	  0.038587712	1.166000E+00
148	  0.038783520	-3.612100E+01	  0.038783520	4.810600E+01	  0.038783520	5.104000E+01	  0.038783520	1.187000E+00
149	  0.038979325	-3.611000E+01	  0.038979325	4.750300E+01	  0.038979325	5.105400E+01	  0.038979325	1.178000E+00
150	  0.039175130	-3.613200E+01	  0.039175130	4.719400E+01	  0.039175130	5.105800E+01	  0.039175130	1.169000E+00
151	  0.039370935	-3.606900E+01	  0.039370935	4.680500E+01	  0.039370935	5.107400E+01	  0.039370935	1.171000E+00
152	  0.039566744	-3.602900E+01	  0.039566744	4.736400E+01	  0.039566744	5.106700E+01	  0.039566744	1.187000E+00
153	  0.039762549	-3.583500E+01	  0.039762549	4.650300E+01	  0.039762549	5.111000E+01	  0.039762549	1.197000E+00
154	  0.039958358	-3.590800E+01	  0.039958358	4.696900E+01	  0.039958358	5.109000E+01	  0.039958358	1.196000E+00
155	  0.040154163	-3.578700E+01	  0.040154163	4.696600E+01	  0.040154163	5.110600E+01	  0.040154163	1.213000E+00
156	  0.040349972	-3.575800E+01	  0.040349972	4.689800E+01	  0.040349972	5.111100E+01	  0.040349972	1.216000E+00
157	  0.040545776	-3.579500E+01	  0.040545776	4.654200E+01	  0.040545776	5.111400E+01	  0.040545776	1.204000E+00
158	  0.040741581	-3.573000E+01	  0.040741581	4.667500E+01	  0.040741581	5.111900E+01	  0.040741581	1.216000E+00
159	  0.040937386	-3.574200E+01	  0.040937386	4.649900E+01	  0.040937386	5.112200E+01	  0.040937386	1.211000E+00
160	  0.041133195	-3.569600E+01	  0.041133195	4.618600E+01	  0.041133195	5.113400E+01	  0.041133195	1.211000E+00
161	  0.041329000	-3.570600E+01	  0.041329000	4.630800E+01	  0.041329000	5.113000E+01	  0.041329000	1.212000E+00
162	  0.041524805	-3.561200E+01	  0.041524805	4.568300E+01	  0.041524805	5.115600E+01	  0.041524805	1.213000E+00
163	  0.041720610	-3.560800E+01	  0.041720610	4.542500E+01	  0.041720610	5.116200E+01	  0.041720610	1.208000E+00
164	  0.041916419	-3.553900E+01	  0.041916419	4.595300E+01	  0.041916419	5.116000E+01	  0.041916419	1.229000E+00
165	  0.042112224	-3.553800E+01	  0.042112224	4.585800E+01	  0.042112224	5.116200E+01	  0.042112224	1.227000E+00
166	  0.042308029	-3.540200E+01	  0.042308029	4.558700E+01	  0.042308029	5.118700E+01	  0.042308029	1.241000E+00
167	  0.042503837	-3.545500E+01	  0.042503837	4.524500E+01	  0.042503837	5.118700E+01	  0.042503837	1.227000E+00
168	  0.042699646	-3.542900E+01	  0.042699646	4.571000E+01	  0.042699646	5.118000E+01	  0.042699646	1.240000E+00
169	  0.042895451	-3.534800E+01	  0.042895451	4.521300E+01	  0.042895451	5.120200E+01	  0.042895451	1.241000E+00
170	  0.043091256	-3.546400E+01	  0.043091256	4.519500E+01	  0.043091256	5.118700E+01	  0.043091256	1.224000E+00
171	  0.043287061	-3.528600E+01	  0.043287061	4.557200E+01	  0.043287061	5.120300E+01	  0.043287061	1.258000E+00
172	  0.043482870	-3.525700E+01	  0.043482870	4.548400E+01	  0.043482870	5.120900E+01	  0.043482870	1.261000E+00
173	  0.043678675	-3.533500E+01	  0.043678675	4.556800E+01	  0.043678675	5.119600E+01	  0.043678675	1.251000E+00
174	  0.043874480	-3.529100E+01	  0.043874480	4.549100E+01	  0.043874480	5.120400E+01	  0.043874480	1.256000E+00
175	  0.044070289	-3.519100E+01	  0.044070289	4.532100E+01	  0.044070289	5.122200E+01	  0.044070289	1.267000E+00
176	  0.044266094	-3.519800E+01	  0.044266094	4.488800E+01	  0.044266094	5.123100E+01	  0.044266094	1.257000E+00
177	  0.044461899	-3.525100E+01	  0.044461899	4.488300E+01	  0.044461899	5.122300E+01	  0.044461899	1.249000E+00
178	  0.044657703	-3.526400E+01	  0.044657703	4.482800E+01	  0.044657703	5.122300E+01	  0.044657703	1.246000E+00
179	  0.044853516	-3.521800E+01	  0.044853516	4.502200E+01	  0.044853516	5.122500E+01	  0.044853516	1.257000E+00
180	  0.045049321	-3.518300E+01	  0.045049321	4.488500E+01	  0.045049321	5.123300E+01	  0.045049321	1.259000E+00
181	  0.045245126	-3.509400E+01	  0.045245126	4.420800E+01	  0.045245126	5.126100E+01	  0.045245126	1.257000E+00
182	  0.045440931	-3.513500E+01	  0.045440931	4.417900E+01	  0.045440931	5.125600E+01	  0.045440931	1.251000E+00
183	  0.045636740	-3.510900E+01	  0.045636740	4.372500E+01	  0.045636740	5.126900E+01	  0.045636740	1.244000E+00
184	  0.045832545	-3.515800E+01	  0.045832545	4.376900E+01	  0.045832545	5.126100E+01	  0.045832545	1.238000E+00
185	  0.046028350	-3.501700E+01	  0.046028350	4.354600E+01	  0.046028350	5.128700E+01	  0.046028350	1.254000E+00
186	  0.046224155	-3.503700E+01	  0.046224155	4.348400E+01	  0.046224155	5.128500E+01	  0.046224155	1.250000E+00
187	  0.046419963	-3.495000E+01	  0.046419963	4.310800E+01	  0.046419963	5.130700E+01	  0.046419963	1.254000E+00
188	  0.046615768	-3.494100E+01	  0.046615768	4.337500E+01	  0.046615768	5.130200E+01	  0.046615768	1.261000E+00
189	  0.046811573	-3.494600E+01	  0.046811573	4.291500E+01	  0.046811573	5.131200E+01	  0.046811573	1.250000E+00
190	  0.047007378	-3.483000E+01	  0.047007378	4.349700E+01	  0.047007378	5.131600E+01	  0.047007378	1.281000E+00
191	  0.047203191	-3.490700E+01	  0.047203191	4.302900E+01	  0.047203191	5.131500E+01	  0.047203191	1.259000E+00
192	  0.047398996	-3.485200E+01	  0.047398996	4.250300E+01	  0.047398996	5.133500E+01	  0.047398996	1.255000E+00
193	  0.047594801	-3.480700E+01	  0.047594801	4.300600E+01	  0.047594801	5.133100E+01	  0.047594801	1.273000E+00
194	  0.047790606	-3.479600E+01	  0.047790606	4.213300E+01	  0.047790606	5.135200E+01	  0.047790606	1.254000E+00
195	  0.047986414	-3.477700E+01	  0.047986414	4.243100E+01	  0.047986414	5.134900E+01	  0.047986414	1.264000E+00
196	  0.048182219	-3.469800E+01	  0.048182219	4.213800E+01	  0.048182219	5.136800E+01	  0.048182219	1.269000E+00
197	  0.048378024	-3.472000E+01	  0.048378024	4.189300E+01	  0.048378024	5.137000E+01	  0.048378024	1.260000E+00
198	  0.048573833	-3.471400E+01	  0.048573833	4.203800E+01	  0.048573833	5.136700E+01	  0.048573833	1.264000E+00
199	  0.048769638	-3.469600E+01	  0.048769638	4.209400E+01	  0.048769638	5.136900E+01	  0.048769638	1.268000E+00
200	  0.048965443	-3.456900E+01	  0.048965443	4.206100E+01	  0.048965443	5.139000E+01	  0.048965443	1.287000E+00
201	  0.049161248	-3.455800E+01	  0.049161248	4.168000E+01	  0.049161248	5.140100E+01	  0.049161248	1.279000E+00
202	  0.049357057	-3.456700E+01	  0.049357057	4.125700E+01	  0.049357057	5.140900E+01	  0.049357057	1.267000E+00
203	  0.049552862	-3.455400E+01	  0.049552862	4.157200E+01	  0.049552862	5.140400E+01	  0.049552862	1.277000E+00
204	  0.049748670	-3.445500E+01	  0.049748670	4.122600E+01	  0.049748670	5.142800E+01	  0.049748670	1.283000E+00
205	  0.049944475	-3.451500E+01	  0.049944475	4.092200E+01	  0.049944475	5.142500E+01	  0.049944475	1.267000E+00
206	  0.050140284	-3.436800E+01	  0.050140284	4.138300E+01	  0.050140284	5.143900E+01	  0.050140284	1.301000E+00
207	  0.050336089	-3.442500E+01	  0.050336089	4.125000E+01	  0.050336089	5.143200E+01	  0.050336089	1.288000E+00
208	  0.050531894	-3.443100E+01	  0.050531894	4.150200E+01	  0.050531894	5.142500E+01	  0.050531894	1.294000E+00
209	  0.050727699	-3.438800E+01	  0.050727699	4.146000E+01	  0.050727699	5.143300E+01	  0.050727699	1.300000E+00
210	  0.050923508	-3.433000E+01	  0.050923508	4.124800E+01	  0.050923508	5.144800E+01	  0.050923508	1.303000E+00
211	  0.051119313	-3.433300E+01	  0.051119313	4.074300E+01	  0.051119313	5.145900E+01	  0.051119313	1.290000E+00
212	  0.051315118	-3.441100E+01	  0.051315118	4.142400E+01	  0.051315118	5.143100E+01	  0.051315118	1.295000E+00
213	  0.051510923	-3.433700E+01	  0.051510923	4.057800E+01	  0.051510923	5.146200E+01	  0.051510923	1.285000E+00
214	  0.051706731	-3.436700E+01	  0.051706731	4.090500E+01	  0.051706731	5.145000E+01	  0.051706731	1.289000E+00
215	  0.051902536	-3.425100E+01	  0.051902536	4.065200E+01	  0.051902536	5.147500E+01	  0.051902536	1.300000E+00
216	  0.052098341	-3.424200E+01	  0.052098341	4.001500E+01	  0.052098341	5.149200E+01	  0.052098341	1.285000E+00
217	  0.052294150	-3.426300E+01	  0.052294150	3.965300E+01	  0.052294150	5.149600E+01	  0.052294150	1.272000E+00
218	  0.052489959	-3.423300E+01	  0.052489959	4.023500E+01	  0.052489959	5.148800E+01	  0.052489959	1.292000E+00
219	  0.052685764	-3.422500E+01	  0.052685764	3.975100E+01	  0.052685764	5.150100E+01	  0.052685764	1.281000E+00
220	  0.052881569	-3.423700E+01	  0.052881569	3.984400E+01	  0.052881569	5.149700E+01	  0.052881569	1.281000E+00
221	  0.053077377	-3.427500E+01	  0.053077377	3.919100E+01	  0.053077377	5.150500E+01	  0.053077377	1.258000E+00
222	  0.053273182	-3.413500E+01	  0.053273182	3.946800E+01	  0.053273182	5.152300E+01	  0.053273182	1.287000E+00
223	  0.053468987	-3.417700E+01	  0.053468987	3.885700E+01	  0.053468987	5.153000E+01	  0.053468987	1.264000E+00
224	  0.053664792	-3.414400E+01	  0.053664792	3.909900E+01	  0.053664792	5.153000E+01	  0.053664792	1.275000E+00
225	  0.053860601	-3.412100E+01	  0.053860601	3.869400E+01	  0.053860601	5.154300E+01	  0.053860601	1.268000E+00
226	  0.054056406	-3.411300E+01	  0.054056406	3.899300E+01	  0.054056406	5.153800E+01	  0.054056406	1.277000E+00
227	  0.054252211	-3.416600E+01	  0.054252211	3.878500E+01	  0.054252211	5.153300E+01	  0.054252211	1.264000E+00
228	  0.054448016	-3.410200E+01	  0.054448016	3.795800E+01	  0.054448016	5.156300E+01	  0.054448016	1.251000E+00
229	  0.054643828	-3.415400E+01	  0.054643828	3.802000E+01	  0.054643828	5.155300E+01	  0.054643828	1.245000E+00
230	  0.054839633	-3.396900E+01	  0.054839633	3.802600E+01	  0.054839633	5.158600E+01	  0.054839633	1.273000E+00
231	  0.055035438	-3.412600E+01	  0.055035438	3.822200E+01	  0.055035438	5.155300E+01	  0.055035438	1.254000E+00
232	  0.055231243	-3.397400E+01	  0.055231243	3.746100E+01	  0.055231243	5.159800E+01	  0.055231243	1.256000E+00
233	  0.055427052	-3.391100E+01	  0.055427052	3.744500E+01	  0.055427052	5.161000E+01	  0.055427052	1.265000E+00
234	  0.055622857	-3.395000E+01	  0.055622857	3.769300E+01	  0.055622857	5.159700E+01	  0.055622857	1.266000E+00
235	  0.055818662	-3.397900E+01	  0.055818662	3.718400E+01	  0.055818662	5.160300E+01	  0.055818662	1.248000E+00
236	  0.056014467	-3.389900E+01	  0.056014467	3.680300E+01	  0.056014467	5.162700E+01	  0.056014467	1.249000E+00
237	  0.056210276	-3.391100E+01	  0.056210276	3.692800E+01	  0.056210276	5.162200E+01	  0.056210276	1.250000E+00
238	  0.056406081	-3.384200E+01	  0.056406081	3.688800E+01	  0.056406081	5.163600E+01	  0.056406081	1.259000E+00
239	  0.056601886	-3.375600E+01	  0.056601886	3.651300E+01	  0.056601886	5.166100E+01	  0.056601886	1.262000E+00
240	  0.056797691	-3.380400E+01	  0.056797691	3.686400E+01	  0.056797691	5.164400E+01	  0.056797691	1.265000E+00
241	  0.056993503	-3.371000E+01	  0.056993503	3.639400E+01	  0.056993503	5.167200E+01	  0.056993503	1.265000E+00
242	  0.057189308	-3.383100E+01	  0.057189308	3.625900E+01	  0.057189308	5.165200E+01	  0.057189308	1.243000E+00
243	  0.057385113	-3.370100E+01	  0.057385113	3.622700E+01	  0.057385113	5.167800E+01	  0.057385113	1.261000E+00
244	  0.057580918	-3.364800E+01	  0.057580918	3.615300E+01	  0.057580918	5.169000E+01	  0.057580918	1.267000E+00
245	  0.057776727	-3.365800E+01	  0.057776727	3.570200E+01	  0.057776727	5.169800E+01	  0.057776727	1.252000E+00
246	  0.057972532	-3.356000E+01	  0.057972532	3.569400E+01	  0.057972532	5.171800E+01	  0.057972532	1.267000E+00
247	  0.058168337	-3.352800E+01	  0.058168337	3.524600E+01	  0.058168337	5.173400E+01	  0.058168337	1.258000E+00
248	  0.058364145	-3.352100E+01	  0.058364145	3.590000E+01	  0.058364145	5.172100E+01	  0.058364145	1.279000E+00
249	  0.058559950	-3.354100E+01	  0.058559950	3.536900E+01	  0.058559950	5.172900E+01	  0.058559950	1.260000E+00
250	  0.058755755	-3.351100E+01	  0.058755755	3.507700E+01	  0.058755755	5.174200E+01	  0.058755755	1.255000E+00
251	  0.058951560	-3.340200E+01	  0.058951560	3.569900E+01	  0.058951560	5.174900E+01	  0.058951560	1.291000E+00
252	  0.059147369	-3.341400E+01	  0.059147369	3.528300E+01	  0.059147369	5.175700E+01	  0.059147369	1.276000E+00
253	  0.059343174	-3.343300E+01	  0.059343174	3.526400E+01	  0.059343174	5.175300E+01	  0.059343174	1.273000E+00
254	  0.059538983	-3.355600E+01	  0.059538983	3.486600E+01	  0.059538983	5.173700E+01	  0.059538983	1.242000E+00
255	  0.059734788	-3.343100E+01	  0.059734788	3.508900E+01	  0.059734788	5.175800E+01	  0.059734788	1.268000E+00
256	  0.059930597	-3.334500E+01	  0.059930597	3.510400E+01	  0.059930597	5.177500E+01	  0.059930597	1.281000E+00
257	  0.060126401	-3.337300E+01	  0.060126401	3.481000E+01	  0.060126401	5.177600E+01	  0.060126401	1.268000E+00
258	  0.060322206	-3.330000E+01	  0.060322206	3.481700E+01	  0.060322206	5.179100E+01	  0.060322206	1.279000E+00
259	  0.060518011	-3.328400E+01	  0.060518011	3.497300E+01	  0.060518011	5.179100E+01	  0.060518011	1.287000E+00
260	  0.060713820	-3.332700E+01	  0.060713820	3.453000E+01	  0.060713820	5.179200E+01	  0.060713820	1.266000E+00
261	  0.060909625	-3.325100E+01	  0.060909625	3.473000E+01	  0.060909625	5.180300E+01	  0.060909625	1.284000E+00
262	  0.061105430	-3.328200E+01	  0.061105430	3.458500E+01	  0.061105430	5.180000E+01	  0.061105430	1.275000E+00
263	  0.061301235	-3.325900E+01	  0.061301235	3.460400E+01	  0.061301235	5.180400E+01	  0.061301235	1.279000E+00
264	  0.061497044	-3.321600E+01	  0.061497044	3.407000E+01	  0.061497044	5.182600E+01	  0.061497044	1.268000E+00
265	  0.061692849	-3.317900E+01	  0.061692849	3.398700E+01	  0.061692849	5.183600E+01	  0.061692849	1.271000E+00
266	  0.061888654	-3.320200E+01	  0.061888654	3.389600E+01	  0.061888654	5.183300E+01	  0.061888654	1.265000E+00
267	  0.062084462	-3.318600E+01	  0.062084462	3.407100E+01	  0.062084462	5.183200E+01	  0.062084462	1.273000E+00
268	  0.062280271	-3.312100E+01	  0.062280271	3.370100E+01	  0.062280271	5.185500E+01	  0.062280271	1.271000E+00
269	  0.062476076	-3.312500E+01	  0.062476076	3.414300E+01	  0.062476076	5.184300E+01	  0.062476076	1.284000E+00
270	  0.062671877	-3.312900E+01	  0.062671877	3.418600E+01	  0.062671877	5.184200E+01	  0.062671877	1.285000E+00
271	  0.062867686	-3.316100E+01	  0.062867686	3.370900E+01	  0.062867686	5.184600E+01	  0.062867686	1.265000E+00
272	  0.063063495	-3.311400E+01	  0.063063495	3.354300E+01	  0.063063495	5.186000E+01	  0.063063495	1.266000E+00
273	  0.063259304	-3.305300E+01	  0.063259304	3.367300E+01	  0.063259304	5.187000E+01	  0.063259304	1.280000E+00
274	  0.063455105	-3.314700E+01	  0.063455105	3.356600E+01	  0.063455105	5.185200E+01	  0.063455105	1.262000E+00
275	  0.063650914	-3.309200E+01	  0.063650914	3.305600E+01	  0.063650914	5.187600E+01	  0.063650914	1.254000E+00
276	  0.063846722	-3.304100E+01	  0.063846722	3.278500E+01	  0.063846722	5.189300E+01	  0.063846722	1.252000E+00
277	  0.064042524	-3.286200E+01	  0.064042524	3.328900E+01	  0.064042524	5.192100E+01	  0.064042524	1.296000E+00
278	  0.064238332	-3.312300E+01	  0.064238332	3.324900E+01	  0.064238332	5.186500E+01	  0.064238332	1.255000E+00
279	  0.064434141	-3.300500E+01	  0.064434141	3.295200E+01	  0.064434141	5.189700E+01	  0.064434141	1.263000E+00
280	  0.064629942	-3.297000E+01	  0.064629942	3.306100E+01	  0.064629942	5.190200E+01	  0.064629942	1.272000E+00
281	  0.064825751	-3.297700E+01	  0.064825751	3.275700E+01	  0.064825751	5.190800E+01	  0.064825751	1.261000E+00
282	  0.065021552	-3.295800E+01	  0.065021552	3.224500E+01	  0.065021552	5.192400E+01	  0.065021552	1.246000E+00
283	  0.065217361	-3.298700E+01	  0.065217361	3.260200E+01	  0.065217361	5.190900E+01	  0.065217361	1.254000E+00
284	  0.065413170	-3.285400E+01	  0.065413170	3.217200E+01	  0.065413170	5.194900E+01	  0.065413170	1.260000E+00
285	  0.065608978	-3.296600E+01	  0.065608978	3.264300E+01	  0.065608978	5.191300E+01	  0.065608978	1.259000E+00
286	  0.065804780	-3.280800E+01	  0.065804780	3.234100E+01	  0.065804780	5.195500E+01	  0.065804780	1.272000E+00
287	  0.066000588	-3.290700E+01	  0.066000588	3.211700E+01	  0.066000588	5.193800E+01	  0.066000588	1.250000E+00
288	  0.066196397	-3.290100E+01	  0.066196397	3.192800E+01	  0.066196397	5.194400E+01	  0.066196397	1.244000E+00
289	  0.066392198	-3.296100E+01	  0.066392198	3.135400E+01	  0.066392198	5.194300E+01	  0.066392198	1.216000E+00
290	  0.066588007	-3.286400E+01	  0.066588007	3.134500E+01	  0.066588007	5.196500E+01	  0.066588007	1.229000E+00
291	  0.066783816	-3.292200E+01	  0.066783816	3.217500E+01	  0.066783816	5.193300E+01	  0.066783816	1.249000E+00
292	  0.066979617	-3.276900E+01	  0.066979617	3.177900E+01	  0.066979617	5.197700E+01	  0.066979617	1.259000E+00
293	  0.067175426	-3.285500E+01	  0.067175426	3.129900E+01	  0.067175426	5.196800E+01	  0.067175426	1.229000E+00
294	  0.067371234	-3.279500E+01	  0.067371234	3.126100E+01	  0.067371234	5.198300E+01	  0.067371234	1.237000E+00
295	  0.067567036	-3.281400E+01	  0.067567036	3.092100E+01	  0.067567036	5.198600E+01	  0.067567036	1.222000E+00
296	  0.067762844	-3.285300E+01	  0.067762844	3.124000E+01	  0.067762844	5.197000E+01	  0.067762844	1.228000E+00
297	  0.067958646	-3.276200E+01	  0.067958646	3.098700E+01	  0.067958646	5.199700E+01	  0.067958646	1.232000E+00
298	  0.068154462	-3.283800E+01	  0.068154462	3.143500E+01	  0.068154462	5.196900E+01	  0.068154462	1.237000E+00
299	  0.068350263	-3.273300E+01	  0.068350263	3.042600E+01	  0.068350263	5.201600E+01	  0.068350263	1.216000E+00
300	  0.068546072	-3.270000E+01	  0.068546072	3.082200E+01	  0.068546072	5.201500E+01	  0.068546072	1.235000E+00
301	  0.068741873	-3.276700E+01	  0.068741873	3.061300E+01	  0.068741873	5.200400E+01	  0.068741873	1.218000E+00
302	  0.068937682	-3.274100E+01	  0.068937682	3.001600E+01	  0.068937682	5.202300E+01	  0.068937682	1.201000E+00
303	  0.069133483	-3.278200E+01	  0.069133483	3.059200E+01	  0.069133483	5.200100E+01	  0.069133483	1.215000E+00
304	  0.069329299	-3.274400E+01	  0.069329299	3.031600E+01	  0.069329299	5.201600E+01	  0.069329299	1.211000E+00
305	  0.069525100	-3.264100E+01	  0.069525100	3.067000E+01	  0.069525100	5.203200E+01	  0.069525100	1.239000E+00
306	  0.069720909	-3.272700E+01	  0.069720909	3.002400E+01	  0.069720909	5.202600E+01	  0.069720909	1.203000E+00
307	  0.069916710	-3.270200E+01	  0.069916710	2.970400E+01	  0.069916710	5.203900E+01	  0.069916710	1.195000E+00
308	  0.070112519	-3.267800E+01	  0.070112519	2.900700E+01	  0.070112519	5.206000E+01	  0.070112519	1.173000E+00
309	  0.070308320	-3.266700E+01	  0.070308320	2.983300E+01	  0.070308320	5.204500E+01	  0.070308320	1.205000E+00
310	  0.070504129	-3.267100E+01	  0.070504129	2.955800E+01	  0.070504129	5.205000E+01	  0.070504129	1.194000E+00
311	  0.070699938	-3.265900E+01	  0.070699938	2.933300E+01	  0.070699938	5.205800E+01	  0.070699938	1.188000E+00
312	  0.070895746	-3.258800E+01	  0.070895746	2.939700E+01	  0.070895746	5.207300E+01	  0.070895746	1.200000E+00
313	  0.071091555	-3.272300E+01	  0.071091555	2.940400E+01	  0.071091555	5.204100E+01	  0.071091555	1.181000E+00
314	  0.071287356	-3.268800E+01	  0.071287356	2.868400E+01	  0.071287356	5.206400E+01	  0.071287356	1.160000E+00
315	  0.071483165	-3.267000E+01	  0.071483165	2.895900E+01	  0.071483165	5.206300E+01	  0.071483165	1.172000E+00
316	  0.071678966	-3.256800E+01	  0.071678966	2.899700E+01	  0.071678966	5.208700E+01	  0.071678966	1.188000E+00
317	  0.071874775	-3.265600E+01	  0.071874775	2.837100E+01	  0.071874775	5.207900E+01	  0.071874775	1.153000E+00
318	  0.072070576	-3.258100E+01	  0.072070576	2.829800E+01	  0.072070576	5.209800E+01	  0.072070576	1.161000E+00
319	  0.072266392	-3.269700E+01	  0.072266392	2.806600E+01	  0.072266392	5.207500E+01	  0.072266392	1.136000E+00
320	  0.072462194	-3.271700E+01	  0.072462194	2.793600E+01	  0.072462194	5.207300E+01	  0.072462194	1.129000E+00
321	  0.072658002	-3.263500E+01	  0.072658002	2.764400E+01	  0.072658002	5.209900E+01	  0.072658002	1.129000E+00
322	  0.072853811	-3.255000E+01	  0.072853811	2.760700E+01	  0.072853811	5.212000E+01	  0.072853811	1.139000E+00
323	  0.073049612	-3.256200E+01	  0.073049612	2.713400E+01	  0.073049612	5.212700E+01	  0.073049612	1.120000E+00
324	  0.073245421	-3.260200E+01	  0.073245421	2.725300E+01	  0.073245421	5.211500E+01	  0.073245421	1.119000E+00
325	  0.073441222	-3.261500E+01	  0.073441222	2.738700E+01	  0.073441222	5.210900E+01	  0.073441222	1.122000E+00
326	  0.073637031	-3.252000E+01	  0.073637031	2.686800E+01	  0.073637031	5.214300E+01	  0.073637031	1.115000E+00
327	  0.073832840	-3.257400E+01	  0.073832840	2.658800E+01	  0.073832840	5.213500E+01	  0.073832840	1.097000E+00
328	  0.074028648	-3.258400E+01	  0.074028648	2.662700E+01	  0.074028648	5.213200E+01	  0.074028648	1.098000E+00
329	  0.074224450	-3.255300E+01	  0.074224450	2.696100E+01	  0.074224450	5.213300E+01	  0.074224450	1.114000E+00
330	  0.074420258	-3.260400E+01	  0.074420258	2.602500E+01	  0.074420258	5.213900E+01	  0.074420258	1.072000E+00
331	  0.074616060	-3.254200E+01	  0.074616060	2.589300E+01	  0.074616060	5.215700E+01	  0.074616060	1.075000E+00
332	  0.074811868	-3.255900E+01	  0.074811868	2.559800E+01	  0.074811868	5.215900E+01	  0.074811868	1.062000E+00
333	  0.075007670	-3.253700E+01	  0.075007670	2.538900E+01	  0.075007670	5.216800E+01	  0.075007670	1.056000E+00
334	  0.075203478	-3.253800E+01	  0.075203478	2.512700E+01	  0.075203478	5.217300E+01	  0.075203478	1.046000E+00
335	  0.075399294	-3.252300E+01	  0.075399294	2.522300E+01	  0.075399294	5.217500E+01	  0.075399294	1.052000E+00
336	  0.075595096	-3.247200E+01	  0.075595096	2.410600E+01	  0.075595096	5.220900E+01	  0.075595096	1.015000E+00
337	  0.075790904	-3.251100E+01	  0.075790904	2.472400E+01	  0.075790904	5.218700E+01	  0.075790904	1.034000E+00
338	  0.075986706	-3.245500E+01	  0.075986706	2.412100E+01	  0.075986706	5.221300E+01	  0.075986706	1.017000E+00
339	  0.076182514	-3.247000E+01	  0.076182514	2.453100E+01	  0.076182514	5.220200E+01	  0.076182514	1.032000E+00
340	  0.076378316	-3.240300E+01	  0.076378316	2.436600E+01	  0.076378316	5.222200E+01	  0.076378316	1.033000E+00
341	  0.076574124	-3.235100E+01	  0.076574124	2.387200E+01	  0.076574124	5.224500E+01	  0.076574124	1.020000E+00
342	  0.076769926	-3.238700E+01	  0.076769926	2.334100E+01	  0.076769926	5.224500E+01	  0.076769926	9.950000E-01
343	  0.076965742	-3.240800E+01	  0.076965742	2.341200E+01	  0.076965742	5.223800E+01	  0.076965742	9.950000E-01
344	  0.077161543	-3.240900E+01	  0.077161543	2.349500E+01	  0.077161543	5.223700E+01	  0.077161543	9.980000E-01
345	  0.077357352	-3.226100E+01	  0.077357352	2.264200E+01	  0.077357352	5.229100E+01	  0.077357352	9.810000E-01
346	  0.077553153	-3.227000E+01	  0.077553153	2.280000E+01	  0.077553153	5.228600E+01	  0.077553153	9.870000E-01
347	  0.077748962	-3.229600E+01	  0.077748962	2.309100E+01	  0.077748962	5.227400E+01	  0.077748962	9.950000E-01
348	  0.077944770	-3.234300E+01	  0.077944770	2.287800E+01	  0.077944770	5.226500E+01	  0.077944770	9.810000E-01
349	  0.078140572	-3.229800E+01	  0.078140572	2.201200E+01	  0.078140572	5.229300E+01	  0.078140572	9.510000E-01
350	  0.078336388	-3.231800E+01	  0.078336388	2.191700E+01	  0.078336388	5.228900E+01	  0.078336388	9.450000E-01
351	  0.078532189	-3.222400E+01	  0.078532189	2.193700E+01	  0.078532189	5.231400E+01	  0.078532189	9.570000E-01
352	  0.078727998	-3.221600E+01	  0.078727998	2.165900E+01	  0.078727998	5.232100E+01	  0.078727998	9.460000E-01
353	  0.078923799	-3.214700E+01	  0.078923799	2.158900E+01	  0.078923799	5.234100E+01	  0.078923799	9.510000E-01
354	  0.079119608	-3.215700E+01	  0.079119608	2.107900E+01	  0.079119608	5.234700E+01	  0.079119608	9.290000E-01
355	  0.079315409	-3.218100E+01	  0.079315409	2.114100E+01	  0.079315409	5.233900E+01	  0.079315409	9.290000E-01
356	  0.079511218	-3.219100E+01	  0.079511218	2.073500E+01	  0.079511218	5.234400E+01	  0.079511218	9.110000E-01
357	  0.079707019	-3.213300E+01	  0.079707019	2.082700E+01	  0.079707019	5.235800E+01	  0.079707019	9.210000E-01
358	  0.079902835	-3.218500E+01	  0.079902835	2.043700E+01	  0.079902835	5.235000E+01	  0.079902835	8.990000E-01
359	  0.080098644	-3.204400E+01	  0.080098644	1.972900E+01	  0.080098644	5.240100E+01	  0.080098644	8.840000E-01
360	  0.080294445	-3.199900E+01	  0.080294445	2.011300E+01	  0.080294445	5.240700E+01	  0.080294445	9.060000E-01
361	  0.080490254	-3.201700E+01	  0.080490254	2.040900E+01	  0.080490254	5.239700E+01	  0.080490254	9.160000E-01
362	  0.080686055	-3.204800E+01	  0.080686055	1.979100E+01	  0.080686055	5.239900E+01	  0.080686055	8.860000E-01
363	  0.080881864	-3.194700E+01	  0.080881864	1.936000E+01	  0.080881864	5.243400E+01	  0.080881864	8.790000E-01
364	  0.081077665	-3.195000E+01	  0.081077665	1.958300E+01	  0.081077665	5.243000E+01	  0.081077665	8.880000E-01
365	  0.081273474	-3.197100E+01	  0.081273474	1.932500E+01	  0.081273474	5.242800E+01	  0.081273474	8.750000E-01
366	  0.081469283	-3.183300E+01	  0.081469283	1.906100E+01	  0.081469283	5.247200E+01	  0.081469283	8.780000E-01
367	  0.081665091	-3.188600E+01	  0.081665091	1.940700E+01	  0.081665091	5.245100E+01	  0.081665091	8.870000E-01
368	  0.081860892	-3.191300E+01	  0.081860892	1.976700E+01	  0.081860892	5.243800E+01	  0.081860892	9.000000E-01
369	  0.082056701	-3.183200E+01	  0.082056701	1.846900E+01	  0.082056701	5.248200E+01	  0.082056701	8.520000E-01
370	  0.082252502	-3.179500E+01	  0.082252502	1.885800E+01	  0.082252502	5.248600E+01	  0.082252502	8.730000E-01
371	  0.082448311	-3.180700E+01	  0.082448311	1.904300E+01	  0.082448311	5.248000E+01	  0.082448311	8.800000E-01
372	  0.082644112	-3.173800E+01	  0.082644112	1.840400E+01	  0.082644112	5.251000E+01	  0.082644112	8.580000E-01
373	  0.082839929	-3.172600E+01	  0.082839929	1.887700E+01	  0.082839929	5.250600E+01	  0.082839929	8.810000E-01
374	  0.083035737	-3.172700E+01	  0.083035737	1.827000E+01	  0.083035737	5.251600E+01	  0.083035737	8.540000E-01
375	  0.083231539	-3.170700E+01	  0.083231539	1.826900E+01	  0.083231539	5.252200E+01	  0.083231539	8.560000E-01
376	  0.083427347	-3.173000E+01	  0.083427347	1.819600E+01	  0.083427347	5.251600E+01	  0.083427347	8.500000E-01
377	  0.083623149	-3.167500E+01	  0.083623149	1.834700E+01	  0.083623149	5.253000E+01	  0.083623149	8.620000E-01
378	  0.083818957	-3.165600E+01	  0.083818957	1.820400E+01	  0.083818957	5.253800E+01	  0.083818957	8.580000E-01
379	  0.084014758	-3.167700E+01	  0.084014758	1.813400E+01	  0.084014758	5.253300E+01	  0.084014758	8.530000E-01
380	  0.084210567	-3.160400E+01	  0.084210567	1.771500E+01	  0.084210567	5.256100E+01	  0.084210567	8.410000E-01
381	  0.084406376	-3.161800E+01	  0.084406376	1.773500E+01	  0.084406376	5.255700E+01	  0.084406376	8.400000E-01
382	  0.084602185	-3.159200E+01	  0.084602185	1.780100E+01	  0.084602185	5.256300E+01	  0.084602185	8.460000E-01
383	  0.084797986	-3.152900E+01	  0.084797986	1.785400E+01	  0.084797986	5.258200E+01	  0.084797986	8.550000E-01
384	  0.084993795	-3.165400E+01	  0.084993795	1.731000E+01	  0.084993795	5.255200E+01	  0.084993795	8.180000E-01
385	  0.085189603	-3.147600E+01	  0.085189603	1.784500E+01	  0.085189603	5.259800E+01	  0.085189603	8.600000E-01
386	  0.085385405	-3.157300E+01	  0.085385405	1.768600E+01	  0.085385405	5.257100E+01	  0.085385405	8.430000E-01
387	  0.085581213	-3.151700E+01	  0.085581213	1.742300E+01	  0.085581213	5.259200E+01	  0.085581213	8.360000E-01
388	  0.085777014	-3.159100E+01	  0.085777014	1.737400E+01	  0.085777014	5.257000E+01	  0.085777014	8.270000E-01
389	  0.085972831	-3.149900E+01	  0.085972831	1.726800E+01	  0.085972831	5.260000E+01	  0.085972831	8.310000E-01
390	  0.086168632	-3.151600E+01	  0.086168632	1.689000E+01	  0.086168632	5.260000E+01	  0.086168632	8.120000E-01
391	  0.086364441	-3.157200E+01	  0.086364441	1.670500E+01	  0.086364441	5.258600E+01	  0.086364441	7.980000E-01
392	  0.086560242	-3.147300E+01	  0.086560242	1.704700E+01	  0.086560242	5.261100E+01	  0.086560242	8.230000E-01
393	  0.086756051	-3.144900E+01	  0.086756051	1.704600E+01	  0.086756051	5.261900E+01	  0.086756051	8.260000E-01
394	  0.086951852	-3.144900E+01	  0.086951852	1.657300E+01	  0.086951852	5.262600E+01	  0.086951852	8.040000E-01
395	  0.087147661	-3.151100E+01	  0.087147661	1.641800E+01	  0.087147661	5.260900E+01	  0.087147661	7.900000E-01
396	  0.087343477	-3.142700E+01	  0.087343477	1.641300E+01	  0.087343477	5.263500E+01	  0.087343477	7.980000E-01
397	  0.087539278	-3.138500E+01	  0.087539278	1.656700E+01	  0.087539278	5.264600E+01	  0.087539278	8.100000E-01
398	  0.087735087	-3.144600E+01	  0.087735087	1.621600E+01	  0.087735087	5.263200E+01	  0.087735087	7.870000E-01
399	  0.087930888	-3.145800E+01	  0.087930888	1.625900E+01	  0.087930888	5.262800E+01	  0.087930888	7.880000E-01
400	  0.088126697	-3.137700E+01	  0.088126697	1.642800E+01	  0.088126697	5.265000E+01	  0.088126697	8.040000E-01
401	  0.088322498	-3.144900E+01	  0.088322498	1.593700E+01	  0.088322498	5.263500E+01	  0.088322498	7.740000E-01
402	  0.088518307	-3.139100E+01	  0.088518307	1.570400E+01	  0.088518307	5.265600E+01	  0.088518307	7.680000E-01
403	  0.088714108	-3.137200E+01	  0.088714108	1.578800E+01	  0.088714108	5.266100E+01	  0.088714108	7.740000E-01
404	  0.088909924	-3.139600E+01	  0.088909924	1.552800E+01	  0.088909924	5.265700E+01	  0.088909924	7.590000E-01
405	  0.089105725	-3.133700E+01	  0.089105725	1.597900E+01	  0.089105725	5.267000E+01	  0.089105725	7.860000E-01
406	  0.089301534	-3.134900E+01	  0.089301534	1.532000E+01	  0.089301534	5.267500E+01	  0.089301534	7.540000E-01
407	  0.089497335	-3.130200E+01	  0.089497335	1.568000E+01	  0.089497335	5.268500E+01	  0.089497335	7.750000E-01
408	  0.089693144	-3.130200E+01	  0.089693144	1.527500E+01	  0.089693144	5.269000E+01	  0.089693144	7.560000E-01
409	  0.089888945	-3.126400E+01	  0.089888945	1.486500E+01	  0.089888945	5.270800E+01	  0.089888945	7.390000E-01
410	  0.090084754	-3.123400E+01	  0.090084754	1.483500E+01	  0.090084754	5.271800E+01	  0.090084754	7.410000E-01
411	  0.090280563	-3.128900E+01	  0.090280563	1.516400E+01	  0.090280563	5.269600E+01	  0.090280563	7.520000E-01
412	  0.090476371	-3.122900E+01	  0.090476371	1.477900E+01	  0.090476371	5.272100E+01	  0.090476371	7.380000E-01
413	  0.090672180	-3.129400E+01	  0.090672180	1.481900E+01	  0.090672180	5.269900E+01	  0.090672180	7.340000E-01
414	  0.090867981	-3.123400E+01	  0.090867981	1.427000E+01	  0.090867981	5.272600E+01	  0.090867981	7.130000E-01
415	  0.091063790	-3.121800E+01	  0.091063790	1.470200E+01	  0.091063790	5.272500E+01	  0.091063790	7.360000E-01
416	  0.091259591	-3.112100E+01	  0.091259591	1.441900E+01	  0.091259591	5.276000E+01	  0.091259591	7.300000E-01
417	  0.091455400	-3.118500E+01	  0.091455400	1.460900E+01	  0.091455400	5.273700E+01	  0.091455400	7.340000E-01
418	  0.091651201	-3.119100E+01	  0.091651201	1.443100E+01	  0.091651201	5.273700E+01	  0.091651201	7.250000E-01
419	  0.091847017	-3.112900E+01	  0.091847017	1.474100E+01	  0.091847017	5.275400E+01	  0.091847017	7.460000E-01
420	  0.092042819	-3.118700E+01	  0.092042819	1.487500E+01	  0.092042819	5.273300E+01	  0.092042819	7.470000E-01
421	  0.092238627	-3.120300E+01	  0.092238627	1.432900E+01	  0.092238627	5.273500E+01	  0.092238627	7.190000E-01
422	  0.092434436	-3.120900E+01	  0.092434436	1.435400E+01	  0.092434436	5.273300E+01	  0.092434436	7.190000E-01
423	  0.092630237	-3.121200E+01	  0.092630237	1.460000E+01	  0.092630237	5.272900E+01	  0.092630237	7.310000E-01
424	  0.092826046	-3.116000E+01	  0.092826046	1.387700E+01	  0.092826046	5.275500E+01	  0.092826046	7.000000E-01
425	  0.093021847	-3.114500E+01	  0.093021847	1.420800E+01	  0.093021847	5.275500E+01	  0.093021847	7.180000E-01
426	  0.093217656	-3.122500E+01	  0.093217656	1.418000E+01	  0.093217656	5.273000E+01	  0.093217656	7.100000E-01
427	  0.093413465	-3.118600E+01	  0.093413465	1.372500E+01	  0.093413465	5.274800E+01	  0.093413465	6.910000E-01
428	  0.093609273	-3.115900E+01	  0.093609273	1.405800E+01	  0.093609273	5.275300E+01	  0.093609273	7.090000E-01
429	  0.093805075	-3.116000E+01	  0.093805075	1.353800E+01	  0.093805075	5.275900E+01	  0.093805075	6.830000E-01
430	  0.094000883	-3.120500E+01	  0.094000883	1.334000E+01	  0.094000883	5.274700E+01	  0.094000883	6.700000E-01
431	  0.094196685	-3.118200E+01	  0.094196685	1.325400E+01	  0.094196685	5.275600E+01	  0.094196685	6.680000E-01
432	  0.094392493	-3.115600E+01	  0.094392493	1.341400E+01	  0.094392493	5.276200E+01	  0.094392493	6.780000E-01
433	  0.094588295	-3.109100E+01	  0.094588295	1.325200E+01	  0.094588295	5.278500E+01	  0.094588295	6.750000E-01
434	  0.094784103	-3.118300E+01	  0.094784103	1.271600E+01	  0.094784103	5.276200E+01	  0.094784103	6.410000E-01
435	  0.094979919	-3.119000E+01	  0.094979919	1.350800E+01	  0.094979919	5.275000E+01	  0.094979919	6.800000E-01
436	  0.095175721	-3.116700E+01	  0.095175721	1.281400E+01	  0.095175721	5.276600E+01	  0.095175721	6.470000E-01
437	  0.095371529	-3.112500E+01	  0.095371529	1.375900E+01	  0.095371529	5.276800E+01	  0.095371529	6.970000E-01
438	  0.095567331	-3.123200E+01	  0.095567331	1.262900E+01	  0.095567331	5.274700E+01	  0.095567331	6.330000E-01
439	  0.095763139	-3.116900E+01	  0.095763139	1.233500E+01	  0.095763139	5.277100E+01	  0.095763139	6.230000E-01
440	  0.095958941	-3.115300E+01	  0.095958941	1.214000E+01	  0.095958941	5.277800E+01	  0.095958941	6.150000E-01
441	  0.096154749	-3.120700E+01	  0.096154749	1.223500E+01	  0.096154749	5.276000E+01	  0.096154749	6.150000E-01
442	  0.096350558	-3.112800E+01	  0.096350558	1.212100E+01	  0.096350558	5.278700E+01	  0.096350558	6.160000E-01
443	  0.096546367	-3.115500E+01	  0.096546367	1.210700E+01	  0.096546367	5.277800E+01	  0.096546367	6.130000E-01
444	  0.096742168	-3.116200E+01	  0.096742168	1.183000E+01	  0.096742168	5.277900E+01	  0.096742168	5.990000E-01
445	  0.096937977	-3.111700E+01	  0.096937977	1.169400E+01	  0.096937977	5.279500E+01	  0.096937977	5.950000E-01
446	  0.097133778	-3.116500E+01	  0.097133778	1.147900E+01	  0.097133778	5.278200E+01	  0.097133778	5.810000E-01
447	  0.097329587	-3.114400E+01	  0.097329587	1.156700E+01	  0.097329587	5.278700E+01	  0.097329587	5.870000E-01
448	  0.097525395	-3.119500E+01	  0.097525395	1.165400E+01	  0.097525395	5.277000E+01	  0.097525395	5.870000E-01
449	  0.097721197	-3.114100E+01	  0.097721197	1.123900E+01	  0.097721197	5.279200E+01	  0.097721197	5.710000E-01
450	  0.097917013	-3.112300E+01	  0.097917013	1.158200E+01	  0.097917013	5.279400E+01	  0.097917013	5.890000E-01
451	  0.098112814	-3.117800E+01	  0.098112814	1.116500E+01	  0.098112814	5.278000E+01	  0.098112814	5.640000E-01
452	  0.098308623	-3.107700E+01	  0.098308623	1.094100E+01	  0.098308623	5.281600E+01	  0.098308623	5.600000E-01
453	  0.098504424	-3.115500E+01	  0.098504424	1.100100E+01	  0.098504424	5.279000E+01	  0.098504424	5.580000E-01
454	  0.098700233	-3.108400E+01	  0.098700233	1.112900E+01	  0.098700233	5.281200E+01	  0.098700233	5.690000E-01
455	  0.098896034	-3.111600E+01	  0.098896034	1.102100E+01	  0.098896034	5.280300E+01	  0.098896034	5.610000E-01
456	  0.099091843	-3.119500E+01	  0.099091843	9.999000E+00	  0.099091843	5.278600E+01	  0.099091843	5.050000E-01
457	  0.099287644	-3.115500E+01	  0.099287644	1.027200E+01	  0.099287644	5.279700E+01	  0.099287644	5.210000E-01
458	  0.099483460	-3.115800E+01	  0.099483460	1.072400E+01	  0.099483460	5.279200E+01	  0.099483460	5.440000E-01
459	  0.099679269	-3.111300E+01	  0.099679269	1.049300E+01	  0.099679269	5.280900E+01	  0.099679269	5.350000E-01
460	  0.099875070	-3.098500E+01	  0.099875070	9.465000E+00	  0.099875070	5.286100E+01	  0.099875070	4.910000E-01
461	  0.100070879	-3.107000E+01	  0.100070879	9.854000E+00	  0.100070879	5.282900E+01	  0.100070879	5.050000E-01
462	  0.100266680	-3.108300E+01	  0.100266680	1.012100E+01	  0.100266680	5.282200E+01	  0.100266680	5.180000E-01
463	  0.100462489	-3.112400E+01	  0.100462489	1.005500E+01	  0.100462489	5.281000E+01	  0.100462489	5.120000E-01
464	  0.100658290	-3.107700E+01	  0.100658290	9.359000E+00	  0.100658290	5.283100E+01	  0.100658290	4.800000E-01
465	  0.100854106	-3.112000E+01	  0.100854106	9.359000E+00	  0.100854106	5.281700E+01	  0.100854106	4.770000E-01
466	  0.101049908	-3.121700E+01	  0.101049908	9.286000E+00	  0.101049908	5.278600E+01	  0.101049908	4.680000E-01
467	  0.101245716	-3.129400E+01	  0.101245716	9.306000E+00	  0.101245716	5.276000E+01	  0.101245716	4.650000E-01
468	  0.101441517	-3.112400E+01	  0.101441517	9.157000E+00	  0.101441517	5.281800E+01	  0.101441517	4.670000E-01
469	  0.101637326	-3.119100E+01	  0.101637326	8.399000E+00	  0.101637326	5.280200E+01	  0.101637326	4.250000E-01
470	  0.101833127	-3.121400E+01	  0.101833127	8.455000E+00	  0.101833127	5.279400E+01	  0.101833127	4.270000E-01
471	  0.102028936	-3.121200E+01	  0.102028936	8.491000E+00	  0.102028936	5.279400E+01	  0.102028936	4.290000E-01
472	  0.102224737	-3.121700E+01	  0.102224737	8.266000E+00	  0.102224737	5.279400E+01	  0.102224737	4.170000E-01
473	  0.102420554	-3.119000E+01	  0.102420554	8.745000E+00	  0.102420554	5.279900E+01	  0.102420554	4.430000E-01
474	  0.102616362	-3.121000E+01	  0.102616362	8.154000E+00	  0.102616362	5.279700E+01	  0.102616362	4.120000E-01
475	  0.102812164	-3.114500E+01	  0.102812164	6.957000E+00	  0.102812164	5.282700E+01	  0.102812164	3.540000E-01
476	  0.103007972	-3.117500E+01	  0.103007972	7.455000E+00	  0.103007972	5.281400E+01	  0.103007972	3.780000E-01
477	  0.103203773	-3.129500E+01	  0.103203773	7.350000E+00	  0.103203773	5.277500E+01	  0.103203773	3.680000E-01
478	  0.103399582	-3.111100E+01	  0.103399582	6.949000E+00	  0.103399582	5.283900E+01	  0.103399582	3.560000E-01
479	  0.103595383	-3.126000E+01	  0.103595383	6.653000E+00	  0.103595383	5.279100E+01	  0.103595383	3.340000E-01
480	  0.103791192	-3.128000E+01	  0.103791192	6.894000E+00	  0.103791192	5.278300E+01	  0.103791192	3.460000E-01
481	  0.103987001	-3.124200E+01	  0.103987001	6.445000E+00	  0.103987001	5.279800E+01	  0.103987001	3.250000E-01
482	  0.104182810	-3.121100E+01	  0.104182810	6.033000E+00	  0.104182810	5.281100E+01	  0.104182810	3.050000E-01
483	  0.104378611	-3.119300E+01	  0.104378611	6.438000E+00	  0.104378611	5.281400E+01	  0.104378611	3.260000E-01
484	  0.104574420	-3.109600E+01	  0.104574420	6.169000E+00	  0.104574420	5.284900E+01	  0.104574420	3.160000E-01
485	  0.104770228	-3.120100E+01	  0.104770228	6.492000E+00	  0.104770228	5.281100E+01	  0.104770228	3.290000E-01
486	  0.104966030	-3.122000E+01	  0.104966030	5.818000E+00	  0.104966030	5.280900E+01	  0.104966030	2.940000E-01
487	  0.105161838	-3.130300E+01	  0.105161838	5.779000E+00	  0.105161838	5.278200E+01	  0.105161838	2.890000E-01
488	  0.105357639	-3.115100E+01	  0.105357639	6.040000E+00	  0.105357639	5.283100E+01	  0.105357639	3.080000E-01
489	  0.105553456	-3.118900E+01	  0.105553456	5.029000E+00	  0.105553456	5.282400E+01	  0.105553456	2.550000E-01
490	  0.105749257	-3.125600E+01	  0.105749257	5.636000E+00	  0.105749257	5.279800E+01	  0.105749257	2.840000E-01
491	  0.105945066	-3.115600E+01	  0.105945066	5.146000E+00	  0.105945066	5.283400E+01	  0.105945066	2.620000E-01
492	  0.106140867	-3.118800E+01	  0.106140867	4.569000E+00	  0.106140867	5.282600E+01	  0.106140867	2.320000E-01
493	  0.106336676	-3.118100E+01	  0.106336676	5.436000E+00	  0.106336676	5.282400E+01	  0.106336676	2.760000E-01
494	  0.106532477	-3.119600E+01	  0.106532477	5.259000E+00	  0.106532477	5.282000E+01	  0.106532477	2.670000E-01
495	  0.106728286	-3.118900E+01	  0.106728286	5.375000E+00	  0.106728286	5.282200E+01	  0.106728286	2.730000E-01
496	  0.106924094	-3.116100E+01	  0.106924094	4.646000E+00	  0.106924094	5.283500E+01	  0.106924094	2.370000E-01
497	  0.107119903	-3.124800E+01	  0.107119903	4.032000E+00	  0.107119903	5.280800E+01	  0.107119903	2.030000E-01
498	  0.107315712	-3.116000E+01	  0.107315712	3.774000E+00	  0.107315712	5.283800E+01	  0.107315712	1.920000E-01
499	  0.107511513	-3.121500E+01	  0.107511513	4.460000E+00	  0.107511513	5.281700E+01	  0.107511513	2.260000E-01
500	  0.107707322	-3.106400E+01	  0.107707322	4.201000E+00	  0.107707322	5.286900E+01	  0.107707322	2.160000E-01
501	  0.107903123	-3.120900E+01	  0.107903123	4.499000E+00	  0.107903123	5.281900E+01	  0.107903123	2.280000E-01
