! Anritsu VNA Master:             	Model: MS2036C/10/77
! SN:             	1601066
! /card0/usr/255.ew.n.r200.2.txt
! Existing Calibration Information:
! TYPE:             	Current Settings	Active Cal Settings
! TIME:             	12/17/2017 06:57:28 PM	12/17/2017 06:38:14 PM
! INTERNAL TEMP:    	42.3 C	43.8 C
! # POINTS:         	501	501
! START FREQ:       	10.000 MHz	10.000 MHz
! STOP FREQ:        	107.903 125 MHz	107.903 125 MHz
! SOURCE POWER:     	High	High
! IFBW:             	100 Hz	100 Hz
! AVG FACTOR:       	  1 	  1 
! REF PLANE 1:      	0 mm	0 mm
! REF PLANE 2:      	0 mm	0 mm
! CAL TYPE:         	Full S11	Full S11
! CAL METHOD:       	SOLT	SOLT
! CAL LINE TYPE:    	Coax	Coax
! DUT PORT 1:       	N-Conn(F)	N-Conn(F)
! DUT PORT 2:       	K-Conn(F)	K-Conn(F)
! CAL STATUS:       	OK: Accuracy High	--
! PROP-V:       	0.700
! CABLE LOSS:       	0.000 dB/m
! REF IMPEDANCE:       	50.0
! Trace Specific Parameters:	TR1	TR2	TR3	TR4
! TRACE.#.Y (GRAPH TYPE)	LOG MAG	PHASE	REAL IMPEDANCE	IMAGINARY IMPEDANCE
! TRACE.#.X 	FREQ.GHZ	FREQ.GHZ	FREQ.GHZ	FREQ.GHZ
! S-PARAMETER	S11	S11	S11	S11
! SMOOTH/APERTURE %	0	0	0	0
! WINDOW	NSL	NSL	NSL	NSL
! GATING	OFF	OFF	OFF	OFF
! FGTD	OFF	OFF	OFF	OFF
Marker Information per Trace:	TR1	TR2	TR3	TR4
!MK1	--	--	--	--
!MK2	--	--	--	--
!MK3	--	--	--	--
!MK4	--	--	--	--
!MK5	--	--	--	--
!MK6	--	--	--	--
!MK7	--	--	--	--
!MK8	--	--	--	--
PNT	TR1.FREQ.GHZ	TR1.LOG MAG.dB	TR2.FREQ.GHZ	TR2.PHASE.deg	TR3.FREQ.GHZ	TR3.REAL IMPEDANCE.ohm	TR4.FREQ.GHZ	TR4.IMAGINARY IMPEDANCE.ohm
1	  0.010000000	-4.517000E+00	  0.010000000	-1.220400E+01	  0.010000000	1.689790E+02	  0.010000000	-6.568100E+01
2	  0.010195807	-4.505000E+00	  0.010195807	-1.235300E+01	  0.010195807	1.687040E+02	  0.010195807	-6.656200E+01
3	  0.010391613	-4.502000E+00	  0.010391613	-1.254500E+01	  0.010391613	1.680220E+02	  0.010391613	-6.735800E+01
4	  0.010587418	-4.509000E+00	  0.010587418	-1.276900E+01	  0.010587418	1.669610E+02	  0.010587418	-6.798400E+01
5	  0.010783225	-4.512000E+00	  0.010783225	-1.298900E+01	  0.010783225	1.660020E+02	  0.010783225	-6.868300E+01
6	  0.010979031	-4.508000E+00	  0.010979031	-1.320600E+01	  0.010979031	1.652380E+02	  0.010979031	-6.955900E+01
7	  0.011174837	-4.513000E+00	  0.011174837	-1.341600E+01	  0.011174837	1.642890E+02	  0.011174837	-7.016200E+01
8	  0.011370643	-4.513000E+00	  0.011370643	-1.365500E+01	  0.011370643	1.633230E+02	  0.011370643	-7.097200E+01
9	  0.011566450	-4.522000E+00	  0.011566450	-1.384500E+01	  0.011566450	1.623630E+02	  0.011566450	-7.136400E+01
10	  0.011762256	-4.520000E+00	  0.011762256	-1.406700E+01	  0.011762256	1.614900E+02	  0.011762256	-7.211700E+01
11	  0.011958062	-4.522000E+00	  0.011958062	-1.433200E+01	  0.011958062	1.603790E+02	  0.011958062	-7.291200E+01
12	  0.012153869	-4.526000E+00	  0.012153869	-1.455500E+01	  0.012153869	1.593770E+02	  0.012153869	-7.348800E+01
13	  0.012349674	-4.532000E+00	  0.012349674	-1.480100E+01	  0.012349674	1.582670E+02	  0.012349674	-7.408200E+01
14	  0.012545481	-4.534000E+00	  0.012545481	-1.506700E+01	  0.012545481	1.571330E+02	  0.012545481	-7.480400E+01
15	  0.012741288	-4.535000E+00	  0.012741288	-1.531100E+01	  0.012741288	1.561120E+02	  0.012741288	-7.547700E+01
16	  0.012937094	-4.542000E+00	  0.012937094	-1.555900E+01	  0.012937094	1.549650E+02	  0.012937094	-7.597700E+01
17	  0.013132900	-4.543000E+00	  0.013132900	-1.581600E+01	  0.013132900	1.538940E+02	  0.013132900	-7.665000E+01
18	  0.013328707	-4.546000E+00	  0.013328707	-1.606600E+01	  0.013328707	1.528100E+02	  0.013328707	-7.722500E+01
19	  0.013524513	-4.545000E+00	  0.013524513	-1.630800E+01	  0.013524513	1.518180E+02	  0.013524513	-7.785600E+01
20	  0.013720319	-4.542000E+00	  0.013720319	-1.656400E+01	  0.013720319	1.508150E+02	  0.013720319	-7.859000E+01
21	  0.013916126	-4.543000E+00	  0.013916126	-1.684400E+01	  0.013916126	1.496440E+02	  0.013916126	-7.924100E+01
22	  0.014111931	-4.545000E+00	  0.014111931	-1.710100E+01	  0.014111931	1.485440E+02	  0.014111931	-7.978200E+01
23	  0.014307737	-4.546000E+00	  0.014307737	-1.737000E+01	  0.014307737	1.474130E+02	  0.014307737	-8.035700E+01
24	  0.014503544	-4.543000E+00	  0.014503544	-1.763600E+01	  0.014503544	1.463610E+02	  0.014503544	-8.102900E+01
25	  0.014699350	-4.545000E+00	  0.014699350	-1.787800E+01	  0.014699350	1.453380E+02	  0.014699350	-8.149600E+01
26	  0.014895156	-4.546000E+00	  0.014895156	-1.812000E+01	  0.014895156	1.443250E+02	  0.014895156	-8.196800E+01
27	  0.015090963	-4.545000E+00	  0.015090963	-1.836600E+01	  0.015090963	1.433140E+02	  0.015090963	-8.247100E+01
28	  0.015286769	-4.546000E+00	  0.015286769	-1.862200E+01	  0.015286769	1.422540E+02	  0.015286769	-8.295200E+01
29	  0.015482575	-4.544000E+00	  0.015482575	-1.887100E+01	  0.015482575	1.412410E+02	  0.015482575	-8.344600E+01
30	  0.015678382	-4.543000E+00	  0.015678382	-1.911200E+01	  0.015678382	1.402710E+02	  0.015678382	-8.392900E+01
31	  0.015874187	-4.543000E+00	  0.015874187	-1.935200E+01	  0.015874187	1.392850E+02	  0.015874187	-8.434800E+01
32	  0.016069993	-4.542000E+00	  0.016069993	-1.957000E+01	  0.016069993	1.383950E+02	  0.016069993	-8.472400E+01
33	  0.016265800	-4.546000E+00	  0.016265800	-1.977900E+01	  0.016265800	1.375020E+02	  0.016265800	-8.496000E+01
34	  0.016461605	-4.541000E+00	  0.016461605	-2.000100E+01	  0.016461605	1.366460E+02	  0.016461605	-8.543600E+01
35	  0.016657412	-4.545000E+00	  0.016657412	-2.022100E+01	  0.016657412	1.357180E+02	  0.016657412	-8.568500E+01
36	  0.016853219	-4.543000E+00	  0.016853219	-2.042800E+01	  0.016853219	1.348970E+02	  0.016853219	-8.603900E+01
37	  0.017049024	-4.537000E+00	  0.017049024	-2.067900E+01	  0.017049024	1.339340E+02	  0.017049024	-8.654200E+01
38	  0.017244833	-4.536000E+00	  0.017244833	-2.086300E+01	  0.017244833	1.332030E+02	  0.017244833	-8.683500E+01
39	  0.017440638	-4.532000E+00	  0.017440638	-2.110300E+01	  0.017440638	1.322710E+02	  0.017440638	-8.726000E+01
40	  0.017636444	-4.536000E+00	  0.017636444	-2.133400E+01	  0.017636444	1.313060E+02	  0.017636444	-8.743100E+01
41	  0.017832249	-4.535000E+00	  0.017832249	-2.155100E+01	  0.017832249	1.304410E+02	  0.017832249	-8.771500E+01
42	  0.018028056	-4.538000E+00	  0.018028056	-2.174700E+01	  0.018028056	1.296380E+02	  0.018028056	-8.786200E+01
43	  0.018223861	-4.542000E+00	  0.018223861	-2.197900E+01	  0.018223861	1.286910E+02	  0.018223861	-8.804000E+01
44	  0.018419670	-4.546000E+00	  0.018419670	-2.223200E+01	  0.018419670	1.276640E+02	  0.018419670	-8.818800E+01
45	  0.018615475	-4.550000E+00	  0.018615475	-2.248400E+01	  0.018615475	1.266540E+02	  0.018615475	-8.836300E+01
46	  0.018811282	-4.550000E+00	  0.018811282	-2.269600E+01	  0.018811282	1.258260E+02	  0.018811282	-8.857100E+01
47	  0.019007087	-4.552000E+00	  0.019007087	-2.294800E+01	  0.019007087	1.248350E+02	  0.019007087	-8.875000E+01
48	  0.019202894	-4.553000E+00	  0.019202894	-2.319400E+01	  0.019202894	1.238770E+02	  0.019202894	-8.893300E+01
49	  0.019398699	-4.559000E+00	  0.019398699	-2.343300E+01	  0.019398699	1.229310E+02	  0.019398699	-8.898600E+01
50	  0.019594505	-4.557000E+00	  0.019594505	-2.368000E+01	  0.019594505	1.220010E+02	  0.019594505	-8.924400E+01
51	  0.019790314	-4.559000E+00	  0.019790314	-2.391900E+01	  0.019790314	1.210840E+02	  0.019790314	-8.936300E+01
52	  0.019986119	-4.561000E+00	  0.019986119	-2.417800E+01	  0.019986119	1.201010E+02	  0.019986119	-8.950000E+01
53	  0.020181926	-4.559000E+00	  0.020181926	-2.444200E+01	  0.020181926	1.191200E+02	  0.020181926	-8.971200E+01
54	  0.020377731	-4.558000E+00	  0.020377731	-2.468100E+01	  0.020377731	1.182380E+02	  0.020377731	-8.990200E+01
55	  0.020573538	-4.556000E+00	  0.020573538	-2.495300E+01	  0.020573538	1.172390E+02	  0.020573538	-9.009600E+01
56	  0.020769343	-4.555000E+00	  0.020769343	-2.521300E+01	  0.020769343	1.162850E+02	  0.020769343	-9.025800E+01
57	  0.020965151	-4.554000E+00	  0.020965151	-2.544600E+01	  0.020965151	1.154380E+02	  0.020965151	-9.040400E+01
58	  0.021160956	-4.555000E+00	  0.021160956	-2.571500E+01	  0.021160956	1.144600E+02	  0.021160956	-9.049000E+01
59	  0.021356763	-4.553000E+00	  0.021356763	-2.598500E+01	  0.021356763	1.134890E+02	  0.021356763	-9.063500E+01
60	  0.021552568	-4.552000E+00	  0.021552568	-2.624100E+01	  0.021552568	1.125750E+02	  0.021552568	-9.074800E+01
61	  0.021748375	-4.553000E+00	  0.021748375	-2.646700E+01	  0.021748375	1.117730E+02	  0.021748375	-9.081700E+01
62	  0.021944180	-4.552000E+00	  0.021944180	-2.668700E+01	  0.021944180	1.109960E+02	  0.021944180	-9.090100E+01
63	  0.022139989	-4.554000E+00	  0.022139989	-2.690800E+01	  0.022139989	1.102160E+02	  0.022139989	-9.089500E+01
64	  0.022335794	-4.555000E+00	  0.022335794	-2.710900E+01	  0.022335794	1.095150E+02	  0.022335794	-9.091600E+01
65	  0.022531601	-4.552000E+00	  0.022531601	-2.732800E+01	  0.022531601	1.087610E+02	  0.022531601	-9.103900E+01
66	  0.022727406	-4.552000E+00	  0.022727406	-2.754700E+01	  0.022727406	1.080040E+02	  0.022727406	-9.106700E+01
67	  0.022923212	-4.550000E+00	  0.022923212	-2.777500E+01	  0.022923212	1.072270E+02	  0.022923212	-9.115000E+01
68	  0.023119017	-4.554000E+00	  0.023119017	-2.797400E+01	  0.023119017	1.065470E+02	  0.023119017	-9.109200E+01
69	  0.023314826	-4.558000E+00	  0.023314826	-2.821300E+01	  0.023314826	1.057400E+02	  0.023314826	-9.101000E+01
70	  0.023510631	-4.558000E+00	  0.023510631	-2.844100E+01	  0.023510631	1.049770E+02	  0.023510631	-9.101800E+01
71	  0.023706438	-4.556000E+00	  0.023706438	-2.862800E+01	  0.023706438	1.043550E+02	  0.023706438	-9.107100E+01
72	  0.023902243	-4.559000E+00	  0.023902243	-2.886400E+01	  0.023902243	1.035760E+02	  0.023902243	-9.101100E+01
73	  0.024098050	-4.555000E+00	  0.024098050	-2.907000E+01	  0.024098050	1.028990E+02	  0.024098050	-9.109500E+01
74	  0.024293855	-4.560000E+00	  0.024293855	-2.933600E+01	  0.024293855	1.020330E+02	  0.024293855	-9.097600E+01
75	  0.024489662	-4.562000E+00	  0.024489662	-2.958600E+01	  0.024489662	1.012280E+02	  0.024489662	-9.091900E+01
76	  0.024685470	-4.566000E+00	  0.024685470	-2.979700E+01	  0.024685470	1.005560E+02	  0.024685470	-9.081100E+01
77	  0.024881275	-4.569000E+00	  0.024881275	-3.004600E+01	  0.024881275	9.976600E+01	  0.024881275	-9.072000E+01
78	  0.025077082	-4.573000E+00	  0.025077082	-3.029900E+01	  0.025077082	9.897500E+01	  0.025077082	-9.060100E+01
79	  0.025272887	-4.578000E+00	  0.025272887	-3.051400E+01	  0.025272887	9.831200E+01	  0.025272887	-9.044700E+01
80	  0.025468694	-4.583000E+00	  0.025468694	-3.076300E+01	  0.025468694	9.754800E+01	  0.025468694	-9.029600E+01
81	  0.025664499	-4.588000E+00	  0.025664499	-3.100300E+01	  0.025664499	9.681900E+01	  0.025664499	-9.015700E+01
82	  0.025860308	-4.591000E+00	  0.025860308	-3.122800E+01	  0.025860308	9.614100E+01	  0.025860308	-9.004600E+01
83	  0.026056113	-4.597000E+00	  0.026056113	-3.150500E+01	  0.026056113	9.532100E+01	  0.026056113	-8.985700E+01
84	  0.026251920	-4.601000E+00	  0.026251920	-3.176700E+01	  0.026251920	9.454500E+01	  0.026251920	-8.971200E+01
85	  0.026447725	-4.603000E+00	  0.026447725	-3.206200E+01	  0.026447725	9.368100E+01	  0.026447725	-8.958100E+01
86	  0.026643531	-4.605000E+00	  0.026643531	-3.235300E+01	  0.026643531	9.283900E+01	  0.026643531	-8.945600E+01
87	  0.026839336	-4.603000E+00	  0.026839336	-3.267400E+01	  0.026839336	9.190800E+01	  0.026839336	-8.937200E+01
88	  0.027035145	-4.603000E+00	  0.027035145	-3.295400E+01	  0.027035145	9.110900E+01	  0.027035145	-8.926700E+01
89	  0.027230950	-4.601000E+00	  0.027230950	-3.328700E+01	  0.027230950	9.016600E+01	  0.027230950	-8.918200E+01
90	  0.027426757	-4.600000E+00	  0.027426757	-3.357900E+01	  0.027426757	8.934600E+01	  0.027426757	-8.908400E+01
91	  0.027622562	-4.597000E+00	  0.027622562	-3.386000E+01	  0.027622562	8.856100E+01	  0.027622562	-8.900300E+01
92	  0.027818369	-4.597000E+00	  0.027818369	-3.414600E+01	  0.027818369	8.777700E+01	  0.027818369	-8.887800E+01
93	  0.028014174	-4.591000E+00	  0.028014174	-3.445400E+01	  0.028014174	8.692300E+01	  0.028014174	-8.884300E+01
94	  0.028209982	-4.582000E+00	  0.028209982	-3.473500E+01	  0.028209982	8.614000E+01	  0.028209982	-8.884700E+01
95	  0.028405787	-4.574000E+00	  0.028405787	-3.499000E+01	  0.028405787	8.543300E+01	  0.028405787	-8.885800E+01
96	  0.028601594	-4.565000E+00	  0.028601594	-3.523100E+01	  0.028601594	8.476800E+01	  0.028601594	-8.887400E+01
97	  0.028797399	-4.558000E+00	  0.028797399	-3.543900E+01	  0.028797399	8.419200E+01	  0.028797399	-8.888500E+01
98	  0.028993206	-4.554000E+00	  0.028993206	-3.561600E+01	  0.028993206	8.371800E+01	  0.028993206	-8.884900E+01
99	  0.029189013	-4.544000E+00	  0.029189013	-3.576900E+01	  0.029189013	8.328200E+01	  0.029189013	-8.892700E+01
100	  0.029384818	-4.542000E+00	  0.029384818	-3.594300E+01	  0.029384818	8.282600E+01	  0.029384818	-8.885000E+01
101	  0.029580627	-4.541000E+00	  0.029580627	-3.611300E+01	  0.029580627	8.238400E+01	  0.029580627	-8.876900E+01
102	  0.029776432	-4.541000E+00	  0.029776432	-3.627200E+01	  0.029776432	8.198100E+01	  0.029776432	-8.866500E+01
103	  0.029972238	-4.546000E+00	  0.029972238	-3.644600E+01	  0.029972238	8.156100E+01	  0.029972238	-8.847500E+01
104	  0.030168043	-4.549000E+00	  0.030168043	-3.664700E+01	  0.030168043	8.107000E+01	  0.030168043	-8.829500E+01
105	  0.030363850	-4.552000E+00	  0.030363850	-3.683800E+01	  0.030363850	8.060700E+01	  0.030363850	-8.812400E+01
106	  0.030559655	-4.554000E+00	  0.030559655	-3.704600E+01	  0.030559655	8.010200E+01	  0.030559655	-8.794700E+01
107	  0.030755464	-4.555000E+00	  0.030755464	-3.724600E+01	  0.030755464	7.961500E+01	  0.030755464	-8.780100E+01
108	  0.030951269	-4.553000E+00	  0.030951269	-3.744700E+01	  0.030951269	7.911900E+01	  0.030951269	-8.769000E+01
109	  0.031147076	-4.549000E+00	  0.031147076	-3.764100E+01	  0.031147076	7.863100E+01	  0.031147076	-8.762800E+01
110	  0.031342883	-4.551000E+00	  0.031342883	-3.781600E+01	  0.031342883	7.822300E+01	  0.031342883	-8.747000E+01
111	  0.031538688	-4.551000E+00	  0.031538688	-3.802600E+01	  0.031538688	7.772300E+01	  0.031538688	-8.732100E+01
112	  0.031734493	-4.552000E+00	  0.031734493	-3.820200E+01	  0.031734493	7.731100E+01	  0.031734493	-8.718600E+01
113	  0.031930301	-4.555000E+00	  0.031930301	-3.840500E+01	  0.031930301	7.684900E+01	  0.031930301	-8.698800E+01
114	  0.032126106	-4.554000E+00	  0.032126106	-3.858500E+01	  0.032126106	7.642500E+01	  0.032126106	-8.687400E+01
115	  0.032321911	-4.557000E+00	  0.032321911	-3.878900E+01	  0.032321911	7.597200E+01	  0.032321911	-8.667000E+01
116	  0.032517716	-4.557000E+00	  0.032517716	-3.898800E+01	  0.032517716	7.551500E+01	  0.032517716	-8.652600E+01
117	  0.032713525	-4.558000E+00	  0.032713525	-3.918900E+01	  0.032713525	7.506600E+01	  0.032713525	-8.635700E+01
118	  0.032909330	-4.564000E+00	  0.032909330	-3.940300E+01	  0.032909330	7.461100E+01	  0.032909330	-8.611300E+01
119	  0.033105139	-4.569000E+00	  0.033105139	-3.962500E+01	  0.033105139	7.414500E+01	  0.033105139	-8.586000E+01
120	  0.033300944	-4.577000E+00	  0.033300944	-3.985400E+01	  0.033300944	7.367300E+01	  0.033300944	-8.558000E+01
121	  0.033496749	-4.589000E+00	  0.033496749	-4.010400E+01	  0.033496749	7.319000E+01	  0.033496749	-8.520900E+01
122	  0.033692554	-4.596000E+00	  0.033692554	-4.039100E+01	  0.033692554	7.260300E+01	  0.033692554	-8.489100E+01
123	  0.033888362	-4.599000E+00	  0.033888362	-4.067100E+01	  0.033888362	7.202200E+01	  0.033888362	-8.462300E+01
124	  0.034084171	-4.607000E+00	  0.034084171	-4.095700E+01	  0.034084171	7.145600E+01	  0.034084171	-8.429300E+01
125	  0.034279976	-4.612000E+00	  0.034279976	-4.123900E+01	  0.034279976	7.089300E+01	  0.034279976	-8.399800E+01
126	  0.034475781	-4.618000E+00	  0.034475781	-4.156600E+01	  0.034475781	7.024900E+01	  0.034475781	-8.366200E+01
127	  0.034671586	-4.622000E+00	  0.034671586	-4.188300E+01	  0.034671586	6.962400E+01	  0.034671586	-8.335400E+01
128	  0.034867391	-4.626000E+00	  0.034867391	-4.220900E+01	  0.034867391	6.899100E+01	  0.034867391	-8.303200E+01
129	  0.035063203	-4.627000E+00	  0.035063203	-4.253000E+01	  0.035063203	6.835500E+01	  0.035063203	-8.276400E+01
130	  0.035259008	-4.629000E+00	  0.035259008	-4.283000E+01	  0.035259008	6.777900E+01	  0.035259008	-8.248900E+01
131	  0.035454813	-4.627000E+00	  0.035454813	-4.312300E+01	  0.035454813	6.720200E+01	  0.035454813	-8.226800E+01
132	  0.035650618	-4.623000E+00	  0.035650618	-4.341500E+01	  0.035650618	6.661700E+01	  0.035650618	-8.207800E+01
133	  0.035846427	-4.619000E+00	  0.035846427	-4.370700E+01	  0.035846427	6.604100E+01	  0.035846427	-8.188400E+01
134	  0.036042232	-4.610000E+00	  0.036042232	-4.399000E+01	  0.036042232	6.546000E+01	  0.036042232	-8.175100E+01
135	  0.036238037	-4.599000E+00	  0.036238037	-4.425700E+01	  0.036238037	6.489800E+01	  0.036238037	-8.166300E+01
136	  0.036433842	-4.596000E+00	  0.036433842	-4.451200E+01	  0.036433842	6.441200E+01	  0.036433842	-8.147900E+01
137	  0.036629651	-4.584000E+00	  0.036629651	-4.474700E+01	  0.036629651	6.391600E+01	  0.036629651	-8.141500E+01
138	  0.036825456	-4.581000E+00	  0.036825456	-4.496000E+01	  0.036825456	6.351000E+01	  0.036825456	-8.126900E+01
139	  0.037021261	-4.573000E+00	  0.037021261	-4.514300E+01	  0.037021261	6.313600E+01	  0.037021261	-8.119800E+01
140	  0.037217066	-4.574000E+00	  0.037217066	-4.530700E+01	  0.037217066	6.284700E+01	  0.037217066	-8.104300E+01
141	  0.037412878	-4.576000E+00	  0.037412878	-4.551600E+01	  0.037412878	6.249200E+01	  0.037412878	-8.082400E+01
142	  0.037608683	-4.581000E+00	  0.037608683	-4.572100E+01	  0.037608683	6.216100E+01	  0.037608683	-8.058400E+01
143	  0.037804488	-4.585000E+00	  0.037804488	-4.592700E+01	  0.037804488	6.182400E+01	  0.037804488	-8.035900E+01
144	  0.038000293	-4.589000E+00	  0.038000293	-4.616000E+01	  0.038000293	6.145000E+01	  0.038000293	-8.009600E+01
145	  0.038196102	-4.600000E+00	  0.038196102	-4.641400E+01	  0.038196102	6.107700E+01	  0.038196102	-7.975100E+01
146	  0.038391907	-4.604000E+00	  0.038391907	-4.664000E+01	  0.038391907	6.072100E+01	  0.038391907	-7.949800E+01
147	  0.038587712	-4.607000E+00	  0.038587712	-4.688500E+01	  0.038587712	6.032700E+01	  0.038587712	-7.924900E+01
148	  0.038783520	-4.609000E+00	  0.038783520	-4.714700E+01	  0.038783520	5.990200E+01	  0.038783520	-7.899200E+01
149	  0.038979325	-4.612000E+00	  0.038979325	-4.741100E+01	  0.038979325	5.948900E+01	  0.038979325	-7.871800E+01
150	  0.039175130	-4.616000E+00	  0.039175130	-4.767000E+01	  0.039175130	5.908800E+01	  0.039175130	-7.844700E+01
151	  0.039370935	-4.612000E+00	  0.039370935	-4.794400E+01	  0.039370935	5.862400E+01	  0.039370935	-7.824300E+01
152	  0.039566744	-4.606000E+00	  0.039566744	-4.817300E+01	  0.039566744	5.822500E+01	  0.039566744	-7.809500E+01
153	  0.039762549	-4.603000E+00	  0.039762549	-4.843400E+01	  0.039762549	5.779300E+01	  0.039762549	-7.789200E+01
154	  0.039958358	-4.601000E+00	  0.039958358	-4.868700E+01	  0.039958358	5.738900E+01	  0.039958358	-7.767400E+01
155	  0.040154163	-4.596000E+00	  0.040154163	-4.892100E+01	  0.040154163	5.699600E+01	  0.040154163	-7.751200E+01
156	  0.040349972	-4.595000E+00	  0.040349972	-4.917200E+01	  0.040349972	5.660200E+01	  0.040349972	-7.729600E+01
157	  0.040545776	-4.593000E+00	  0.040545776	-4.939300E+01	  0.040545776	5.625400E+01	  0.040545776	-7.710900E+01
158	  0.040741581	-4.597000E+00	  0.040741581	-4.963700E+01	  0.040741581	5.591300E+01	  0.040741581	-7.684300E+01
159	  0.040937386	-4.600000E+00	  0.040937386	-4.988900E+01	  0.040937386	5.555200E+01	  0.040937386	-7.658700E+01
160	  0.041133195	-4.602000E+00	  0.041133195	-5.015200E+01	  0.041133195	5.517800E+01	  0.041133195	-7.632000E+01
161	  0.041329000	-4.606000E+00	  0.041329000	-5.041500E+01	  0.041329000	5.481400E+01	  0.041329000	-7.604500E+01
162	  0.041524805	-4.609000E+00	  0.041524805	-5.070700E+01	  0.041524805	5.441100E+01	  0.041524805	-7.574600E+01
163	  0.041720610	-4.607000E+00	  0.041720610	-5.099700E+01	  0.041720610	5.398400E+01	  0.041720610	-7.549700E+01
164	  0.041916419	-4.605000E+00	  0.041916419	-5.125300E+01	  0.041916419	5.360700E+01	  0.041916419	-7.528300E+01
165	  0.042112224	-4.606000E+00	  0.042112224	-5.152600E+01	  0.042112224	5.323600E+01	  0.042112224	-7.501300E+01
166	  0.042308029	-4.601000E+00	  0.042308029	-5.175100E+01	  0.042308029	5.289300E+01	  0.042308029	-7.485100E+01
167	  0.042503837	-4.598000E+00	  0.042503837	-5.202400E+01	  0.042503837	5.249700E+01	  0.042503837	-7.463000E+01
168	  0.042699646	-4.588000E+00	  0.042699646	-5.223400E+01	  0.042699646	5.214900E+01	  0.042699646	-7.452500E+01
169	  0.042895451	-4.585000E+00	  0.042895451	-5.247400E+01	  0.042895451	5.180800E+01	  0.042895451	-7.432400E+01
170	  0.043091256	-4.577000E+00	  0.043091256	-5.271000E+01	  0.043091256	5.144300E+01	  0.043091256	-7.417700E+01
171	  0.043287061	-4.574000E+00	  0.043287061	-5.290400E+01	  0.043287061	5.116700E+01	  0.043287061	-7.402000E+01
172	  0.043482870	-4.567000E+00	  0.043482870	-5.309800E+01	  0.043482870	5.086900E+01	  0.043482870	-7.389900E+01
173	  0.043678675	-4.556000E+00	  0.043678675	-5.330800E+01	  0.043678675	5.052500E+01	  0.043678675	-7.379900E+01
174	  0.043874480	-4.551000E+00	  0.043874480	-5.344800E+01	  0.043874480	5.031200E+01	  0.043874480	-7.371000E+01
175	  0.044070289	-4.546000E+00	  0.044070289	-5.361300E+01	  0.044070289	5.006800E+01	  0.044070289	-7.359700E+01
176	  0.044266094	-4.541000E+00	  0.044266094	-5.372500E+01	  0.044266094	4.989400E+01	  0.044266094	-7.353100E+01
177	  0.044461899	-4.545000E+00	  0.044461899	-5.381700E+01	  0.044461899	4.980000E+01	  0.044461899	-7.341200E+01
178	  0.044657703	-4.551000E+00	  0.044657703	-5.394500E+01	  0.044657703	4.967700E+01	  0.044657703	-7.323800E+01
179	  0.044853516	-4.559000E+00	  0.044853516	-5.407000E+01	  0.044853516	4.956500E+01	  0.044853516	-7.305700E+01
180	  0.045049321	-4.567000E+00	  0.045049321	-5.421200E+01	  0.045049321	4.943800E+01	  0.045049321	-7.285500E+01
181	  0.045245126	-4.579000E+00	  0.045245126	-5.438800E+01	  0.045245126	4.928700E+01	  0.045245126	-7.259800E+01
182	  0.045440931	-4.591000E+00	  0.045440931	-5.457800E+01	  0.045440931	4.912800E+01	  0.045440931	-7.231600E+01
183	  0.045636740	-4.603000E+00	  0.045636740	-5.474700E+01	  0.045636740	4.899300E+01	  0.045636740	-7.206300E+01
184	  0.045832545	-4.611000E+00	  0.045832545	-5.498300E+01	  0.045832545	4.874800E+01	  0.045832545	-7.178500E+01
185	  0.046028350	-4.621000E+00	  0.046028350	-5.519000E+01	  0.046028350	4.855900E+01	  0.046028350	-7.151200E+01
186	  0.046224155	-4.631000E+00	  0.046224155	-5.540800E+01	  0.046224155	4.835700E+01	  0.046224155	-7.123000E+01
187	  0.046419963	-4.640000E+00	  0.046419963	-5.567700E+01	  0.046419963	4.808600E+01	  0.046419963	-7.091900E+01
188	  0.046615768	-4.648000E+00	  0.046615768	-5.594700E+01	  0.046615768	4.781900E+01	  0.046615768	-7.060500E+01
189	  0.046811573	-4.652000E+00	  0.046811573	-5.621000E+01	  0.046811573	4.753000E+01	  0.046811573	-7.034200E+01
190	  0.047007378	-4.656000E+00	  0.047007378	-5.648700E+01	  0.047007378	4.723500E+01	  0.047007378	-7.005700E+01
191	  0.047203191	-4.664000E+00	  0.047203191	-5.676000E+01	  0.047203191	4.696800E+01	  0.047203191	-6.975100E+01
192	  0.047398996	-4.670000E+00	  0.047398996	-5.701900E+01	  0.047398996	4.670900E+01	  0.047398996	-6.947300E+01
193	  0.047594801	-4.673000E+00	  0.047594801	-5.727300E+01	  0.047594801	4.644300E+01	  0.047594801	-6.921900E+01
194	  0.047790606	-4.683000E+00	  0.047790606	-5.759600E+01	  0.047790606	4.614100E+01	  0.047790606	-6.885700E+01
195	  0.047986414	-4.693000E+00	  0.047986414	-5.788200E+01	  0.047986414	4.588200E+01	  0.047986414	-6.853400E+01
196	  0.048182219	-4.700000E+00	  0.048182219	-5.817800E+01	  0.048182219	4.559900E+01	  0.048182219	-6.821900E+01
197	  0.048378024	-4.709000E+00	  0.048378024	-5.852700E+01	  0.048378024	4.527300E+01	  0.048378024	-6.785000E+01
198	  0.048573833	-4.712000E+00	  0.048573833	-5.883100E+01	  0.048573833	4.496900E+01	  0.048573833	-6.755700E+01
199	  0.048769638	-4.716000E+00	  0.048769638	-5.924700E+01	  0.048769638	4.455600E+01	  0.048769638	-6.716300E+01
200	  0.048965443	-4.718000E+00	  0.048965443	-5.955200E+01	  0.048965443	4.425100E+01	  0.048965443	-6.688100E+01
201	  0.049161248	-4.720000E+00	  0.049161248	-5.988200E+01	  0.049161248	4.392400E+01	  0.049161248	-6.657800E+01
202	  0.049357057	-4.719000E+00	  0.049357057	-6.023700E+01	  0.049357057	4.355400E+01	  0.049357057	-6.628100E+01
203	  0.049552862	-4.715000E+00	  0.049552862	-6.055300E+01	  0.049552862	4.321500E+01	  0.049552862	-6.603000E+01
204	  0.049748670	-4.710000E+00	  0.049748670	-6.089400E+01	  0.049748670	4.284900E+01	  0.049748670	-6.576700E+01
205	  0.049944475	-4.705000E+00	  0.049944475	-6.123900E+01	  0.049944475	4.248300E+01	  0.049944475	-6.549800E+01
206	  0.050140284	-4.694000E+00	  0.050140284	-6.159300E+01	  0.050140284	4.207900E+01	  0.050140284	-6.526000E+01
207	  0.050336089	-4.689000E+00	  0.050336089	-6.188100E+01	  0.050336089	4.177500E+01	  0.050336089	-6.504100E+01
208	  0.050531894	-4.672000E+00	  0.050531894	-6.221000E+01	  0.050531894	4.136900E+01	  0.050531894	-6.485800E+01
209	  0.050727699	-4.664000E+00	  0.050727699	-6.248700E+01	  0.050727699	4.106200E+01	  0.050727699	-6.467000E+01
210	  0.050923508	-4.653000E+00	  0.050923508	-6.277400E+01	  0.050923508	4.073700E+01	  0.050923508	-6.448300E+01
211	  0.051119313	-4.643000E+00	  0.051119313	-6.297000E+01	  0.051119313	4.050200E+01	  0.051119313	-6.436900E+01
212	  0.051315118	-4.633000E+00	  0.051315118	-6.316900E+01	  0.051315118	4.026200E+01	  0.051315118	-6.425800E+01
213	  0.051510923	-4.625000E+00	  0.051510923	-6.339100E+01	  0.051510923	4.001600E+01	  0.051510923	-6.411200E+01
214	  0.051706731	-4.619000E+00	  0.051706731	-6.355800E+01	  0.051706731	3.983000E+01	  0.051706731	-6.400300E+01
215	  0.051902536	-4.616000E+00	  0.051902536	-6.374900E+01	  0.051902536	3.964800E+01	  0.051902536	-6.384900E+01
216	  0.052098341	-4.612000E+00	  0.052098341	-6.392900E+01	  0.052098341	3.946700E+01	  0.052098341	-6.371500E+01
217	  0.052294150	-4.613000E+00	  0.052294150	-6.411400E+01	  0.052294150	3.930500E+01	  0.052294150	-6.355300E+01
218	  0.052489959	-4.613000E+00	  0.052489959	-6.426400E+01	  0.052489959	3.917600E+01	  0.052489959	-6.342000E+01
219	  0.052685764	-4.614000E+00	  0.052685764	-6.446600E+01	  0.052685764	3.900600E+01	  0.052685764	-6.324100E+01
220	  0.052881569	-4.616000E+00	  0.052881569	-6.465100E+01	  0.052881569	3.886000E+01	  0.052881569	-6.306900E+01
221	  0.053077377	-4.617000E+00	  0.053077377	-6.483100E+01	  0.053077377	3.871500E+01	  0.053077377	-6.290400E+01
222	  0.053273182	-4.617000E+00	  0.053273182	-6.503600E+01	  0.053273182	3.853800E+01	  0.053273182	-6.272900E+01
223	  0.053468987	-4.621000E+00	  0.053468987	-6.525100E+01	  0.053468987	3.838500E+01	  0.053468987	-6.251700E+01
224	  0.053664792	-4.618000E+00	  0.053664792	-6.547000E+01	  0.053664792	3.818100E+01	  0.053664792	-6.234900E+01
225	  0.053860601	-4.616000E+00	  0.053860601	-6.566100E+01	  0.053860601	3.801000E+01	  0.053860601	-6.219700E+01
226	  0.054056406	-4.619000E+00	  0.054056406	-6.589200E+01	  0.054056406	3.783900E+01	  0.054056406	-6.198100E+01
227	  0.054252211	-4.619000E+00	  0.054252211	-6.608400E+01	  0.054252211	3.768500E+01	  0.054252211	-6.181500E+01
228	  0.054448016	-4.618000E+00	  0.054448016	-6.628400E+01	  0.054448016	3.751700E+01	  0.054448016	-6.165000E+01
229	  0.054643828	-4.619000E+00	  0.054643828	-6.645100E+01	  0.054643828	3.738600E+01	  0.054643828	-6.150300E+01
230	  0.054839633	-4.621000E+00	  0.054839633	-6.663600E+01	  0.054839633	3.725000E+01	  0.054839633	-6.133500E+01
231	  0.055035438	-4.628000E+00	  0.055035438	-6.683600E+01	  0.055035438	3.713200E+01	  0.055035438	-6.112600E+01
232	  0.055231243	-4.633000E+00	  0.055231243	-6.702500E+01	  0.055231243	3.700900E+01	  0.055231243	-6.094200E+01
233	  0.055427052	-4.635000E+00	  0.055427052	-6.723300E+01	  0.055427052	3.685400E+01	  0.055427052	-6.075800E+01
234	  0.055622857	-4.644000E+00	  0.055622857	-6.747800E+01	  0.055622857	3.671500E+01	  0.055622857	-6.050400E+01
235	  0.055818662	-4.650000E+00	  0.055818662	-6.766800E+01	  0.055818662	3.660200E+01	  0.055818662	-6.031400E+01
236	  0.056014467	-4.655000E+00	  0.056014467	-6.788400E+01	  0.056014467	3.646400E+01	  0.056014467	-6.010700E+01
237	  0.056210276	-4.661000E+00	  0.056210276	-6.811700E+01	  0.056210276	3.632200E+01	  0.056210276	-5.988100E+01
238	  0.056406081	-4.667000E+00	  0.056406081	-6.832600E+01	  0.056406081	3.619400E+01	  0.056406081	-5.968000E+01
239	  0.056601886	-4.671000E+00	  0.056601886	-6.856500E+01	  0.056601886	3.603500E+01	  0.056601886	-5.946300E+01
240	  0.056797691	-4.673000E+00	  0.056797691	-6.883200E+01	  0.056797691	3.584900E+01	  0.056797691	-5.923100E+01
241	  0.056993503	-4.678000E+00	  0.056993503	-6.907600E+01	  0.056993503	3.569800E+01	  0.056993503	-5.900500E+01
242	  0.057189308	-4.679000E+00	  0.057189308	-6.937300E+01	  0.057189308	3.548600E+01	  0.057189308	-5.875700E+01
243	  0.057385113	-4.684000E+00	  0.057385113	-6.961600E+01	  0.057385113	3.533500E+01	  0.057385113	-5.853500E+01
244	  0.057580918	-4.683000E+00	  0.057580918	-6.986600E+01	  0.057580918	3.515100E+01	  0.057580918	-5.833500E+01
245	  0.057776727	-4.685000E+00	  0.057776727	-7.012900E+01	  0.057776727	3.497400E+01	  0.057776727	-5.811200E+01
246	  0.057972532	-4.687000E+00	  0.057972532	-7.035700E+01	  0.057972532	3.482200E+01	  0.057972532	-5.791900E+01
247	  0.058168337	-4.686000E+00	  0.058168337	-7.057900E+01	  0.058168337	3.466300E+01	  0.058168337	-5.774200E+01
248	  0.058364145	-4.687000E+00	  0.058364145	-7.083900E+01	  0.058364145	3.448600E+01	  0.058364145	-5.752900E+01
249	  0.058559950	-4.690000E+00	  0.058559950	-7.107100E+01	  0.058559950	3.434300E+01	  0.058559950	-5.732700E+01
250	  0.058755755	-4.692000E+00	  0.058755755	-7.129300E+01	  0.058755755	3.420300E+01	  0.058755755	-5.713900E+01
251	  0.058951560	-4.694000E+00	  0.058951560	-7.152600E+01	  0.058951560	3.405300E+01	  0.058951560	-5.694400E+01
252	  0.059147369	-4.703000E+00	  0.059147369	-7.177200E+01	  0.059147369	3.393600E+01	  0.059147369	-5.670700E+01
253	  0.059343174	-4.710000E+00	  0.059343174	-7.199700E+01	  0.059343174	3.382200E+01	  0.059343174	-5.649800E+01
254	  0.059538983	-4.714000E+00	  0.059538983	-7.225400E+01	  0.059538983	3.367100E+01	  0.059538983	-5.627800E+01
255	  0.059734788	-4.717000E+00	  0.059734788	-7.251000E+01	  0.059734788	3.351900E+01	  0.059734788	-5.606200E+01
256	  0.059930597	-4.722000E+00	  0.059930597	-7.278600E+01	  0.059930597	3.336500E+01	  0.059930597	-5.582300E+01
257	  0.060126401	-4.729000E+00	  0.060126401	-7.306300E+01	  0.060126401	3.322200E+01	  0.060126401	-5.557500E+01
258	  0.060322206	-4.735000E+00	  0.060322206	-7.337500E+01	  0.060322206	3.304900E+01	  0.060322206	-5.530900E+01
259	  0.060518011	-4.741000E+00	  0.060518011	-7.367200E+01	  0.060518011	3.289100E+01	  0.060518011	-5.505300E+01
260	  0.060713820	-4.743000E+00	  0.060713820	-7.400800E+01	  0.060713820	3.269400E+01	  0.060713820	-5.478100E+01
261	  0.060909625	-4.744000E+00	  0.060909625	-7.431300E+01	  0.060909625	3.250600E+01	  0.060909625	-5.454500E+01
262	  0.061105430	-4.744000E+00	  0.061105430	-7.463700E+01	  0.061105430	3.231000E+01	  0.061105430	-5.429200E+01
263	  0.061301235	-4.746000E+00	  0.061301235	-7.495600E+01	  0.061301235	3.212200E+01	  0.061301235	-5.404200E+01
264	  0.061497044	-4.742000E+00	  0.061497044	-7.522900E+01	  0.061497044	3.193900E+01	  0.061497044	-5.384800E+01
265	  0.061692849	-4.740000E+00	  0.061692849	-7.556500E+01	  0.061692849	3.172800E+01	  0.061692849	-5.359900E+01
266	  0.061888654	-4.738000E+00	  0.061888654	-7.584400E+01	  0.061888654	3.155200E+01	  0.061888654	-5.339600E+01
267	  0.062084462	-4.739000E+00	  0.062084462	-7.614600E+01	  0.062084462	3.138000E+01	  0.062084462	-5.316200E+01
268	  0.062280271	-4.732000E+00	  0.062280271	-7.643700E+01	  0.062280271	3.117600E+01	  0.062280271	-5.296900E+01
269	  0.062476076	-4.722000E+00	  0.062476076	-7.665100E+01	  0.062476076	3.100300E+01	  0.062476076	-5.284600E+01
270	  0.062671877	-4.721000E+00	  0.062671877	-7.695400E+01	  0.062671877	3.082700E+01	  0.062671877	-5.262000E+01
271	  0.062867686	-4.718000E+00	  0.062867686	-7.726200E+01	  0.062867686	3.064100E+01	  0.062867686	-5.239800E+01
272	  0.063063495	-4.716000E+00	  0.063063495	-7.751800E+01	  0.063063495	3.048700E+01	  0.063063495	-5.221400E+01
273	  0.063259304	-4.710000E+00	  0.063259304	-7.783300E+01	  0.063259304	3.028300E+01	  0.063259304	-5.200000E+01
274	  0.063455105	-4.705000E+00	  0.063455105	-7.804600E+01	  0.063455105	3.014100E+01	  0.063455105	-5.185900E+01
275	  0.063650914	-4.699000E+00	  0.063650914	-7.834400E+01	  0.063650914	2.995000E+01	  0.063650914	-5.165800E+01
276	  0.063846722	-4.692000E+00	  0.063846722	-7.860400E+01	  0.063846722	2.977400E+01	  0.063846722	-5.149100E+01
277	  0.064042524	-4.684000E+00	  0.064042524	-7.882500E+01	  0.064042524	2.961900E+01	  0.064042524	-5.135200E+01
278	  0.064238332	-4.685000E+00	  0.064238332	-7.912200E+01	  0.064238332	2.946600E+01	  0.064238332	-5.112900E+01
279	  0.064434141	-4.674000E+00	  0.064434141	-7.933500E+01	  0.064434141	2.930100E+01	  0.064434141	-5.100900E+01
280	  0.064629942	-4.669000E+00	  0.064629942	-7.960300E+01	  0.064629942	2.913900E+01	  0.064629942	-5.082600E+01
281	  0.064825751	-4.662000E+00	  0.064825751	-7.981700E+01	  0.064825751	2.899600E+01	  0.064825751	-5.069200E+01
282	  0.065021552	-4.655000E+00	  0.065021552	-8.001500E+01	  0.065021552	2.886100E+01	  0.065021552	-5.056900E+01
283	  0.065217361	-4.645000E+00	  0.065217361	-8.021100E+01	  0.065217361	2.870800E+01	  0.065217361	-5.046100E+01
284	  0.065413170	-4.647000E+00	  0.065413170	-8.041500E+01	  0.065413170	2.861900E+01	  0.065413170	-5.030200E+01
285	  0.065608978	-4.636000E+00	  0.065608978	-8.060100E+01	  0.065608978	2.847100E+01	  0.065608978	-5.020300E+01
286	  0.065804780	-4.631000E+00	  0.065804780	-8.078900E+01	  0.065804780	2.835300E+01	  0.065804780	-5.008100E+01
287	  0.066000588	-4.634000E+00	  0.066000588	-8.093800E+01	  0.066000588	2.829300E+01	  0.066000588	-4.996300E+01
288	  0.066196397	-4.625000E+00	  0.066196397	-8.107600E+01	  0.066196397	2.818400E+01	  0.066196397	-4.988900E+01
289	  0.066392198	-4.624000E+00	  0.066392198	-8.124800E+01	  0.066392198	2.809400E+01	  0.066392198	-4.976700E+01
290	  0.066588007	-4.625000E+00	  0.066588007	-8.136600E+01	  0.066588007	2.804000E+01	  0.066588007	-4.967900E+01
291	  0.066783816	-4.629000E+00	  0.066783816	-8.152300E+01	  0.066783816	2.798300E+01	  0.066783816	-4.955100E+01
292	  0.066979617	-4.632000E+00	  0.066979617	-8.171600E+01	  0.066979617	2.790700E+01	  0.066979617	-4.939900E+01
293	  0.067175426	-4.637000E+00	  0.067175426	-8.189100E+01	  0.067175426	2.784500E+01	  0.067175426	-4.925800E+01
294	  0.067371234	-4.643000E+00	  0.067371234	-8.209700E+01	  0.067371234	2.777500E+01	  0.067371234	-4.909100E+01
295	  0.067567036	-4.652000E+00	  0.067567036	-8.227200E+01	  0.067567036	2.773400E+01	  0.067567036	-4.893700E+01
296	  0.067762844	-4.655000E+00	  0.067762844	-8.241500E+01	  0.067762844	2.768200E+01	  0.067762844	-4.882300E+01
297	  0.067958646	-4.661000E+00	  0.067958646	-8.264600E+01	  0.067958646	2.760400E+01	  0.067958646	-4.863800E+01
298	  0.068154462	-4.664000E+00	  0.068154462	-8.286200E+01	  0.068154462	2.751600E+01	  0.068154462	-4.847500E+01
299	  0.068350263	-4.673000E+00	  0.068350263	-8.308700E+01	  0.068350263	2.745200E+01	  0.068350263	-4.828900E+01
300	  0.068546072	-4.678000E+00	  0.068546072	-8.330600E+01	  0.068546072	2.737300E+01	  0.068546072	-4.811800E+01
301	  0.068741873	-4.680000E+00	  0.068741873	-8.353400E+01	  0.068741873	2.727900E+01	  0.068741873	-4.795000E+01
302	  0.068937682	-4.689000E+00	  0.068937682	-8.377500E+01	  0.068937682	2.721200E+01	  0.068937682	-4.775200E+01
303	  0.069133483	-4.695000E+00	  0.069133483	-8.400400E+01	  0.069133483	2.713900E+01	  0.069133483	-4.757100E+01
304	  0.069329299	-4.698000E+00	  0.069329299	-8.421800E+01	  0.069329299	2.705500E+01	  0.069329299	-4.741300E+01
305	  0.069525100	-4.706000E+00	  0.069525100	-8.442900E+01	  0.069525100	2.699900E+01	  0.069525100	-4.724100E+01
306	  0.069720909	-4.710000E+00	  0.069720909	-8.469100E+01	  0.069720909	2.690000E+01	  0.069720909	-4.704800E+01
307	  0.069916710	-4.710000E+00	  0.069916710	-8.495000E+01	  0.069916710	2.678800E+01	  0.069916710	-4.686700E+01
308	  0.070112519	-4.719000E+00	  0.070112519	-8.516600E+01	  0.070112519	2.673200E+01	  0.070112519	-4.669200E+01
309	  0.070308320	-4.719000E+00	  0.070308320	-8.543500E+01	  0.070308320	2.661700E+01	  0.070308320	-4.650500E+01
310	  0.070504129	-4.725000E+00	  0.070504129	-8.569200E+01	  0.070504129	2.653400E+01	  0.070504129	-4.631100E+01
311	  0.070699938	-4.731000E+00	  0.070699938	-8.596300E+01	  0.070699938	2.644400E+01	  0.070699938	-4.610900E+01
312	  0.070895746	-4.733000E+00	  0.070895746	-8.622200E+01	  0.070895746	2.634300E+01	  0.070895746	-4.592600E+01
313	  0.071091555	-4.738000E+00	  0.071091555	-8.647600E+01	  0.071091555	2.625800E+01	  0.071091555	-4.573900E+01
314	  0.071287356	-4.748000E+00	  0.071287356	-8.679300E+01	  0.071287356	2.617000E+01	  0.071287356	-4.549700E+01
315	  0.071483165	-4.750000E+00	  0.071483165	-8.707400E+01	  0.071483165	2.606300E+01	  0.071483165	-4.530100E+01
316	  0.071678966	-4.753000E+00	  0.071678966	-8.736000E+01	  0.071678966	2.595900E+01	  0.071678966	-4.509900E+01
317	  0.071874775	-4.754000E+00	  0.071874775	-8.767100E+01	  0.071874775	2.583900E+01	  0.071874775	-4.488600E+01
318	  0.072070576	-4.752000E+00	  0.072070576	-8.793900E+01	  0.072070576	2.572300E+01	  0.072070576	-4.471200E+01
319	  0.072266392	-4.755000E+00	  0.072266392	-8.824200E+01	  0.072266392	2.561300E+01	  0.072266392	-4.450200E+01
320	  0.072462194	-4.748000E+00	  0.072462194	-8.856100E+01	  0.072462194	2.545700E+01	  0.072462194	-4.430700E+01
321	  0.072658002	-4.752000E+00	  0.072658002	-8.881600E+01	  0.072658002	2.537200E+01	  0.072658002	-4.412900E+01
322	  0.072853811	-4.749000E+00	  0.072853811	-8.908900E+01	  0.072853811	2.525200E+01	  0.072853811	-4.395600E+01
323	  0.073049612	-4.748000E+00	  0.073049612	-8.936300E+01	  0.073049612	2.514200E+01	  0.073049612	-4.377700E+01
324	  0.073245421	-4.743000E+00	  0.073245421	-8.961100E+01	  0.073245421	2.502700E+01	  0.073245421	-4.362500E+01
325	  0.073441222	-4.746000E+00	  0.073441222	-8.986200E+01	  0.073441222	2.494300E+01	  0.073441222	-4.345400E+01
326	  0.073637031	-4.742000E+00	  0.073637031	-9.013700E+01	  0.073637031	2.482300E+01	  0.073637031	-4.328200E+01
327	  0.073832840	-4.739000E+00	  0.073832840	-9.037900E+01	  0.073832840	2.472200E+01	  0.073832840	-4.313000E+01
328	  0.074028648	-4.734000E+00	  0.074028648	-9.066400E+01	  0.074028648	2.459500E+01	  0.074028648	-4.295600E+01
329	  0.074224450	-4.739000E+00	  0.074224450	-9.092500E+01	  0.074224450	2.452000E+01	  0.074224450	-4.277400E+01
330	  0.074420258	-4.735000E+00	  0.074420258	-9.115600E+01	  0.074420258	2.441600E+01	  0.074420258	-4.263500E+01
331	  0.074616060	-4.737000E+00	  0.074616060	-9.142700E+01	  0.074616060	2.432800E+01	  0.074616060	-4.245300E+01
332	  0.074811868	-4.736000E+00	  0.074811868	-9.166300E+01	  0.074811868	2.423800E+01	  0.074811868	-4.230400E+01
333	  0.075007670	-4.733000E+00	  0.075007670	-9.194900E+01	  0.075007670	2.412400E+01	  0.075007670	-4.212600E+01
334	  0.075203478	-4.736000E+00	  0.075203478	-9.215500E+01	  0.075203478	2.406500E+01	  0.075203478	-4.198600E+01
335	  0.075399294	-4.735000E+00	  0.075399294	-9.242400E+01	  0.075399294	2.396600E+01	  0.075399294	-4.181600E+01
336	  0.075595096	-4.734000E+00	  0.075595096	-9.264600E+01	  0.075595096	2.388200E+01	  0.075595096	-4.167700E+01
337	  0.075790904	-4.729000E+00	  0.075790904	-9.291400E+01	  0.075790904	2.377100E+01	  0.075790904	-4.151500E+01
338	  0.075986706	-4.731000E+00	  0.075986706	-9.313500E+01	  0.075986706	2.370100E+01	  0.075986706	-4.137100E+01
339	  0.076182514	-4.729000E+00	  0.076182514	-9.338600E+01	  0.076182514	2.360800E+01	  0.076182514	-4.121600E+01
340	  0.076378316	-4.724000E+00	  0.076378316	-9.357500E+01	  0.076378316	2.352200E+01	  0.076378316	-4.110700E+01
341	  0.076574124	-4.725000E+00	  0.076574124	-9.383600E+01	  0.076574124	2.343800E+01	  0.076574124	-4.093900E+01
342	  0.076769926	-4.720000E+00	  0.076769926	-9.402900E+01	  0.076769926	2.335300E+01	  0.076769926	-4.082800E+01
343	  0.076965742	-4.717000E+00	  0.076965742	-9.427700E+01	  0.076965742	2.326100E+01	  0.076965742	-4.067700E+01
344	  0.077161543	-4.714000E+00	  0.077161543	-9.445300E+01	  0.077161543	2.318900E+01	  0.077161543	-4.057300E+01
345	  0.077357352	-4.717000E+00	  0.077357352	-9.464000E+01	  0.077357352	2.314200E+01	  0.077357352	-4.044800E+01
346	  0.077553153	-4.717000E+00	  0.077553153	-9.485700E+01	  0.077553153	2.306800E+01	  0.077553153	-4.031400E+01
347	  0.077748962	-4.715000E+00	  0.077748962	-9.502700E+01	  0.077748962	2.300700E+01	  0.077748962	-4.021000E+01
348	  0.077944770	-4.721000E+00	  0.077944770	-9.526000E+01	  0.077944770	2.295500E+01	  0.077944770	-4.005300E+01
349	  0.078140572	-4.723000E+00	  0.078140572	-9.545400E+01	  0.078140572	2.290200E+01	  0.078140572	-3.992700E+01
350	  0.078336388	-4.726000E+00	  0.078336388	-9.567100E+01	  0.078336388	2.284700E+01	  0.078336388	-3.978500E+01
351	  0.078532189	-4.728000E+00	  0.078532189	-9.588300E+01	  0.078532189	2.278700E+01	  0.078532189	-3.964900E+01
352	  0.078727998	-4.734000E+00	  0.078727998	-9.612900E+01	  0.078727998	2.273500E+01	  0.078727998	-3.948400E+01
353	  0.078923799	-4.737000E+00	  0.078923799	-9.633200E+01	  0.078923799	2.268500E+01	  0.078923799	-3.935300E+01
354	  0.079119608	-4.750000E+00	  0.079119608	-9.659400E+01	  0.079119608	2.265400E+01	  0.079119608	-3.916600E+01
355	  0.079315409	-4.750000E+00	  0.079315409	-9.683000E+01	  0.079315409	2.258200E+01	  0.079315409	-3.902100E+01
356	  0.079511218	-4.755000E+00	  0.079511218	-9.707100E+01	  0.079511218	2.252800E+01	  0.079511218	-3.886200E+01
357	  0.079707019	-4.760000E+00	  0.079707019	-9.734400E+01	  0.079707019	2.246300E+01	  0.079707019	-3.868700E+01
358	  0.079902835	-4.761000E+00	  0.079902835	-9.757400E+01	  0.079902835	2.239800E+01	  0.079902835	-3.854500E+01
359	  0.080098644	-4.761000E+00	  0.080098644	-9.783800E+01	  0.080098644	2.232100E+01	  0.080098644	-3.838300E+01
360	  0.080294445	-4.762000E+00	  0.080294445	-9.809500E+01	  0.080294445	2.224800E+01	  0.080294445	-3.822600E+01
361	  0.080490254	-4.769000E+00	  0.080490254	-9.835000E+01	  0.080490254	2.220100E+01	  0.080490254	-3.805800E+01
362	  0.080686055	-4.769000E+00	  0.080686055	-9.858600E+01	  0.080686055	2.213000E+01	  0.080686055	-3.791700E+01
363	  0.080881864	-4.770000E+00	  0.080881864	-9.887500E+01	  0.080881864	2.205000E+01	  0.080881864	-3.774000E+01
364	  0.081077665	-4.773000E+00	  0.081077665	-9.911200E+01	  0.081077665	2.199300E+01	  0.081077665	-3.759300E+01
365	  0.081273474	-4.771000E+00	  0.081273474	-9.936400E+01	  0.081273474	2.191400E+01	  0.081273474	-3.744600E+01
366	  0.081469283	-4.779000E+00	  0.081469283	-9.962500E+01	  0.081469283	2.186800E+01	  0.081469283	-3.727700E+01
367	  0.081665091	-4.780000E+00	  0.081665091	-9.987900E+01	  0.081665091	2.180400E+01	  0.081665091	-3.712200E+01
368	  0.081860892	-4.784000E+00	  0.081860892	-1.001430E+02	  0.081860892	2.174300E+01	  0.081860892	-3.695900E+01
369	  0.082056701	-4.788000E+00	  0.082056701	-1.004310E+02	  0.082056701	2.167700E+01	  0.082056701	-3.678200E+01
370	  0.082252502	-4.791000E+00	  0.082252502	-1.007300E+02	  0.082252502	2.160900E+01	  0.082252502	-3.659900E+01
371	  0.082448311	-4.790000E+00	  0.082448311	-1.010130E+02	  0.082448311	2.152600E+01	  0.082448311	-3.643400E+01
372	  0.082644112	-4.794000E+00	  0.082644112	-1.012870E+02	  0.082644112	2.146500E+01	  0.082644112	-3.626700E+01
373	  0.082839929	-4.793000E+00	  0.082839929	-1.015360E+02	  0.082839929	2.139600E+01	  0.082839929	-3.612200E+01
374	  0.083035737	-4.792000E+00	  0.083035737	-1.018050E+02	  0.083035737	2.132000E+01	  0.083035737	-3.596700E+01
375	  0.083231539	-4.792000E+00	  0.083231539	-1.020920E+02	  0.083231539	2.124300E+01	  0.083231539	-3.580000E+01
376	  0.083427347	-4.791000E+00	  0.083427347	-1.023470E+02	  0.083427347	2.117100E+01	  0.083427347	-3.565400E+01
377	  0.083623149	-4.793000E+00	  0.083623149	-1.026210E+02	  0.083623149	2.110800E+01	  0.083623149	-3.549200E+01
378	  0.083818957	-4.783000E+00	  0.083818957	-1.028400E+02	  0.083818957	2.101100E+01	  0.083818957	-3.538300E+01
379	  0.084014758	-4.781000E+00	  0.084014758	-1.031180E+02	  0.084014758	2.093100E+01	  0.084014758	-3.522600E+01
380	  0.084210567	-4.781000E+00	  0.084210567	-1.033550E+02	  0.084210567	2.087000E+01	  0.084210567	-3.509000E+01
381	  0.084406376	-4.779000E+00	  0.084406376	-1.035900E+02	  0.084406376	2.080200E+01	  0.084406376	-3.495800E+01
382	  0.084602185	-4.778000E+00	  0.084602185	-1.038150E+02	  0.084602185	2.074400E+01	  0.084602185	-3.483000E+01
383	  0.084797986	-4.782000E+00	  0.084797986	-1.040340E+02	  0.084797986	2.070100E+01	  0.084797986	-3.469900E+01
384	  0.084993795	-4.783000E+00	  0.084993795	-1.042810E+02	  0.084993795	2.064500E+01	  0.084993795	-3.455500E+01
385	  0.085189603	-4.786000E+00	  0.085189603	-1.045130E+02	  0.085189603	2.059700E+01	  0.085189603	-3.441900E+01
386	  0.085385405	-4.786000E+00	  0.085385405	-1.047860E+02	  0.085385405	2.053200E+01	  0.085385405	-3.426300E+01
387	  0.085581213	-4.792000E+00	  0.085581213	-1.050260E+02	  0.085581213	2.049500E+01	  0.085581213	-3.411800E+01
388	  0.085777014	-4.799000E+00	  0.085777014	-1.052960E+02	  0.085777014	2.045600E+01	  0.085777014	-3.395400E+01
389	  0.085972831	-4.804000E+00	  0.085972831	-1.055150E+02	  0.085972831	2.042000E+01	  0.085972831	-3.382300E+01
390	  0.086168632	-4.810000E+00	  0.086168632	-1.058030E+02	  0.086168632	2.037400E+01	  0.086168632	-3.365100E+01
391	  0.086364441	-4.812000E+00	  0.086364441	-1.060970E+02	  0.086364441	2.031300E+01	  0.086364441	-3.348200E+01
392	  0.086560242	-4.812000E+00	  0.086560242	-1.063900E+02	  0.086560242	2.024300E+01	  0.086560242	-3.331900E+01
393	  0.086756051	-4.817000E+00	  0.086756051	-1.066380E+02	  0.086756051	2.020300E+01	  0.086756051	-3.317200E+01
394	  0.086951852	-4.824000E+00	  0.086951852	-1.069690E+02	  0.086951852	2.015100E+01	  0.086951852	-3.297800E+01
395	  0.087147661	-4.819000E+00	  0.087147661	-1.072410E+02	  0.087147661	2.006900E+01	  0.087147661	-3.283500E+01
396	  0.087343477	-4.819000E+00	  0.087343477	-1.075420E+02	  0.087343477	1.999900E+01	  0.087343477	-3.266900E+01
397	  0.087539278	-4.817000E+00	  0.087539278	-1.078310E+02	  0.087539278	1.992700E+01	  0.087539278	-3.251200E+01
398	  0.087735087	-4.813000E+00	  0.087735087	-1.081010E+02	  0.087735087	1.985200E+01	  0.087735087	-3.236900E+01
399	  0.087930888	-4.814000E+00	  0.087930888	-1.084070E+02	  0.087930888	1.978800E+01	  0.087930888	-3.219900E+01
400	  0.088126697	-4.807000E+00	  0.088126697	-1.086530E+02	  0.088126697	1.971000E+01	  0.088126697	-3.207400E+01
401	  0.088322498	-4.804000E+00	  0.088322498	-1.089610E+02	  0.088322498	1.963000E+01	  0.088322498	-3.191000E+01
402	  0.088518307	-4.805000E+00	  0.088518307	-1.092180E+02	  0.088518307	1.957600E+01	  0.088518307	-3.176900E+01
403	  0.088714108	-4.798000E+00	  0.088714108	-1.095150E+02	  0.088714108	1.948700E+01	  0.088714108	-3.161600E+01
404	  0.088909924	-4.795000E+00	  0.088909924	-1.097470E+02	  0.088909924	1.942800E+01	  0.088909924	-3.149400E+01
405	  0.089105725	-4.790000E+00	  0.089105725	-1.100040E+02	  0.089105725	1.935700E+01	  0.089105725	-3.136100E+01
406	  0.089301534	-4.786000E+00	  0.089301534	-1.102540E+02	  0.089301534	1.928600E+01	  0.089301534	-3.123300E+01
407	  0.089497335	-4.783000E+00	  0.089497335	-1.104670E+02	  0.089497335	1.923400E+01	  0.089497335	-3.112000E+01
408	  0.089693144	-4.775000E+00	  0.089693144	-1.107040E+02	  0.089693144	1.915600E+01	  0.089693144	-3.100300E+01
409	  0.089888945	-4.777000E+00	  0.089888945	-1.109540E+02	  0.089888945	1.910800E+01	  0.089888945	-3.086700E+01
410	  0.090084754	-4.770000E+00	  0.090084754	-1.111670E+02	  0.090084754	1.904000E+01	  0.090084754	-3.076100E+01
411	  0.090280563	-4.770000E+00	  0.090280563	-1.113530E+02	  0.090280563	1.900200E+01	  0.090280563	-3.066100E+01
412	  0.090476371	-4.755000E+00	  0.090476371	-1.115520E+02	  0.090476371	1.891100E+01	  0.090476371	-3.057400E+01
413	  0.090672180	-4.756000E+00	  0.090672180	-1.117850E+02	  0.090672180	1.886800E+01	  0.090672180	-3.044700E+01
414	  0.090867981	-4.751000E+00	  0.090867981	-1.119640E+02	  0.090867981	1.881200E+01	  0.090867981	-3.035900E+01
415	  0.091063790	-4.749000E+00	  0.091063790	-1.121610E+02	  0.091063790	1.876700E+01	  0.091063790	-3.025500E+01
416	  0.091259591	-4.740000E+00	  0.091259591	-1.122970E+02	  0.091259591	1.870700E+01	  0.091259591	-3.019500E+01
417	  0.091455400	-4.741000E+00	  0.091455400	-1.124800E+02	  0.091455400	1.867500E+01	  0.091455400	-3.009600E+01
418	  0.091651201	-4.743000E+00	  0.091651201	-1.126080E+02	  0.091651201	1.865700E+01	  0.091651201	-3.002500E+01
419	  0.091847017	-4.745000E+00	  0.091847017	-1.128050E+02	  0.091847017	1.862700E+01	  0.091847017	-2.991700E+01
420	  0.092042819	-4.749000E+00	  0.092042819	-1.129450E+02	  0.092042819	1.861300E+01	  0.092042819	-2.983800E+01
421	  0.092238627	-4.750000E+00	  0.092238627	-1.131300E+02	  0.092238627	1.858100E+01	  0.092238627	-2.973800E+01
422	  0.092434436	-4.760000E+00	  0.092434436	-1.133010E+02	  0.092434436	1.858300E+01	  0.092434436	-2.963500E+01
423	  0.092630237	-4.766000E+00	  0.092630237	-1.134830E+02	  0.092630237	1.857100E+01	  0.092630237	-2.953000E+01
424	  0.092826046	-4.777000E+00	  0.092826046	-1.136830E+02	  0.092826046	1.857000E+01	  0.092826046	-2.941100E+01
425	  0.093021847	-4.787000E+00	  0.093021847	-1.139410E+02	  0.093021847	1.855500E+01	  0.093021847	-2.926400E+01
426	  0.093217656	-4.797000E+00	  0.093217656	-1.141490E+02	  0.093217656	1.855100E+01	  0.093217656	-2.914100E+01
427	  0.093413465	-4.812000E+00	  0.093413465	-1.143770E+02	  0.093413465	1.855900E+01	  0.093413465	-2.900400E+01
428	  0.093609273	-4.823000E+00	  0.093609273	-1.146690E+02	  0.093609273	1.854300E+01	  0.093609273	-2.883700E+01
429	  0.093805075	-4.834000E+00	  0.093805075	-1.149440E+02	  0.093805075	1.852800E+01	  0.093805075	-2.868100E+01
430	  0.094000883	-4.842000E+00	  0.094000883	-1.152450E+02	  0.094000883	1.850000E+01	  0.094000883	-2.851500E+01
431	  0.094196685	-4.850000E+00	  0.094196685	-1.155650E+02	  0.094196685	1.847100E+01	  0.094196685	-2.833900E+01
432	  0.094392493	-4.859000E+00	  0.094392493	-1.158620E+02	  0.094392493	1.844400E+01	  0.094392493	-2.817600E+01
433	  0.094588295	-4.864000E+00	  0.094588295	-1.162040E+02	  0.094588295	1.840300E+01	  0.094588295	-2.799200E+01
434	  0.094784103	-4.867000E+00	  0.094784103	-1.165260E+02	  0.094784103	1.835500E+01	  0.094784103	-2.782400E+01
435	  0.094979919	-4.871000E+00	  0.094979919	-1.168750E+02	  0.094979919	1.830500E+01	  0.094979919	-2.764100E+01
436	  0.095175721	-4.878000E+00	  0.095175721	-1.172280E+02	  0.095175721	1.826600E+01	  0.095175721	-2.745300E+01
437	  0.095371529	-4.871000E+00	  0.095371529	-1.175600E+02	  0.095371529	1.818600E+01	  0.095371529	-2.729200E+01
438	  0.095567331	-4.871000E+00	  0.095567331	-1.179120E+02	  0.095567331	1.812400E+01	  0.095567331	-2.711300E+01
439	  0.095763139	-4.869000E+00	  0.095763139	-1.182560E+02	  0.095763139	1.805800E+01	  0.095763139	-2.694100E+01
440	  0.095958941	-4.865000E+00	  0.095958941	-1.186150E+02	  0.095958941	1.798700E+01	  0.095958941	-2.676400E+01
441	  0.096154749	-4.863000E+00	  0.096154749	-1.189520E+02	  0.096154749	1.792100E+01	  0.096154749	-2.659700E+01
442	  0.096350558	-4.853000E+00	  0.096350558	-1.193010E+02	  0.096350558	1.783200E+01	  0.096350558	-2.643100E+01
443	  0.096546367	-4.849000E+00	  0.096546367	-1.196050E+02	  0.096546367	1.776900E+01	  0.096546367	-2.628300E+01
444	  0.096742168	-4.841000E+00	  0.096742168	-1.198930E+02	  0.096742168	1.769400E+01	  0.096742168	-2.614800E+01
445	  0.096937977	-4.827000E+00	  0.096937977	-1.201870E+02	  0.096937977	1.760100E+01	  0.096937977	-2.601500E+01
446	  0.097133778	-4.821000E+00	  0.097133778	-1.204490E+02	  0.097133778	1.754100E+01	  0.097133778	-2.589000E+01
447	  0.097329587	-4.810000E+00	  0.097329587	-1.207220E+02	  0.097329587	1.746200E+01	  0.097329587	-2.576500E+01
448	  0.097525395	-4.796000E+00	  0.097525395	-1.210080E+02	  0.097525395	1.736900E+01	  0.097525395	-2.563700E+01
449	  0.097721197	-4.781000E+00	  0.097721197	-1.211960E+02	  0.097721197	1.729000E+01	  0.097721197	-2.555900E+01
450	  0.097917013	-4.770000E+00	  0.097917013	-1.214380E+02	  0.097917013	1.721900E+01	  0.097917013	-2.544900E+01
451	  0.098112814	-4.760000E+00	  0.098112814	-1.216280E+02	  0.098112814	1.715800E+01	  0.098112814	-2.536500E+01
452	  0.098308623	-4.743000E+00	  0.098308623	-1.217860E+02	  0.098308623	1.707800E+01	  0.098308623	-2.530300E+01
453	  0.098504424	-4.736000E+00	  0.098504424	-1.219620E+02	  0.098504424	1.702800E+01	  0.098504424	-2.522300E+01
454	  0.098700233	-4.732000E+00	  0.098700233	-1.221020E+02	  0.098700233	1.699200E+01	  0.098700233	-2.515800E+01
455	  0.098896034	-4.719000E+00	  0.098896034	-1.222550E+02	  0.098896034	1.692700E+01	  0.098896034	-2.509400E+01
456	  0.099091843	-4.714000E+00	  0.099091843	-1.223540E+02	  0.099091843	1.689600E+01	  0.099091843	-2.505000E+01
457	  0.099287644	-4.708000E+00	  0.099287644	-1.224740E+02	  0.099287644	1.686100E+01	  0.099287644	-2.499600E+01
458	  0.099483460	-4.707000E+00	  0.099483460	-1.226450E+02	  0.099483460	1.683000E+01	  0.099483460	-2.491300E+01
459	  0.099679269	-4.709000E+00	  0.099679269	-1.227370E+02	  0.099679269	1.682500E+01	  0.099679269	-2.486500E+01
460	  0.099875070	-4.701000E+00	  0.099875070	-1.228640E+02	  0.099875070	1.678100E+01	  0.099875070	-2.481000E+01
461	  0.100070879	-4.711000E+00	  0.100070879	-1.229690E+02	  0.100070879	1.679700E+01	  0.100070879	-2.474800E+01
462	  0.100266680	-4.716000E+00	  0.100266680	-1.230950E+02	  0.100266680	1.679500E+01	  0.100266680	-2.468100E+01
463	  0.100462489	-4.725000E+00	  0.100462489	-1.232330E+02	  0.100462489	1.680500E+01	  0.100462489	-2.460500E+01
464	  0.100658290	-4.721000E+00	  0.100658290	-1.233430E+02	  0.100658290	1.677700E+01	  0.100658290	-2.455400E+01
465	  0.100854106	-4.732000E+00	  0.100854106	-1.235230E+02	  0.100854106	1.678700E+01	  0.100854106	-2.445500E+01
466	  0.101049908	-4.744000E+00	  0.101049908	-1.236720E+02	  0.101049908	1.680300E+01	  0.101049908	-2.437100E+01
467	  0.101245716	-4.753000E+00	  0.101245716	-1.238540E+02	  0.101245716	1.680600E+01	  0.101245716	-2.427300E+01
468	  0.101441517	-4.762000E+00	  0.101441517	-1.240190E+02	  0.101441517	1.681300E+01	  0.101441517	-2.418400E+01
469	  0.101637326	-4.772000E+00	  0.101637326	-1.242430E+02	  0.101637326	1.681200E+01	  0.101637326	-2.406600E+01
470	  0.101833127	-4.784000E+00	  0.101833127	-1.244840E+02	  0.101833127	1.681700E+01	  0.101833127	-2.393700E+01
471	  0.102028936	-4.794000E+00	  0.102028936	-1.247080E+02	  0.102028936	1.681900E+01	  0.102028936	-2.381800E+01
472	  0.102224737	-4.805000E+00	  0.102224737	-1.249460E+02	  0.102224737	1.682000E+01	  0.102224737	-2.369200E+01
473	  0.102420554	-4.814000E+00	  0.102420554	-1.251580E+02	  0.102420554	1.681900E+01	  0.102420554	-2.358100E+01
474	  0.102616362	-4.820000E+00	  0.102616362	-1.254280E+02	  0.102616362	1.680200E+01	  0.102616362	-2.344500E+01
475	  0.102812164	-4.828000E+00	  0.102812164	-1.257310E+02	  0.102812164	1.678400E+01	  0.102812164	-2.329300E+01
476	  0.103007972	-4.834000E+00	  0.103007972	-1.259760E+02	  0.103007972	1.676900E+01	  0.103007972	-2.316900E+01
477	  0.103203773	-4.841000E+00	  0.103203773	-1.262740E+02	  0.103203773	1.675100E+01	  0.103203773	-2.302000E+01
478	  0.103399582	-4.843000E+00	  0.103399582	-1.265310E+02	  0.103399582	1.672500E+01	  0.103399582	-2.289400E+01
479	  0.103595383	-4.848000E+00	  0.103595383	-1.268130E+02	  0.103595383	1.670200E+01	  0.103595383	-2.275500E+01
480	  0.103791192	-4.850000E+00	  0.103791192	-1.271050E+02	  0.103791192	1.667000E+01	  0.103791192	-2.261400E+01
481	  0.103987001	-4.852000E+00	  0.103987001	-1.273560E+02	  0.103987001	1.664500E+01	  0.103987001	-2.249200E+01
482	  0.104182810	-4.853000E+00	  0.104182810	-1.276600E+02	  0.104182810	1.660700E+01	  0.104182810	-2.234700E+01
483	  0.104378611	-4.862000E+00	  0.104378611	-1.278890E+02	  0.104378611	1.660600E+01	  0.104378611	-2.223100E+01
484	  0.104574420	-4.856000E+00	  0.104574420	-1.281820E+02	  0.104574420	1.655100E+01	  0.104574420	-2.209700E+01
485	  0.104770228	-4.857000E+00	  0.104770228	-1.284300E+02	  0.104770228	1.652000E+01	  0.104770228	-2.197900E+01
486	  0.104966030	-4.863000E+00	  0.104966030	-1.286770E+02	  0.104966030	1.650800E+01	  0.104966030	-2.185700E+01
487	  0.105161838	-4.859000E+00	  0.105161838	-1.289460E+02	  0.105161838	1.646100E+01	  0.105161838	-2.173300E+01
488	  0.105357639	-4.860000E+00	  0.105357639	-1.292100E+02	  0.105357639	1.643100E+01	  0.105357639	-2.160800E+01
489	  0.105553456	-4.860000E+00	  0.105553456	-1.294540E+02	  0.105553456	1.640100E+01	  0.105553456	-2.149400E+01
490	  0.105749257	-4.854000E+00	  0.105749257	-1.296830E+02	  0.105749257	1.635600E+01	  0.105749257	-2.139100E+01
491	  0.105945066	-4.850000E+00	  0.105945066	-1.299780E+02	  0.105945066	1.630900E+01	  0.105945066	-2.125500E+01
492	  0.106140867	-4.850000E+00	  0.106140867	-1.301780E+02	  0.106140867	1.628400E+01	  0.106140867	-2.116100E+01
493	  0.106336676	-4.854000E+00	  0.106336676	-1.304080E+02	  0.106336676	1.626700E+01	  0.106336676	-2.105100E+01
494	  0.106532477	-4.855000E+00	  0.106532477	-1.306190E+02	  0.106532477	1.624500E+01	  0.106532477	-2.095200E+01
495	  0.106728286	-4.860000E+00	  0.106728286	-1.308310E+02	  0.106728286	1.623500E+01	  0.106728286	-2.084900E+01
496	  0.106924094	-4.870000E+00	  0.106924094	-1.310730E+02	  0.106924094	1.623900E+01	  0.106924094	-2.072800E+01
497	  0.107119903	-4.870000E+00	  0.107119903	-1.312990E+02	  0.107119903	1.621200E+01	  0.107119903	-2.062300E+01
498	  0.107315712	-4.872000E+00	  0.107315712	-1.315580E+02	  0.107315712	1.618900E+01	  0.107315712	-2.050100E+01
499	  0.107511513	-4.877000E+00	  0.107511513	-1.317760E+02	  0.107511513	1.617900E+01	  0.107511513	-2.039600E+01
500	  0.107707322	-4.890000E+00	  0.107707322	-1.320050E+02	  0.107707322	1.619000E+01	  0.107707322	-2.028100E+01
501	  0.107903123	-4.889000E+00	  0.107903123	-1.322730E+02	  0.107903123	1.615900E+01	  0.107903123	-2.015700E+01
