! Anritsu VNA Master:             	Model: MS2036C/10/77
! SN:             	1601066
! /card0/usr/255.ew.sma.r200.1_1.txt
! Existing Calibration Information:
! TYPE:             	Current Settings	Active Cal Settings
! TIME:             	12/17/2017 05:57:36 PM	12/17/2017 05:44:58 PM
! INTERNAL TEMP:    	44.0 C	43.8 C
! # POINTS:         	501	501
! START FREQ:       	10.000 MHz	10.000 MHz
! STOP FREQ:        	107.903 125 MHz	107.903 125 MHz
! SOURCE POWER:     	High	High
! IFBW:             	100 Hz	100 Hz
! AVG FACTOR:       	  1 	  1 
! REF PLANE 1:      	0 mm	0 mm
! REF PLANE 2:      	0 mm	0 mm
! CAL TYPE:         	Full S11	Full S11
! CAL METHOD:       	SOLT	SOLT
! CAL LINE TYPE:    	Coax	Coax
! DUT PORT 1:       	K-Conn(F)	K-Conn(F)
! DUT PORT 2:       	K-Conn(F)	K-Conn(F)
! CAL STATUS:       	OK: Accuracy High	--
! PROP-V:       	0.700
! CABLE LOSS:       	0.000 dB/m
! REF IMPEDANCE:       	50.0
! Trace Specific Parameters:	TR1	TR2	TR3	TR4
! TRACE.#.Y (GRAPH TYPE)	LOG MAG	PHASE	REAL IMPEDANCE	IMAGINARY IMPEDANCE
! TRACE.#.X 	FREQ.GHZ	FREQ.GHZ	FREQ.GHZ	FREQ.GHZ
! S-PARAMETER	S11	S11	S22	S22
! SMOOTH/APERTURE %	0	0	0	0
! WINDOW	NSL	NSL	NSL	NSL
! GATING	OFF	OFF	OFF	OFF
! FGTD	OFF	OFF	OFF	OFF
Marker Information per Trace:	TR1	TR2	TR3	TR4
!MK1	--	--	--	--
!MK2	--	--	--	--
!MK3	--	--	--	--
!MK4	--	--	--	--
!MK5	--	--	--	--
!MK6	--	--	--	--
!MK7	--	--	--	--
!MK8	--	--	--	--
PNT	TR1.FREQ.GHZ	TR1.LOG MAG.dB	TR2.FREQ.GHZ	TR2.PHASE.deg	TR3.FREQ.GHZ	TR3.REAL IMPEDANCE.ohm	TR4.FREQ.GHZ	TR4.IMAGINARY IMPEDANCE.ohm
1	  0.010000000	-4.555000E+00	  0.010000000	-1.068300E+01	  0.010000000	1.701000E+00	  0.010000000	3.370000E+00
2	  0.010195807	-4.544000E+00	  0.010195807	-1.085900E+01	  0.010195807	1.777000E+00	  0.010195807	3.594000E+00
3	  0.010391613	-4.543000E+00	  0.010391613	-1.106000E+01	  0.010391613	1.780000E+00	  0.010391613	3.657000E+00
4	  0.010587418	-4.543000E+00	  0.010587418	-1.124900E+01	  0.010587418	1.766000E+00	  0.010587418	3.726000E+00
5	  0.010783225	-4.545000E+00	  0.010783225	-1.148900E+01	  0.010783225	1.748000E+00	  0.010783225	3.792000E+00
6	  0.010979031	-4.545000E+00	  0.010979031	-1.169800E+01	  0.010979031	1.744000E+00	  0.010979031	3.850000E+00
7	  0.011174837	-4.544000E+00	  0.011174837	-1.193800E+01	  0.011174837	1.862000E+00	  0.011174837	4.091000E+00
8	  0.011370643	-4.543000E+00	  0.011370643	-1.214200E+01	  0.011370643	1.880000E+00	  0.011370643	4.138000E+00
9	  0.011566450	-4.548000E+00	  0.011566450	-1.234400E+01	  0.011566450	1.879000E+00	  0.011566450	4.194000E+00
10	  0.011762256	-4.548000E+00	  0.011762256	-1.257600E+01	  0.011762256	1.894000E+00	  0.011762256	4.236000E+00
11	  0.011958062	-4.548000E+00	  0.011958062	-1.276400E+01	  0.011958062	1.908000E+00	  0.011958062	4.279000E+00
12	  0.012153869	-4.547000E+00	  0.012153869	-1.300400E+01	  0.012153869	2.036000E+00	  0.012153869	4.504000E+00
13	  0.012349674	-4.547000E+00	  0.012349674	-1.322000E+01	  0.012349674	2.048000E+00	  0.012349674	4.547000E+00
14	  0.012545481	-4.548000E+00	  0.012545481	-1.346000E+01	  0.012545481	2.053000E+00	  0.012545481	4.594000E+00
15	  0.012741288	-4.549000E+00	  0.012741288	-1.365700E+01	  0.012741288	2.067000E+00	  0.012741288	4.631000E+00
16	  0.012937094	-4.551000E+00	  0.012937094	-1.387600E+01	  0.012937094	2.077000E+00	  0.012937094	4.667000E+00
17	  0.013132900	-4.555000E+00	  0.013132900	-1.409600E+01	  0.013132900	2.193000E+00	  0.013132900	4.887000E+00
18	  0.013328707	-4.554000E+00	  0.013328707	-1.430900E+01	  0.013328707	2.174000E+00	  0.013328707	4.920000E+00
19	  0.013524513	-4.554000E+00	  0.013524513	-1.451500E+01	  0.013524513	2.177000E+00	  0.013524513	4.965000E+00
20	  0.013720319	-4.552000E+00	  0.013720319	-1.472800E+01	  0.013720319	2.187000E+00	  0.013720319	4.997000E+00
21	  0.013916126	-4.550000E+00	  0.013916126	-1.495200E+01	  0.013916126	2.189000E+00	  0.013916126	5.034000E+00
22	  0.014111931	-4.555000E+00	  0.014111931	-1.518000E+01	  0.014111931	2.314000E+00	  0.014111931	5.251000E+00
23	  0.014307737	-4.555000E+00	  0.014307737	-1.538700E+01	  0.014307737	2.327000E+00	  0.014307737	5.287000E+00
24	  0.014503544	-4.557000E+00	  0.014503544	-1.561700E+01	  0.014503544	2.327000E+00	  0.014503544	5.328000E+00
25	  0.014699350	-4.554000E+00	  0.014699350	-1.584000E+01	  0.014699350	2.333000E+00	  0.014699350	5.359000E+00
26	  0.014895156	-4.557000E+00	  0.014895156	-1.604900E+01	  0.014895156	2.336000E+00	  0.014895156	5.398000E+00
27	  0.015090963	-4.558000E+00	  0.015090963	-1.626000E+01	  0.015090963	2.460000E+00	  0.015090963	5.611000E+00
28	  0.015286769	-4.559000E+00	  0.015286769	-1.647000E+01	  0.015286769	2.458000E+00	  0.015286769	5.646000E+00
29	  0.015482575	-4.560000E+00	  0.015482575	-1.672400E+01	  0.015482575	2.486000E+00	  0.015482575	5.664000E+00
30	  0.015678382	-4.557000E+00	  0.015678382	-1.695000E+01	  0.015678382	2.484000E+00	  0.015678382	5.697000E+00
31	  0.015874187	-4.558000E+00	  0.015874187	-1.716100E+01	  0.015874187	2.483000E+00	  0.015874187	5.733000E+00
32	  0.016069993	-4.561000E+00	  0.016069993	-1.737900E+01	  0.016069993	2.602000E+00	  0.016069993	5.947000E+00
33	  0.016265800	-4.562000E+00	  0.016265800	-1.757400E+01	  0.016265800	2.591000E+00	  0.016265800	5.987000E+00
34	  0.016461605	-4.563000E+00	  0.016461605	-1.779000E+01	  0.016461605	2.585000E+00	  0.016461605	6.024000E+00
35	  0.016657412	-4.563000E+00	  0.016657412	-1.801000E+01	  0.016657412	2.576000E+00	  0.016657412	6.066000E+00
36	  0.016853219	-4.562000E+00	  0.016853219	-1.822000E+01	  0.016853219	2.556000E+00	  0.016853219	6.105000E+00
37	  0.017049024	-4.560000E+00	  0.017049024	-1.843100E+01	  0.017049024	2.540000E+00	  0.017049024	6.140000E+00
38	  0.017244833	-4.557000E+00	  0.017244833	-1.864200E+01	  0.017244833	2.633000E+00	  0.017244833	6.366000E+00
39	  0.017440638	-4.556000E+00	  0.017440638	-1.886200E+01	  0.017440638	2.606000E+00	  0.017440638	6.403000E+00
40	  0.017636444	-4.555000E+00	  0.017636444	-1.908800E+01	  0.017636444	2.572000E+00	  0.017636444	6.447000E+00
41	  0.017832249	-4.558000E+00	  0.017832249	-1.927800E+01	  0.017832249	2.541000E+00	  0.017832249	6.488000E+00
42	  0.018028056	-4.557000E+00	  0.018028056	-1.949400E+01	  0.018028056	2.503000E+00	  0.018028056	6.532000E+00
43	  0.018223861	-4.561000E+00	  0.018223861	-1.970300E+01	  0.018223861	2.590000E+00	  0.018223861	6.755000E+00
44	  0.018419670	-4.562000E+00	  0.018419670	-1.992700E+01	  0.018419670	2.554000E+00	  0.018419670	6.802000E+00
45	  0.018615475	-4.562000E+00	  0.018615475	-2.012000E+01	  0.018615475	2.512000E+00	  0.018615475	6.845000E+00
46	  0.018811282	-4.563000E+00	  0.018811282	-2.036200E+01	  0.018811282	2.484000E+00	  0.018811282	6.882000E+00
47	  0.019007087	-4.562000E+00	  0.019007087	-2.055800E+01	  0.019007087	2.448000E+00	  0.019007087	6.921000E+00
48	  0.019202894	-4.567000E+00	  0.019202894	-2.075600E+01	  0.019202894	2.533000E+00	  0.019202894	7.141000E+00
49	  0.019398699	-4.566000E+00	  0.019398699	-2.097100E+01	  0.019398699	2.507000E+00	  0.019398699	7.184000E+00
50	  0.019594505	-4.568000E+00	  0.019594505	-2.117400E+01	  0.019594505	2.491000E+00	  0.019594505	7.220000E+00
51	  0.019790314	-4.566000E+00	  0.019790314	-2.138600E+01	  0.019790314	2.470000E+00	  0.019790314	7.256000E+00
52	  0.019986119	-4.566000E+00	  0.019986119	-2.159400E+01	  0.019986119	2.457000E+00	  0.019986119	7.292000E+00
53	  0.020181926	-4.567000E+00	  0.020181926	-2.181000E+01	  0.020181926	2.563000E+00	  0.020181926	7.507000E+00
54	  0.020377731	-4.567000E+00	  0.020377731	-2.203500E+01	  0.020377731	2.553000E+00	  0.020377731	7.542000E+00
55	  0.020573538	-4.566000E+00	  0.020573538	-2.223900E+01	  0.020573538	2.540000E+00	  0.020573538	7.574000E+00
56	  0.020769343	-4.565000E+00	  0.020769343	-2.246600E+01	  0.020769343	2.518000E+00	  0.020769343	7.607000E+00
57	  0.020965151	-4.567000E+00	  0.020965151	-2.269700E+01	  0.020965151	2.508000E+00	  0.020965151	7.642000E+00
58	  0.021160956	-4.568000E+00	  0.021160956	-2.290400E+01	  0.021160956	2.619000E+00	  0.021160956	7.852000E+00
59	  0.021356763	-4.568000E+00	  0.021356763	-2.314900E+01	  0.021356763	2.605000E+00	  0.021356763	7.888000E+00
60	  0.021552568	-4.568000E+00	  0.021552568	-2.334900E+01	  0.021552568	2.594000E+00	  0.021552568	7.915000E+00
61	  0.021748375	-4.569000E+00	  0.021748375	-2.357600E+01	  0.021748375	2.585000E+00	  0.021748375	7.947000E+00
62	  0.021944180	-4.571000E+00	  0.021944180	-2.380700E+01	  0.021944180	2.572000E+00	  0.021944180	7.975000E+00
63	  0.022139989	-4.572000E+00	  0.022139989	-2.400700E+01	  0.022139989	2.675000E+00	  0.022139989	8.185000E+00
64	  0.022335794	-4.574000E+00	  0.022335794	-2.421200E+01	  0.022335794	2.667000E+00	  0.022335794	8.216000E+00
65	  0.022531601	-4.573000E+00	  0.022531601	-2.440800E+01	  0.022531601	2.654000E+00	  0.022531601	8.244000E+00
66	  0.022727406	-4.576000E+00	  0.022727406	-2.462600E+01	  0.022727406	2.648000E+00	  0.022727406	8.272000E+00
67	  0.022923212	-4.579000E+00	  0.022923212	-2.484100E+01	  0.022923212	2.644000E+00	  0.022923212	8.301000E+00
68	  0.023119017	-4.576000E+00	  0.023119017	-2.506300E+01	  0.023119017	2.629000E+00	  0.023119017	8.330000E+00
69	  0.023314826	-4.577000E+00	  0.023314826	-2.528600E+01	  0.023314826	2.737000E+00	  0.023314826	8.539000E+00
70	  0.023510631	-4.578000E+00	  0.023510631	-2.553000E+01	  0.023510631	2.732000E+00	  0.023510631	8.565000E+00
71	  0.023706438	-4.576000E+00	  0.023706438	-2.574500E+01	  0.023706438	2.712000E+00	  0.023706438	8.593000E+00
72	  0.023902243	-4.576000E+00	  0.023902243	-2.595900E+01	  0.023902243	2.700000E+00	  0.023902243	8.615000E+00
73	  0.024098050	-4.570000E+00	  0.024098050	-2.617500E+01	  0.024098050	2.695000E+00	  0.024098050	8.638000E+00
74	  0.024293855	-4.567000E+00	  0.024293855	-2.639400E+01	  0.024293855	2.812000E+00	  0.024293855	8.843000E+00
75	  0.024489662	-4.566000E+00	  0.024489662	-2.664100E+01	  0.024489662	2.801000E+00	  0.024489662	8.865000E+00
76	  0.024685470	-4.570000E+00	  0.024685470	-2.684000E+01	  0.024685470	2.795000E+00	  0.024685470	8.889000E+00
77	  0.024881275	-4.567000E+00	  0.024881275	-2.705900E+01	  0.024881275	2.785000E+00	  0.024881275	8.910000E+00
78	  0.025077082	-4.567000E+00	  0.025077082	-2.725400E+01	  0.025077082	2.777000E+00	  0.025077082	8.936000E+00
79	  0.025272887	-4.568000E+00	  0.025272887	-2.746500E+01	  0.025272887	2.880000E+00	  0.025272887	9.137000E+00
80	  0.025468694	-4.568000E+00	  0.025468694	-2.763400E+01	  0.025468694	2.871000E+00	  0.025468694	9.161000E+00
81	  0.025664499	-4.573000E+00	  0.025664499	-2.783000E+01	  0.025664499	2.862000E+00	  0.025664499	9.181000E+00
82	  0.025860308	-4.574000E+00	  0.025860308	-2.800500E+01	  0.025860308	2.851000E+00	  0.025860308	9.199000E+00
83	  0.026056113	-4.576000E+00	  0.026056113	-2.820400E+01	  0.026056113	2.837000E+00	  0.026056113	9.215000E+00
84	  0.026251920	-4.576000E+00	  0.026251920	-2.840700E+01	  0.026251920	2.947000E+00	  0.026251920	9.419000E+00
85	  0.026447725	-4.580000E+00	  0.026447725	-2.861100E+01	  0.026447725	2.931000E+00	  0.026447725	9.438000E+00
86	  0.026643531	-4.582000E+00	  0.026643531	-2.882000E+01	  0.026643531	2.912000E+00	  0.026643531	9.458000E+00
87	  0.026839336	-4.583000E+00	  0.026839336	-2.905300E+01	  0.026839336	2.899000E+00	  0.026839336	9.478000E+00
88	  0.027035145	-4.584000E+00	  0.027035145	-2.927800E+01	  0.027035145	2.879000E+00	  0.027035145	9.496000E+00
89	  0.027230950	-4.584000E+00	  0.027230950	-2.950800E+01	  0.027230950	2.985000E+00	  0.027230950	9.698000E+00
90	  0.027426757	-4.585000E+00	  0.027426757	-2.972100E+01	  0.027426757	2.957000E+00	  0.027426757	9.714000E+00
91	  0.027622562	-4.586000E+00	  0.027622562	-2.993700E+01	  0.027622562	2.938000E+00	  0.027622562	9.730000E+00
92	  0.027818369	-4.588000E+00	  0.027818369	-3.017500E+01	  0.027818369	2.919000E+00	  0.027818369	9.748000E+00
93	  0.028014174	-4.593000E+00	  0.028014174	-3.041900E+01	  0.028014174	2.900000E+00	  0.028014174	9.761000E+00
94	  0.028209982	-4.594000E+00	  0.028209982	-3.066400E+01	  0.028209982	3.006000E+00	  0.028209982	9.957000E+00
95	  0.028405787	-4.589000E+00	  0.028405787	-3.089800E+01	  0.028405787	2.987000E+00	  0.028405787	9.972000E+00
96	  0.028601594	-4.586000E+00	  0.028601594	-3.110700E+01	  0.028601594	2.969000E+00	  0.028601594	9.986000E+00
97	  0.028797399	-4.583000E+00	  0.028797399	-3.129200E+01	  0.028797399	2.947000E+00	  0.028797399	9.997000E+00
98	  0.028993206	-4.582000E+00	  0.028993206	-3.148200E+01	  0.028993206	2.921000E+00	  0.028993206	1.001100E+01
99	  0.029189013	-4.583000E+00	  0.029189013	-3.165400E+01	  0.029189013	2.901000E+00	  0.029189013	1.002700E+01
100	  0.029384818	-4.585000E+00	  0.029384818	-3.185200E+01	  0.029384818	3.003000E+00	  0.029384818	1.022500E+01
101	  0.029580627	-4.584000E+00	  0.029580627	-3.201800E+01	  0.029580627	2.983000E+00	  0.029580627	1.024400E+01
102	  0.029776432	-4.591000E+00	  0.029776432	-3.223300E+01	  0.029776432	2.964000E+00	  0.029776432	1.026200E+01
103	  0.029972238	-4.598000E+00	  0.029972238	-3.243900E+01	  0.029972238	2.944000E+00	  0.029972238	1.028300E+01
104	  0.030168043	-4.602000E+00	  0.030168043	-3.266500E+01	  0.030168043	2.923000E+00	  0.030168043	1.030400E+01
105	  0.030363850	-4.607000E+00	  0.030363850	-3.292500E+01	  0.030363850	3.025000E+00	  0.030363850	1.051400E+01
106	  0.030559655	-4.609000E+00	  0.030559655	-3.317500E+01	  0.030559655	3.007000E+00	  0.030559655	1.054100E+01
107	  0.030755464	-4.605000E+00	  0.030755464	-3.342400E+01	  0.030755464	2.982000E+00	  0.030755464	1.057000E+01
108	  0.030951269	-4.606000E+00	  0.030951269	-3.368200E+01	  0.030951269	2.959000E+00	  0.030951269	1.059700E+01
109	  0.031147076	-4.599000E+00	  0.031147076	-3.391100E+01	  0.031147076	2.637000E+00	  0.031147076	1.060500E+01
110	  0.031342883	-4.596000E+00	  0.031342883	-3.414200E+01	  0.031342883	2.744000E+00	  0.031342883	1.081700E+01
111	  0.031538688	-4.595000E+00	  0.031538688	-3.439100E+01	  0.031538688	2.733000E+00	  0.031538688	1.084000E+01
112	  0.031734493	-4.596000E+00	  0.031734493	-3.461100E+01	  0.031734493	2.719000E+00	  0.031734493	1.086300E+01
113	  0.031930301	-4.587000E+00	  0.031930301	-3.481000E+01	  0.031930301	2.705000E+00	  0.031930301	1.089000E+01
114	  0.032126106	-4.583000E+00	  0.032126106	-3.501200E+01	  0.032126106	2.692000E+00	  0.032126106	1.091300E+01
115	  0.032321911	-4.573000E+00	  0.032321911	-3.521400E+01	  0.032321911	2.804000E+00	  0.032321911	1.112300E+01
116	  0.032517716	-4.570000E+00	  0.032517716	-3.541300E+01	  0.032517716	2.788000E+00	  0.032517716	1.114800E+01
117	  0.032713525	-4.566000E+00	  0.032713525	-3.558700E+01	  0.032713525	2.776000E+00	  0.032713525	1.118000E+01
118	  0.032909330	-4.563000E+00	  0.032909330	-3.578300E+01	  0.032909330	2.759000E+00	  0.032909330	1.120200E+01
119	  0.033105139	-4.563000E+00	  0.033105139	-3.596500E+01	  0.033105139	2.746000E+00	  0.033105139	1.123000E+01
120	  0.033300944	-4.563000E+00	  0.033300944	-3.615600E+01	  0.033300944	2.850000E+00	  0.033300944	1.144500E+01
121	  0.033496749	-4.568000E+00	  0.033496749	-3.633500E+01	  0.033496749	2.829000E+00	  0.033496749	1.146700E+01
122	  0.033692554	-4.570000E+00	  0.033692554	-3.654400E+01	  0.033692554	2.814000E+00	  0.033692554	1.149200E+01
123	  0.033888362	-4.569000E+00	  0.033888362	-3.676400E+01	  0.033888362	2.792000E+00	  0.033888362	1.151900E+01
124	  0.034084171	-4.575000E+00	  0.034084171	-3.695300E+01	  0.034084171	2.771000E+00	  0.034084171	1.154500E+01
125	  0.034279976	-4.577000E+00	  0.034279976	-3.717000E+01	  0.034279976	2.874000E+00	  0.034279976	1.175200E+01
126	  0.034475781	-4.581000E+00	  0.034475781	-3.736600E+01	  0.034475781	2.849000E+00	  0.034475781	1.177900E+01
127	  0.034671586	-4.584000E+00	  0.034671586	-3.759800E+01	  0.034671586	2.827000E+00	  0.034671586	1.180700E+01
128	  0.034867391	-4.590000E+00	  0.034867391	-3.784400E+01	  0.034867391	2.807000E+00	  0.034867391	1.182900E+01
129	  0.035063203	-4.592000E+00	  0.035063203	-3.807000E+01	  0.035063203	2.784000E+00	  0.035063203	1.185200E+01
130	  0.035259008	-4.595000E+00	  0.035259008	-3.828600E+01	  0.035259008	2.758000E+00	  0.035259008	1.187600E+01
131	  0.035454813	-4.597000E+00	  0.035454813	-3.851300E+01	  0.035454813	2.856000E+00	  0.035454813	1.209300E+01
132	  0.035650618	-4.597000E+00	  0.035650618	-3.872500E+01	  0.035650618	2.831000E+00	  0.035650618	1.211600E+01
133	  0.035846427	-4.595000E+00	  0.035846427	-3.893600E+01	  0.035846427	2.807000E+00	  0.035846427	1.215000E+01
134	  0.036042232	-4.593000E+00	  0.036042232	-3.916300E+01	  0.036042232	2.775000E+00	  0.036042232	1.217600E+01
135	  0.036238037	-4.590000E+00	  0.036238037	-3.941700E+01	  0.036238037	2.749000E+00	  0.036238037	1.220500E+01
136	  0.036433842	-4.587000E+00	  0.036433842	-3.962100E+01	  0.036433842	2.846000E+00	  0.036433842	1.242400E+01
137	  0.036629651	-4.582000E+00	  0.036629651	-3.982100E+01	  0.036629651	2.821000E+00	  0.036629651	1.245200E+01
138	  0.036825456	-4.581000E+00	  0.036825456	-3.999500E+01	  0.036825456	2.792000E+00	  0.036825456	1.248000E+01
139	  0.037021261	-4.577000E+00	  0.037021261	-4.015600E+01	  0.037021261	2.760000E+00	  0.037021261	1.251300E+01
140	  0.037217066	-4.580000E+00	  0.037217066	-4.032300E+01	  0.037217066	2.728000E+00	  0.037217066	1.254300E+01
141	  0.037412878	-4.584000E+00	  0.037412878	-4.051200E+01	  0.037412878	2.822000E+00	  0.037412878	1.276000E+01
142	  0.037608683	-4.586000E+00	  0.037608683	-4.071300E+01	  0.037608683	2.797000E+00	  0.037608683	1.279100E+01
143	  0.037804488	-4.598000E+00	  0.037804488	-4.092200E+01	  0.037804488	2.773000E+00	  0.037804488	1.281600E+01
144	  0.038000293	-4.606000E+00	  0.038000293	-4.114600E+01	  0.038000293	2.743000E+00	  0.038000293	1.284000E+01
145	  0.038196102	-4.613000E+00	  0.038196102	-4.140800E+01	  0.038196102	2.715000E+00	  0.038196102	1.286800E+01
146	  0.038391907	-4.617000E+00	  0.038391907	-4.163600E+01	  0.038391907	2.822000E+00	  0.038391907	1.308300E+01
147	  0.038587712	-4.621000E+00	  0.038587712	-4.189200E+01	  0.038587712	2.788000E+00	  0.038587712	1.311400E+01
148	  0.038783520	-4.621000E+00	  0.038783520	-4.212500E+01	  0.038783520	2.760000E+00	  0.038783520	1.314600E+01
149	  0.038979325	-4.625000E+00	  0.038979325	-4.234800E+01	  0.038979325	2.736000E+00	  0.038979325	1.318000E+01
150	  0.039175130	-4.621000E+00	  0.039175130	-4.261500E+01	  0.039175130	2.713000E+00	  0.039175130	1.321200E+01
151	  0.039370935	-4.616000E+00	  0.039370935	-4.284900E+01	  0.039370935	2.818000E+00	  0.039370935	1.343300E+01
152	  0.039566744	-4.613000E+00	  0.039566744	-4.307500E+01	  0.039566744	2.796000E+00	  0.039566744	1.346300E+01
153	  0.039762549	-4.610000E+00	  0.039762549	-4.330200E+01	  0.039762549	2.771000E+00	  0.039762549	1.349600E+01
154	  0.039958358	-4.603000E+00	  0.039958358	-4.350500E+01	  0.039958358	2.747000E+00	  0.039958358	1.352600E+01
155	  0.040154163	-4.604000E+00	  0.040154163	-4.367900E+01	  0.040154163	2.730000E+00	  0.040154163	1.355500E+01
156	  0.040349972	-4.593000E+00	  0.040349972	-4.388000E+01	  0.040349972	2.837000E+00	  0.040349972	1.377100E+01
157	  0.040545776	-4.598000E+00	  0.040545776	-4.406200E+01	  0.040545776	2.817000E+00	  0.040545776	1.380500E+01
158	  0.040741581	-4.599000E+00	  0.040741581	-4.425000E+01	  0.040741581	2.792000E+00	  0.040741581	1.383000E+01
159	  0.040937386	-4.603000E+00	  0.040937386	-4.443700E+01	  0.040937386	2.763000E+00	  0.040937386	1.386200E+01
160	  0.041133195	-4.606000E+00	  0.041133195	-4.464400E+01	  0.041133195	2.742000E+00	  0.041133195	1.389100E+01
161	  0.041329000	-4.614000E+00	  0.041329000	-4.488700E+01	  0.041329000	2.855000E+00	  0.041329000	1.411100E+01
162	  0.041524805	-4.615000E+00	  0.041524805	-4.511400E+01	  0.041524805	2.831000E+00	  0.041524805	1.414000E+01
163	  0.041720610	-4.620000E+00	  0.041720610	-4.532000E+01	  0.041720610	2.805000E+00	  0.041720610	1.417300E+01
164	  0.041916419	-4.621000E+00	  0.041916419	-4.557100E+01	  0.041916419	2.784000E+00	  0.041916419	1.420000E+01
165	  0.042112224	-4.626000E+00	  0.042112224	-4.578300E+01	  0.042112224	2.770000E+00	  0.042112224	1.423100E+01
166	  0.042308029	-4.626000E+00	  0.042308029	-4.599300E+01	  0.042308029	2.745000E+00	  0.042308029	1.425500E+01
167	  0.042503837	-4.626000E+00	  0.042503837	-4.622000E+01	  0.042503837	2.859000E+00	  0.042503837	1.447600E+01
168	  0.042699646	-4.629000E+00	  0.042699646	-4.644300E+01	  0.042699646	2.837000E+00	  0.042699646	1.450200E+01
169	  0.042895451	-4.628000E+00	  0.042895451	-4.666500E+01	  0.042895451	2.817000E+00	  0.042895451	1.452900E+01
170	  0.043091256	-4.627000E+00	  0.043091256	-4.690700E+01	  0.043091256	2.797000E+00	  0.043091256	1.455300E+01
171	  0.043287061	-4.624000E+00	  0.043287061	-4.717300E+01	  0.043287061	2.779000E+00	  0.043287061	1.457900E+01
172	  0.043482870	-4.620000E+00	  0.043482870	-4.739000E+01	  0.043482870	2.893000E+00	  0.043482870	1.479500E+01
173	  0.043678675	-4.620000E+00	  0.043678675	-4.763300E+01	  0.043678675	2.872000E+00	  0.043678675	1.482300E+01
174	  0.043874480	-4.615000E+00	  0.043874480	-4.784500E+01	  0.043874480	2.852000E+00	  0.043874480	1.484500E+01
175	  0.044070289	-4.610000E+00	  0.044070289	-4.804800E+01	  0.044070289	2.835000E+00	  0.044070289	1.487000E+01
176	  0.044266094	-4.609000E+00	  0.044266094	-4.822100E+01	  0.044266094	2.812000E+00	  0.044266094	1.489200E+01
177	  0.044461899	-4.611000E+00	  0.044461899	-4.840200E+01	  0.044461899	2.907000E+00	  0.044461899	1.510900E+01
178	  0.044657703	-4.612000E+00	  0.044657703	-4.856200E+01	  0.044657703	2.891000E+00	  0.044657703	1.514100E+01
179	  0.044853516	-4.616000E+00	  0.044853516	-4.876900E+01	  0.044853516	2.873000E+00	  0.044853516	1.516400E+01
180	  0.045049321	-4.622000E+00	  0.045049321	-4.896000E+01	  0.045049321	2.855000E+00	  0.045049321	1.518800E+01
181	  0.045245126	-4.627000E+00	  0.045245126	-4.916800E+01	  0.045245126	2.836000E+00	  0.045245126	1.521100E+01
182	  0.045440931	-4.636000E+00	  0.045440931	-4.941200E+01	  0.045440931	2.949000E+00	  0.045440931	1.542900E+01
183	  0.045636740	-4.640000E+00	  0.045636740	-4.961700E+01	  0.045636740	2.929000E+00	  0.045636740	1.545500E+01
184	  0.045832545	-4.642000E+00	  0.045832545	-4.985100E+01	  0.045832545	2.913000E+00	  0.045832545	1.548300E+01
185	  0.046028350	-4.643000E+00	  0.046028350	-5.009800E+01	  0.046028350	2.895000E+00	  0.046028350	1.550700E+01
186	  0.046224155	-4.643000E+00	  0.046224155	-5.033900E+01	  0.046224155	2.876000E+00	  0.046224155	1.553000E+01
187	  0.046419963	-4.645000E+00	  0.046419963	-5.057400E+01	  0.046419963	2.986000E+00	  0.046419963	1.575000E+01
188	  0.046615768	-4.640000E+00	  0.046615768	-5.081500E+01	  0.046615768	2.968000E+00	  0.046615768	1.577700E+01
189	  0.046811573	-4.631000E+00	  0.046811573	-5.105700E+01	  0.046811573	2.947000E+00	  0.046811573	1.580000E+01
190	  0.047007378	-4.631000E+00	  0.047007378	-5.128700E+01	  0.047007378	2.944000E+00	  0.047007378	1.581900E+01
191	  0.047203191	-4.629000E+00	  0.047203191	-5.148800E+01	  0.047203191	2.924000E+00	  0.047203191	1.584500E+01
192	  0.047398996	-4.620000E+00	  0.047398996	-5.167600E+01	  0.047398996	3.043000E+00	  0.047398996	1.606100E+01
193	  0.047594801	-4.623000E+00	  0.047594801	-5.185700E+01	  0.047594801	3.023000E+00	  0.047594801	1.607900E+01
194	  0.047790606	-4.626000E+00	  0.047790606	-5.205400E+01	  0.047790606	3.007000E+00	  0.047790606	1.610400E+01
195	  0.047986414	-4.628000E+00	  0.047986414	-5.222800E+01	  0.047986414	2.993000E+00	  0.047986414	1.612600E+01
196	  0.048182219	-4.631000E+00	  0.048182219	-5.243200E+01	  0.048182219	2.975000E+00	  0.048182219	1.614700E+01
197	  0.048378024	-4.636000E+00	  0.048378024	-5.265900E+01	  0.048378024	2.961000E+00	  0.048378024	1.616500E+01
198	  0.048573833	-4.641000E+00	  0.048573833	-5.286300E+01	  0.048573833	3.080000E+00	  0.048573833	1.638100E+01
199	  0.048769638	-4.642000E+00	  0.048769638	-5.308200E+01	  0.048769638	3.062000E+00	  0.048769638	1.640400E+01
200	  0.048965443	-4.644000E+00	  0.048965443	-5.331300E+01	  0.048965443	3.045000E+00	  0.048965443	1.642400E+01
201	  0.049161248	-4.646000E+00	  0.049161248	-5.350900E+01	  0.049161248	3.031000E+00	  0.049161248	1.644400E+01
202	  0.049357057	-4.649000E+00	  0.049357057	-5.372000E+01	  0.049357057	3.014000E+00	  0.049357057	1.646100E+01
203	  0.049552862	-4.651000E+00	  0.049552862	-5.390900E+01	  0.049552862	3.134000E+00	  0.049552862	1.667700E+01
204	  0.049748670	-4.650000E+00	  0.049748670	-5.414900E+01	  0.049748670	3.117000E+00	  0.049748670	1.669700E+01
205	  0.049944475	-4.652000E+00	  0.049944475	-5.437600E+01	  0.049944475	3.101000E+00	  0.049944475	1.672500E+01
206	  0.050140284	-4.654000E+00	  0.050140284	-5.464400E+01	  0.050140284	3.087000E+00	  0.050140284	1.674200E+01
207	  0.050336089	-4.652000E+00	  0.050336089	-5.488100E+01	  0.050336089	3.056000E+00	  0.050336089	1.676300E+01
208	  0.050531894	-4.650000E+00	  0.050531894	-5.513000E+01	  0.050531894	3.177000E+00	  0.050531894	1.697900E+01
209	  0.050727699	-4.647000E+00	  0.050727699	-5.535200E+01	  0.050727699	3.157000E+00	  0.050727699	1.699900E+01
210	  0.050923508	-4.646000E+00	  0.050923508	-5.558000E+01	  0.050923508	3.139000E+00	  0.050923508	1.702000E+01
211	  0.051119313	-4.646000E+00	  0.051119313	-5.578500E+01	  0.051119313	3.129000E+00	  0.051119313	1.703600E+01
212	  0.051315118	-4.642000E+00	  0.051315118	-5.598000E+01	  0.051315118	3.111000E+00	  0.051315118	1.705500E+01
213	  0.051510923	-4.643000E+00	  0.051510923	-5.615700E+01	  0.051510923	3.234000E+00	  0.051510923	1.726900E+01
214	  0.051706731	-4.644000E+00	  0.051706731	-5.633100E+01	  0.051706731	3.219000E+00	  0.051706731	1.728400E+01
215	  0.051902536	-4.647000E+00	  0.051902536	-5.656400E+01	  0.051902536	3.209000E+00	  0.051902536	1.730000E+01
216	  0.052098341	-4.652000E+00	  0.052098341	-5.674100E+01	  0.052098341	3.191000E+00	  0.052098341	1.731500E+01
217	  0.052294150	-4.654000E+00	  0.052294150	-5.696600E+01	  0.052294150	3.178000E+00	  0.052294150	1.733000E+01
218	  0.052489959	-4.659000E+00	  0.052489959	-5.717700E+01	  0.052489959	3.304000E+00	  0.052489959	1.753400E+01
219	  0.052685764	-4.665000E+00	  0.052685764	-5.739200E+01	  0.052685764	3.287000E+00	  0.052685764	1.755300E+01
220	  0.052881569	-4.670000E+00	  0.052881569	-5.762600E+01	  0.052881569	3.274000E+00	  0.052881569	1.756200E+01
221	  0.053077377	-4.671000E+00	  0.053077377	-5.784900E+01	  0.053077377	3.259000E+00	  0.053077377	1.757400E+01
222	  0.053273182	-4.673000E+00	  0.053273182	-5.810300E+01	  0.053273182	3.245000E+00	  0.053273182	1.758800E+01
223	  0.053468987	-4.675000E+00	  0.053468987	-5.836100E+01	  0.053468987	3.375000E+00	  0.053468987	1.779300E+01
224	  0.053664792	-4.675000E+00	  0.053664792	-5.862100E+01	  0.053664792	3.357000E+00	  0.053664792	1.780600E+01
225	  0.053860601	-4.672000E+00	  0.053860601	-5.888100E+01	  0.053860601	3.338000E+00	  0.053860601	1.782000E+01
226	  0.054056406	-4.671000E+00	  0.054056406	-5.908500E+01	  0.054056406	3.327000E+00	  0.054056406	1.782900E+01
227	  0.054252211	-4.669000E+00	  0.054252211	-5.932800E+01	  0.054252211	3.313000E+00	  0.054252211	1.784300E+01
228	  0.054448016	-4.666000E+00	  0.054448016	-5.955200E+01	  0.054448016	3.301000E+00	  0.054448016	1.785300E+01
229	  0.054643828	-4.663000E+00	  0.054643828	-5.978300E+01	  0.054643828	3.422000E+00	  0.054643828	1.805900E+01
230	  0.054839633	-4.662000E+00	  0.054839633	-5.998600E+01	  0.054839633	3.406000E+00	  0.054839633	1.807300E+01
231	  0.055035438	-4.664000E+00	  0.055035438	-6.019300E+01	  0.055035438	3.389000E+00	  0.055035438	1.808200E+01
232	  0.055231243	-4.667000E+00	  0.055231243	-6.040000E+01	  0.055231243	3.378000E+00	  0.055231243	1.809100E+01
233	  0.055427052	-4.665000E+00	  0.055427052	-6.060900E+01	  0.055427052	3.360000E+00	  0.055427052	1.810100E+01
234	  0.055622857	-4.667000E+00	  0.055622857	-6.085900E+01	  0.055622857	3.485000E+00	  0.055622857	1.830900E+01
235	  0.055818662	-4.667000E+00	  0.055818662	-6.106000E+01	  0.055818662	3.470000E+00	  0.055818662	1.831600E+01
236	  0.056014467	-4.670000E+00	  0.056014467	-6.126100E+01	  0.056014467	3.459000E+00	  0.056014467	1.832700E+01
237	  0.056210276	-4.674000E+00	  0.056210276	-6.147400E+01	  0.056210276	3.445000E+00	  0.056210276	1.833300E+01
238	  0.056406081	-4.673000E+00	  0.056406081	-6.167800E+01	  0.056406081	3.429000E+00	  0.056406081	1.833700E+01
239	  0.056601886	-4.674000E+00	  0.056601886	-6.189600E+01	  0.056601886	3.560000E+00	  0.056601886	1.854100E+01
240	  0.056797691	-4.674000E+00	  0.056797691	-6.212300E+01	  0.056797691	3.542000E+00	  0.056797691	1.855000E+01
241	  0.056993503	-4.678000E+00	  0.056993503	-6.238600E+01	  0.056993503	3.530000E+00	  0.056993503	1.855700E+01
242	  0.057189308	-4.678000E+00	  0.057189308	-6.259800E+01	  0.057189308	3.518000E+00	  0.057189308	1.855900E+01
243	  0.057385113	-4.675000E+00	  0.057385113	-6.286500E+01	  0.057385113	3.504000E+00	  0.057385113	1.856800E+01
244	  0.057580918	-4.672000E+00	  0.057580918	-6.307200E+01	  0.057580918	3.629000E+00	  0.057580918	1.877200E+01
245	  0.057776727	-4.673000E+00	  0.057776727	-6.331800E+01	  0.057776727	3.616000E+00	  0.057776727	1.877500E+01
246	  0.057972532	-4.671000E+00	  0.057972532	-6.352600E+01	  0.057972532	3.602000E+00	  0.057972532	1.878400E+01
247	  0.058168337	-4.666000E+00	  0.058168337	-6.371500E+01	  0.058168337	3.590000E+00	  0.058168337	1.878900E+01
248	  0.058364145	-4.666000E+00	  0.058364145	-6.394100E+01	  0.058364145	3.573000E+00	  0.058364145	1.879200E+01
249	  0.058559950	-4.663000E+00	  0.058559950	-6.411900E+01	  0.058559950	3.701000E+00	  0.058559950	1.900000E+01
250	  0.058755755	-4.661000E+00	  0.058755755	-6.434900E+01	  0.058755755	3.683000E+00	  0.058755755	1.901200E+01
251	  0.058951560	-4.660000E+00	  0.058951560	-6.453700E+01	  0.058951560	3.666000E+00	  0.058951560	1.901900E+01
252	  0.059147369	-4.665000E+00	  0.059147369	-6.470600E+01	  0.059147369	3.651000E+00	  0.059147369	1.903100E+01
253	  0.059343174	-4.667000E+00	  0.059343174	-6.489700E+01	  0.059343174	3.633000E+00	  0.059343174	1.904100E+01
254	  0.059538983	-4.669000E+00	  0.059538983	-6.509600E+01	  0.059538983	3.756000E+00	  0.059538983	1.924800E+01
255	  0.059734788	-4.667000E+00	  0.059734788	-6.528300E+01	  0.059734788	3.736000E+00	  0.059734788	1.926200E+01
256	  0.059930597	-4.671000E+00	  0.059930597	-6.550700E+01	  0.059930597	3.719000E+00	  0.059930597	1.927800E+01
257	  0.060126401	-4.674000E+00	  0.060126401	-6.570400E+01	  0.060126401	3.699000E+00	  0.060126401	1.929200E+01
258	  0.060322206	-4.677000E+00	  0.060322206	-6.595200E+01	  0.060322206	3.680000E+00	  0.060322206	1.931200E+01
259	  0.060518011	-4.680000E+00	  0.060518011	-6.617900E+01	  0.060518011	3.653000E+00	  0.060518011	1.933100E+01
260	  0.060713820	-4.686000E+00	  0.060713820	-6.642000E+01	  0.060713820	3.776000E+00	  0.060713820	1.954900E+01
261	  0.060909625	-4.681000E+00	  0.060909625	-6.663200E+01	  0.060909625	3.749000E+00	  0.060909625	1.957200E+01
262	  0.061105430	-4.684000E+00	  0.061105430	-6.686100E+01	  0.061105430	3.725000E+00	  0.061105430	1.959700E+01
263	  0.061301235	-4.683000E+00	  0.061301235	-6.710300E+01	  0.061301235	3.702000E+00	  0.061301235	1.962000E+01
264	  0.061497044	-4.675000E+00	  0.061497044	-6.730500E+01	  0.061497044	3.690000E+00	  0.061497044	1.964000E+01
265	  0.061692849	-4.683000E+00	  0.061692849	-6.749100E+01	  0.061692849	3.807000E+00	  0.061692849	1.986600E+01
266	  0.061888654	-4.679000E+00	  0.061888654	-6.769100E+01	  0.061888654	3.782000E+00	  0.061888654	1.988900E+01
267	  0.062084462	-4.677000E+00	  0.062084462	-6.793000E+01	  0.062084462	3.756000E+00	  0.062084462	1.991200E+01
268	  0.062280271	-4.683000E+00	  0.062280271	-6.811200E+01	  0.062280271	3.734000E+00	  0.062280271	1.993700E+01
269	  0.062476076	-4.673000E+00	  0.062476076	-6.827800E+01	  0.062476076	3.624000E+00	  0.062476076	1.986400E+01
270	  0.062671877	-4.680000E+00	  0.062671877	-6.845400E+01	  0.062671877	3.745000E+00	  0.062671877	2.009600E+01
271	  0.062867686	-4.674000E+00	  0.062867686	-6.867900E+01	  0.062867686	3.729000E+00	  0.062867686	2.011900E+01
272	  0.063063495	-4.675000E+00	  0.063063495	-6.890100E+01	  0.063063495	3.713000E+00	  0.063063495	2.014000E+01
273	  0.063259304	-4.677000E+00	  0.063259304	-6.912200E+01	  0.063259304	3.691000E+00	  0.063259304	2.016900E+01
274	  0.063455105	-4.681000E+00	  0.063455105	-6.933900E+01	  0.063455105	3.676000E+00	  0.063455105	2.019400E+01
275	  0.063650914	-4.683000E+00	  0.063650914	-6.953400E+01	  0.063650914	3.792000E+00	  0.063650914	2.041300E+01
276	  0.063846722	-4.691000E+00	  0.063846722	-6.976200E+01	  0.063846722	3.770000E+00	  0.063846722	2.043800E+01
277	  0.064042524	-4.690000E+00	  0.064042524	-6.997900E+01	  0.064042524	3.749000E+00	  0.064042524	2.046700E+01
278	  0.064238332	-4.697000E+00	  0.064238332	-7.019400E+01	  0.064238332	3.725000E+00	  0.064238332	2.049700E+01
279	  0.064434141	-4.698000E+00	  0.064434141	-7.044600E+01	  0.064434141	3.705000E+00	  0.064434141	2.052200E+01
280	  0.064629942	-4.697000E+00	  0.064629942	-7.067000E+01	  0.064629942	3.832000E+00	  0.064629942	2.075500E+01
281	  0.064825751	-4.700000E+00	  0.064825751	-7.091700E+01	  0.064825751	3.805000E+00	  0.064825751	2.078500E+01
282	  0.065021552	-4.696000E+00	  0.065021552	-7.113300E+01	  0.065021552	3.783000E+00	  0.065021552	2.081700E+01
283	  0.065217361	-4.690000E+00	  0.065217361	-7.136300E+01	  0.065217361	3.761000E+00	  0.065217361	2.084100E+01
284	  0.065413170	-4.692000E+00	  0.065413170	-7.162400E+01	  0.065413170	3.739000E+00	  0.065413170	2.087500E+01
285	  0.065608978	-4.691000E+00	  0.065608978	-7.183200E+01	  0.065608978	3.857000E+00	  0.065608978	2.110700E+01
286	  0.065804780	-4.689000E+00	  0.065804780	-7.204100E+01	  0.065804780	3.844000E+00	  0.065804780	2.113800E+01
287	  0.066000588	-4.682000E+00	  0.066000588	-7.221400E+01	  0.066000588	3.819000E+00	  0.066000588	2.116900E+01
288	  0.066196397	-4.695000E+00	  0.066196397	-7.244300E+01	  0.066196397	3.798000E+00	  0.066196397	2.120200E+01
289	  0.066392198	-4.684000E+00	  0.066392198	-7.259800E+01	  0.066392198	3.779000E+00	  0.066392198	2.122300E+01
290	  0.066588007	-4.694000E+00	  0.066588007	-7.282700E+01	  0.066588007	3.901000E+00	  0.066588007	2.146600E+01
291	  0.066783816	-4.691000E+00	  0.066783816	-7.302700E+01	  0.066783816	3.875000E+00	  0.066783816	2.149500E+01
292	  0.066979617	-4.693000E+00	  0.066979617	-7.325500E+01	  0.066979617	3.858000E+00	  0.066979617	2.151800E+01
293	  0.067175426	-4.698000E+00	  0.067175426	-7.345900E+01	  0.067175426	3.834000E+00	  0.067175426	2.155200E+01
294	  0.067371234	-4.706000E+00	  0.067371234	-7.369700E+01	  0.067371234	3.807000E+00	  0.067371234	2.158000E+01
295	  0.067567036	-4.703000E+00	  0.067567036	-7.391000E+01	  0.067567036	3.794000E+00	  0.067567036	2.160500E+01
296	  0.067762844	-4.706000E+00	  0.067762844	-7.412000E+01	  0.067762844	3.911000E+00	  0.067762844	2.184200E+01
297	  0.067958646	-4.708000E+00	  0.067958646	-7.437200E+01	  0.067958646	3.890000E+00	  0.067958646	2.187300E+01
298	  0.068154462	-4.708000E+00	  0.068154462	-7.460800E+01	  0.068154462	3.870000E+00	  0.068154462	2.189600E+01
299	  0.068350263	-4.707000E+00	  0.068350263	-7.481900E+01	  0.068350263	3.845000E+00	  0.068350263	2.192800E+01
300	  0.068546072	-4.705000E+00	  0.068546072	-7.505300E+01	  0.068546072	3.828000E+00	  0.068546072	2.195400E+01
301	  0.068741873	-4.705000E+00	  0.068741873	-7.527700E+01	  0.068741873	3.955000E+00	  0.068741873	2.218500E+01
302	  0.068937682	-4.707000E+00	  0.068937682	-7.548100E+01	  0.068937682	3.928000E+00	  0.068937682	2.222500E+01
303	  0.069133483	-4.704000E+00	  0.069133483	-7.570900E+01	  0.069133483	3.911000E+00	  0.069133483	2.225000E+01
304	  0.069329299	-4.706000E+00	  0.069329299	-7.590300E+01	  0.069329299	3.885000E+00	  0.069329299	2.227000E+01
305	  0.069525100	-4.708000E+00	  0.069525100	-7.612000E+01	  0.069525100	3.865000E+00	  0.069525100	2.230200E+01
306	  0.069720909	-4.701000E+00	  0.069720909	-7.632000E+01	  0.069720909	3.992000E+00	  0.069720909	2.253600E+01
307	  0.069916710	-4.705000E+00	  0.069916710	-7.652000E+01	  0.069916710	3.963000E+00	  0.069916710	2.256400E+01
308	  0.070112519	-4.699000E+00	  0.070112519	-7.671800E+01	  0.070112519	3.939000E+00	  0.070112519	2.259400E+01
309	  0.070308320	-4.699000E+00	  0.070308320	-7.693300E+01	  0.070308320	3.917000E+00	  0.070308320	2.262100E+01
310	  0.070504129	-4.699000E+00	  0.070504129	-7.709600E+01	  0.070504129	3.893000E+00	  0.070504129	2.265500E+01
311	  0.070699938	-4.700000E+00	  0.070699938	-7.735400E+01	  0.070699938	4.022000E+00	  0.070699938	2.288900E+01
312	  0.070895746	-4.705000E+00	  0.070895746	-7.755500E+01	  0.070895746	3.999000E+00	  0.070895746	2.292100E+01
313	  0.071091555	-4.706000E+00	  0.071091555	-7.776500E+01	  0.071091555	3.972000E+00	  0.071091555	2.295600E+01
314	  0.071287356	-4.707000E+00	  0.071287356	-7.798000E+01	  0.071287356	3.947000E+00	  0.071287356	2.298200E+01
315	  0.071483165	-4.709000E+00	  0.071483165	-7.817500E+01	  0.071483165	3.922000E+00	  0.071483165	2.301300E+01
316	  0.071678966	-4.708000E+00	  0.071678966	-7.840000E+01	  0.071678966	4.045000E+00	  0.071678966	2.325700E+01
317	  0.071874775	-4.711000E+00	  0.071874775	-7.861800E+01	  0.071874775	4.023000E+00	  0.071874775	2.328900E+01
318	  0.072070576	-4.711000E+00	  0.072070576	-7.879200E+01	  0.072070576	3.996000E+00	  0.072070576	2.332400E+01
319	  0.072266392	-4.714000E+00	  0.072266392	-7.907500E+01	  0.072266392	3.968000E+00	  0.072266392	2.336200E+01
320	  0.072462194	-4.709000E+00	  0.072462194	-7.927000E+01	  0.072462194	3.897000E+00	  0.072462194	2.339600E+01
321	  0.072658002	-4.709000E+00	  0.072658002	-7.954300E+01	  0.072658002	4.017000E+00	  0.072658002	2.364100E+01
322	  0.072853811	-4.708000E+00	  0.072853811	-7.972400E+01	  0.072853811	3.987000E+00	  0.072853811	2.367400E+01
323	  0.073049612	-4.710000E+00	  0.073049612	-7.989900E+01	  0.073049612	3.959000E+00	  0.073049612	2.371300E+01
324	  0.073245421	-4.709000E+00	  0.073245421	-8.008600E+01	  0.073245421	3.934000E+00	  0.073245421	2.374600E+01
325	  0.073441222	-4.706000E+00	  0.073441222	-8.031600E+01	  0.073441222	3.907000E+00	  0.073441222	2.378200E+01
326	  0.073637031	-4.705000E+00	  0.073637031	-8.048200E+01	  0.073637031	3.873000E+00	  0.073637031	2.381800E+01
327	  0.073832840	-4.707000E+00	  0.073832840	-8.072600E+01	  0.073832840	3.997000E+00	  0.073832840	2.406300E+01
328	  0.074028648	-4.708000E+00	  0.074028648	-8.093100E+01	  0.074028648	3.965000E+00	  0.074028648	2.410300E+01
329	  0.074224450	-4.712000E+00	  0.074224450	-8.110500E+01	  0.074224450	3.933000E+00	  0.074224450	2.414000E+01
330	  0.074420258	-4.714000E+00	  0.074420258	-8.131500E+01	  0.074420258	3.902000E+00	  0.074420258	2.417000E+01
331	  0.074616060	-4.712000E+00	  0.074616060	-8.153800E+01	  0.074616060	3.868000E+00	  0.074616060	2.420900E+01
332	  0.074811868	-4.720000E+00	  0.074811868	-8.178800E+01	  0.074811868	3.986000E+00	  0.074811868	2.445900E+01
333	  0.075007670	-4.723000E+00	  0.075007670	-8.201400E+01	  0.075007670	3.957000E+00	  0.075007670	2.449900E+01
334	  0.075203478	-4.725000E+00	  0.075203478	-8.224100E+01	  0.075203478	3.923000E+00	  0.075203478	2.453300E+01
335	  0.075399294	-4.727000E+00	  0.075399294	-8.245000E+01	  0.075399294	3.902000E+00	  0.075399294	2.455900E+01
336	  0.075595096	-4.729000E+00	  0.075595096	-8.270700E+01	  0.075595096	3.878000E+00	  0.075595096	2.459200E+01
337	  0.075790904	-4.730000E+00	  0.075790904	-8.290300E+01	  0.075790904	4.005000E+00	  0.075790904	2.483600E+01
338	  0.075986706	-4.735000E+00	  0.075986706	-8.314100E+01	  0.075986706	3.975000E+00	  0.075986706	2.487300E+01
339	  0.076182514	-4.730000E+00	  0.076182514	-8.336900E+01	  0.076182514	3.948000E+00	  0.076182514	2.490400E+01
340	  0.076378316	-4.736000E+00	  0.076378316	-8.361300E+01	  0.076378316	3.918000E+00	  0.076378316	2.494000E+01
341	  0.076574124	-4.729000E+00	  0.076574124	-8.382600E+01	  0.076574124	3.888000E+00	  0.076574124	2.497200E+01
342	  0.076769926	-4.731000E+00	  0.076769926	-8.402600E+01	  0.076769926	4.019000E+00	  0.076769926	2.522100E+01
343	  0.076965742	-4.725000E+00	  0.076965742	-8.423400E+01	  0.076965742	3.989000E+00	  0.076965742	2.525500E+01
344	  0.077161543	-4.724000E+00	  0.077161543	-8.445400E+01	  0.077161543	3.947000E+00	  0.077161543	2.529100E+01
345	  0.077357352	-4.726000E+00	  0.077357352	-8.467300E+01	  0.077357352	3.911000E+00	  0.077357352	2.533400E+01
346	  0.077553153	-4.728000E+00	  0.077553153	-8.487600E+01	  0.077553153	3.873000E+00	  0.077553153	2.536500E+01
347	  0.077748962	-4.723000E+00	  0.077748962	-8.509200E+01	  0.077748962	3.997000E+00	  0.077748962	2.561900E+01
348	  0.077944770	-4.726000E+00	  0.077944770	-8.529100E+01	  0.077944770	3.964000E+00	  0.077944770	2.566300E+01
349	  0.078140572	-4.727000E+00	  0.078140572	-8.552300E+01	  0.078140572	3.924000E+00	  0.078140572	2.570300E+01
350	  0.078336388	-4.731000E+00	  0.078336388	-8.572900E+01	  0.078336388	3.890000E+00	  0.078336388	2.573100E+01
351	  0.078532189	-4.733000E+00	  0.078532189	-8.591900E+01	  0.078532189	3.856000E+00	  0.078532189	2.577000E+01
352	  0.078727998	-4.732000E+00	  0.078727998	-8.614300E+01	  0.078727998	3.977000E+00	  0.078727998	2.602200E+01
353	  0.078923799	-4.732000E+00	  0.078923799	-8.634300E+01	  0.078923799	3.948000E+00	  0.078923799	2.605700E+01
354	  0.079119608	-4.733000E+00	  0.079119608	-8.656700E+01	  0.079119608	3.910000E+00	  0.079119608	2.609600E+01
355	  0.079315409	-4.732000E+00	  0.079315409	-8.680700E+01	  0.079315409	3.873000E+00	  0.079315409	2.613100E+01
356	  0.079511218	-4.733000E+00	  0.079511218	-8.699700E+01	  0.079511218	3.837000E+00	  0.079511218	2.616400E+01
357	  0.079707019	-4.732000E+00	  0.079707019	-8.720800E+01	  0.079707019	3.805000E+00	  0.079707019	2.620100E+01
358	  0.079902835	-4.733000E+00	  0.079902835	-8.745100E+01	  0.079902835	3.929000E+00	  0.079902835	2.646300E+01
359	  0.080098644	-4.731000E+00	  0.080098644	-8.765000E+01	  0.080098644	3.892000E+00	  0.080098644	2.648900E+01
360	  0.080294445	-4.733000E+00	  0.080294445	-8.785300E+01	  0.080294445	3.860000E+00	  0.080294445	2.652300E+01
361	  0.080490254	-4.731000E+00	  0.080490254	-8.807400E+01	  0.080490254	3.826000E+00	  0.080490254	2.655900E+01
362	  0.080686055	-4.732000E+00	  0.080686055	-8.823000E+01	  0.080686055	3.795000E+00	  0.080686055	2.659300E+01
363	  0.080881864	-4.731000E+00	  0.080881864	-8.844200E+01	  0.080881864	3.921000E+00	  0.080881864	2.684600E+01
364	  0.081077665	-4.730000E+00	  0.081077665	-8.866000E+01	  0.081077665	3.891000E+00	  0.081077665	2.688200E+01
365	  0.081273474	-4.738000E+00	  0.081273474	-8.885300E+01	  0.081273474	3.861000E+00	  0.081273474	2.691000E+01
366	  0.081469283	-4.740000E+00	  0.081469283	-8.908100E+01	  0.081469283	3.823000E+00	  0.081469283	2.694700E+01
367	  0.081665091	-4.739000E+00	  0.081665091	-8.928400E+01	  0.081665091	3.795000E+00	  0.081665091	2.698000E+01
368	  0.081860892	-4.748000E+00	  0.081860892	-8.950100E+01	  0.081860892	3.923000E+00	  0.081860892	2.723100E+01
369	  0.082056701	-4.751000E+00	  0.082056701	-8.974500E+01	  0.082056701	3.891000E+00	  0.082056701	2.726300E+01
370	  0.082252502	-4.757000E+00	  0.082252502	-8.994600E+01	  0.082252502	3.859000E+00	  0.082252502	2.730000E+01
371	  0.082448311	-4.757000E+00	  0.082448311	-9.018200E+01	  0.082448311	3.815000E+00	  0.082448311	2.733200E+01
372	  0.082644112	-4.768000E+00	  0.082644112	-9.042000E+01	  0.082644112	3.781000E+00	  0.082644112	2.736800E+01
373	  0.082839929	-4.768000E+00	  0.082839929	-9.065600E+01	  0.082839929	3.907000E+00	  0.082839929	2.762200E+01
374	  0.083035737	-4.771000E+00	  0.083035737	-9.090300E+01	  0.083035737	3.872000E+00	  0.083035737	2.765900E+01
375	  0.083231539	-4.772000E+00	  0.083231539	-9.113700E+01	  0.083231539	3.843000E+00	  0.083231539	2.768600E+01
376	  0.083427347	-4.770000E+00	  0.083427347	-9.137400E+01	  0.083427347	3.807000E+00	  0.083427347	2.772200E+01
377	  0.083623149	-4.772000E+00	  0.083623149	-9.162600E+01	  0.083623149	3.768000E+00	  0.083623149	2.775000E+01
378	  0.083818957	-4.763000E+00	  0.083818957	-9.184200E+01	  0.083818957	3.902000E+00	  0.083818957	2.801100E+01
379	  0.084014758	-4.767000E+00	  0.084014758	-9.206200E+01	  0.084014758	3.866000E+00	  0.084014758	2.804500E+01
380	  0.084210567	-4.767000E+00	  0.084210567	-9.229200E+01	  0.084210567	3.830000E+00	  0.084210567	2.807600E+01
381	  0.084406376	-4.768000E+00	  0.084406376	-9.253500E+01	  0.084406376	3.800000E+00	  0.084406376	2.810700E+01
382	  0.084602185	-4.765000E+00	  0.084602185	-9.274900E+01	  0.084602185	3.768000E+00	  0.084602185	2.813900E+01
383	  0.084797986	-4.767000E+00	  0.084797986	-9.298100E+01	  0.084797986	3.905000E+00	  0.084797986	2.839600E+01
384	  0.084993795	-4.766000E+00	  0.084993795	-9.319700E+01	  0.084993795	3.870000E+00	  0.084993795	2.842700E+01
385	  0.085189603	-4.768000E+00	  0.085189603	-9.339100E+01	  0.085189603	3.838000E+00	  0.085189603	2.845500E+01
386	  0.085385405	-4.767000E+00	  0.085385405	-9.365100E+01	  0.085385405	3.806000E+00	  0.085385405	2.848900E+01
387	  0.085581213	-4.769000E+00	  0.085581213	-9.385200E+01	  0.085581213	3.778000E+00	  0.085581213	2.851600E+01
388	  0.085777014	-4.768000E+00	  0.085777014	-9.407700E+01	  0.085777014	3.914000E+00	  0.085777014	2.877500E+01
389	  0.085972831	-4.776000E+00	  0.085972831	-9.429900E+01	  0.085972831	3.886000E+00	  0.085972831	2.880600E+01
390	  0.086168632	-4.781000E+00	  0.086168632	-9.452300E+01	  0.086168632	3.859000E+00	  0.086168632	2.883900E+01
391	  0.086364441	-4.779000E+00	  0.086364441	-9.478000E+01	  0.086364441	3.829000E+00	  0.086364441	2.886800E+01
392	  0.086560242	-4.784000E+00	  0.086560242	-9.499800E+01	  0.086560242	3.797000E+00	  0.086560242	2.889700E+01
393	  0.086756051	-4.781000E+00	  0.086756051	-9.528300E+01	  0.086756051	3.768000E+00	  0.086756051	2.892800E+01
394	  0.086951852	-4.782000E+00	  0.086951852	-9.548200E+01	  0.086951852	3.907000E+00	  0.086951852	2.918400E+01
395	  0.087147661	-4.781000E+00	  0.087147661	-9.571100E+01	  0.087147661	3.876000E+00	  0.087147661	2.921700E+01
396	  0.087343477	-4.776000E+00	  0.087343477	-9.594400E+01	  0.087343477	3.841000E+00	  0.087343477	2.924700E+01
397	  0.087539278	-4.780000E+00	  0.087539278	-9.615100E+01	  0.087539278	3.809000E+00	  0.087539278	2.927400E+01
398	  0.087735087	-4.776000E+00	  0.087735087	-9.636200E+01	  0.087735087	3.781000E+00	  0.087735087	2.930200E+01
399	  0.087930888	-4.777000E+00	  0.087930888	-9.661500E+01	  0.087930888	3.922000E+00	  0.087930888	2.956900E+01
400	  0.088126697	-4.777000E+00	  0.088126697	-9.683700E+01	  0.088126697	3.896000E+00	  0.088126697	2.959800E+01
401	  0.088322498	-4.777000E+00	  0.088322498	-9.706500E+01	  0.088322498	3.871000E+00	  0.088322498	2.962800E+01
402	  0.088518307	-4.779000E+00	  0.088518307	-9.727100E+01	  0.088518307	3.836000E+00	  0.088518307	2.965900E+01
403	  0.088714108	-4.786000E+00	  0.088714108	-9.748600E+01	  0.088714108	3.808000E+00	  0.088714108	2.968100E+01
404	  0.088909924	-4.781000E+00	  0.088909924	-9.772800E+01	  0.088909924	3.952000E+00	  0.088909924	2.994100E+01
405	  0.089105725	-4.786000E+00	  0.089105725	-9.792600E+01	  0.089105725	3.920000E+00	  0.089105725	2.997900E+01
406	  0.089301534	-4.788000E+00	  0.089301534	-9.816400E+01	  0.089301534	3.897000E+00	  0.089301534	3.000600E+01
407	  0.089497335	-4.792000E+00	  0.089497335	-9.840800E+01	  0.089497335	3.858000E+00	  0.089497335	3.003900E+01
408	  0.089693144	-4.790000E+00	  0.089693144	-9.865100E+01	  0.089693144	3.835000E+00	  0.089693144	3.006400E+01
409	  0.089888945	-4.796000E+00	  0.089888945	-9.884800E+01	  0.089888945	3.971000E+00	  0.089888945	3.033100E+01
410	  0.090084754	-4.796000E+00	  0.090084754	-9.912900E+01	  0.090084754	3.953000E+00	  0.090084754	3.035400E+01
411	  0.090280563	-4.798000E+00	  0.090280563	-9.934000E+01	  0.090280563	3.909000E+00	  0.090280563	3.039200E+01
412	  0.090476371	-4.796000E+00	  0.090476371	-9.960900E+01	  0.090476371	3.891000E+00	  0.090476371	3.041100E+01
413	  0.090672180	-4.801000E+00	  0.090672180	-9.983800E+01	  0.090672180	3.846000E+00	  0.090672180	3.044600E+01
414	  0.090867981	-4.795000E+00	  0.090867981	-1.000990E+02	  0.090867981	4.005000E+00	  0.090867981	3.070600E+01
415	  0.091063790	-4.798000E+00	  0.091063790	-1.003360E+02	  0.091063790	3.959000E+00	  0.091063790	3.073900E+01
416	  0.091259591	-4.795000E+00	  0.091259591	-1.005600E+02	  0.091259591	3.935000E+00	  0.091259591	3.077300E+01
417	  0.091455400	-4.795000E+00	  0.091455400	-1.007790E+02	  0.091455400	3.900000E+00	  0.091455400	3.080100E+01
418	  0.091651201	-4.791000E+00	  0.091651201	-1.010320E+02	  0.091651201	3.866000E+00	  0.091651201	3.083400E+01
419	  0.091847017	-4.790000E+00	  0.091847017	-1.012720E+02	  0.091847017	4.019000E+00	  0.091847017	3.109700E+01
420	  0.092042819	-4.793000E+00	  0.092042819	-1.015000E+02	  0.092042819	3.974000E+00	  0.092042819	3.113200E+01
421	  0.092238627	-4.792000E+00	  0.092238627	-1.016930E+02	  0.092238627	3.948000E+00	  0.092238627	3.115800E+01
422	  0.092434436	-4.794000E+00	  0.092434436	-1.019250E+02	  0.092434436	3.910000E+00	  0.092434436	3.119800E+01
423	  0.092630237	-4.793000E+00	  0.092630237	-1.021410E+02	  0.092630237	3.894000E+00	  0.092630237	3.121300E+01
424	  0.092826046	-4.795000E+00	  0.092826046	-1.023380E+02	  0.092826046	3.848000E+00	  0.092826046	3.125300E+01
425	  0.093021847	-4.792000E+00	  0.093021847	-1.026010E+02	  0.093021847	4.004000E+00	  0.093021847	3.151600E+01
426	  0.093217656	-4.796000E+00	  0.093217656	-1.027970E+02	  0.093217656	3.966000E+00	  0.093217656	3.155100E+01
427	  0.093413465	-4.799000E+00	  0.093413465	-1.030500E+02	  0.093413465	3.946000E+00	  0.093413465	3.157800E+01
428	  0.093609273	-4.797000E+00	  0.093609273	-1.032590E+02	  0.093609273	3.912000E+00	  0.093609273	3.161000E+01
429	  0.093805075	-4.795000E+00	  0.093805075	-1.034950E+02	  0.093805075	3.892000E+00	  0.093805075	3.163600E+01
430	  0.094000883	-4.798000E+00	  0.094000883	-1.037200E+02	  0.094000883	4.030000E+00	  0.094000883	3.190300E+01
431	  0.094196685	-4.793000E+00	  0.094196685	-1.039360E+02	  0.094196685	4.010000E+00	  0.094196685	3.192700E+01
432	  0.094392493	-4.791000E+00	  0.094392493	-1.041930E+02	  0.094392493	3.979000E+00	  0.094392493	3.196300E+01
433	  0.094588295	-4.791000E+00	  0.094588295	-1.043950E+02	  0.094588295	3.953000E+00	  0.094588295	3.198900E+01
434	  0.094784103	-4.792000E+00	  0.094784103	-1.046090E+02	  0.094784103	3.925000E+00	  0.094784103	3.202200E+01
435	  0.094979919	-4.792000E+00	  0.094979919	-1.048050E+02	  0.094979919	4.077000E+00	  0.094979919	3.229000E+01
436	  0.095175721	-4.795000E+00	  0.095175721	-1.050450E+02	  0.095175721	4.056000E+00	  0.095175721	3.232100E+01
437	  0.095371529	-4.791000E+00	  0.095371529	-1.052730E+02	  0.095371529	4.025000E+00	  0.095371529	3.234900E+01
438	  0.095567331	-4.795000E+00	  0.095567331	-1.054720E+02	  0.095567331	3.994000E+00	  0.095567331	3.237300E+01
439	  0.095763139	-4.791000E+00	  0.095763139	-1.057060E+02	  0.095763139	3.974000E+00	  0.095763139	3.239900E+01
440	  0.095958941	-4.792000E+00	  0.095958941	-1.058970E+02	  0.095958941	4.129000E+00	  0.095958941	3.267500E+01
441	  0.096154749	-4.792000E+00	  0.096154749	-1.061160E+02	  0.096154749	4.099000E+00	  0.096154749	3.270400E+01
442	  0.096350558	-4.794000E+00	  0.096350558	-1.063390E+02	  0.096350558	4.076000E+00	  0.096350558	3.273000E+01
443	  0.096546367	-4.798000E+00	  0.096546367	-1.065410E+02	  0.096546367	4.051000E+00	  0.096546367	3.276100E+01
444	  0.096742168	-4.800000E+00	  0.096742168	-1.067430E+02	  0.096742168	4.030000E+00	  0.096742168	3.278800E+01
445	  0.096937977	-4.801000E+00	  0.096937977	-1.069740E+02	  0.096937977	4.182000E+00	  0.096937977	3.305900E+01
446	  0.097133778	-4.803000E+00	  0.097133778	-1.072160E+02	  0.097133778	4.160000E+00	  0.097133778	3.309000E+01
447	  0.097329587	-4.808000E+00	  0.097329587	-1.074360E+02	  0.097329587	4.129000E+00	  0.097329587	3.311900E+01
448	  0.097525395	-4.803000E+00	  0.097525395	-1.076430E+02	  0.097525395	4.101000E+00	  0.097525395	3.314500E+01
449	  0.097721197	-4.803000E+00	  0.097721197	-1.079080E+02	  0.097721197	4.080000E+00	  0.097721197	3.317200E+01
450	  0.097917013	-4.803000E+00	  0.097917013	-1.081040E+02	  0.097917013	4.241000E+00	  0.097917013	3.344800E+01
451	  0.098112814	-4.807000E+00	  0.098112814	-1.083500E+02	  0.098112814	4.216000E+00	  0.098112814	3.347600E+01
452	  0.098308623	-4.803000E+00	  0.098308623	-1.085390E+02	  0.098308623	4.191000E+00	  0.098308623	3.351000E+01
453	  0.098504424	-4.803000E+00	  0.098504424	-1.088020E+02	  0.098504424	4.168000E+00	  0.098504424	3.353300E+01
454	  0.098700233	-4.800000E+00	  0.098700233	-1.090610E+02	  0.098700233	4.147000E+00	  0.098700233	3.356300E+01
455	  0.098896034	-4.804000E+00	  0.098896034	-1.092420E+02	  0.098896034	4.127000E+00	  0.098896034	3.358900E+01
456	  0.099091843	-4.801000E+00	  0.099091843	-1.094810E+02	  0.099091843	4.282000E+00	  0.099091843	3.386600E+01
457	  0.099287644	-4.789000E+00	  0.099287644	-1.096640E+02	  0.099287644	4.255000E+00	  0.099287644	3.389600E+01
458	  0.099483460	-4.794000E+00	  0.099483460	-1.098980E+02	  0.099483460	4.232000E+00	  0.099483460	3.392400E+01
459	  0.099679269	-4.796000E+00	  0.099679269	-1.101290E+02	  0.099679269	4.210000E+00	  0.099679269	3.395500E+01
460	  0.099875070	-4.787000E+00	  0.099875070	-1.102880E+02	  0.099875070	5.922000E+00	  0.099875070	3.371200E+01
461	  0.100070879	-4.801000E+00	  0.100070879	-1.105550E+02	  0.100070879	6.082000E+00	  0.100070879	3.399500E+01
462	  0.100266680	-4.790000E+00	  0.100266680	-1.107520E+02	  0.100266680	6.010000E+00	  0.100266680	3.401000E+01
463	  0.100462489	-4.800000E+00	  0.100462489	-1.109990E+02	  0.100462489	6.034000E+00	  0.100462489	3.411600E+01
464	  0.100658290	-4.803000E+00	  0.100658290	-1.112400E+02	  0.100658290	5.970000E+00	  0.100658290	3.412600E+01
465	  0.100854106	-4.803000E+00	  0.100854106	-1.114290E+02	  0.100854106	5.908000E+00	  0.100854106	3.412700E+01
466	  0.101049908	-4.799000E+00	  0.101049908	-1.117150E+02	  0.101049908	6.062000E+00	  0.101049908	3.443000E+01
467	  0.101245716	-4.808000E+00	  0.101245716	-1.119110E+02	  0.101245716	6.075000E+00	  0.101245716	3.452000E+01
468	  0.101441517	-4.803000E+00	  0.101441517	-1.121540E+02	  0.101441517	6.021000E+00	  0.101441517	3.453400E+01
469	  0.101637326	-4.799000E+00	  0.101637326	-1.122960E+02	  0.101637326	5.959000E+00	  0.101637326	3.454700E+01
470	  0.101833127	-4.801000E+00	  0.101833127	-1.126130E+02	  0.101833127	5.979000E+00	  0.101833127	3.465000E+01
471	  0.102028936	-4.803000E+00	  0.102028936	-1.128070E+02	  0.102028936	6.134000E+00	  0.102028936	3.493400E+01
472	  0.102224737	-4.809000E+00	  0.102224737	-1.130290E+02	  0.102224737	6.074000E+00	  0.102224737	3.494700E+01
473	  0.102420554	-4.798000E+00	  0.102420554	-1.132600E+02	  0.102420554	6.024000E+00	  0.102420554	3.496500E+01
474	  0.102616362	-4.800000E+00	  0.102616362	-1.134450E+02	  0.102616362	6.030000E+00	  0.102616362	3.506600E+01
475	  0.102812164	-4.802000E+00	  0.102812164	-1.136870E+02	  0.102812164	5.973000E+00	  0.102812164	3.507400E+01
476	  0.103007972	-4.801000E+00	  0.103007972	-1.139240E+02	  0.103007972	6.137000E+00	  0.103007972	3.536200E+01
477	  0.103203773	-4.808000E+00	  0.103203773	-1.141340E+02	  0.103203773	6.090000E+00	  0.103203773	3.537200E+01
478	  0.103399582	-4.802000E+00	  0.103399582	-1.143140E+02	  0.103399582	6.092000E+00	  0.103399582	3.548700E+01
479	  0.103595383	-4.804000E+00	  0.103595383	-1.145510E+02	  0.103595383	6.039000E+00	  0.103595383	3.548900E+01
480	  0.103791192	-4.800000E+00	  0.103791192	-1.147490E+02	  0.103791192	5.973000E+00	  0.103791192	3.549800E+01
481	  0.103987001	-4.808000E+00	  0.103987001	-1.150120E+02	  0.103987001	6.142000E+00	  0.103987001	3.579800E+01
482	  0.104182810	-4.806000E+00	  0.104182810	-1.151930E+02	  0.104182810	6.164000E+00	  0.104182810	3.590600E+01
483	  0.104378611	-4.801000E+00	  0.104378611	-1.154470E+02	  0.104378611	6.095000E+00	  0.104378611	3.590800E+01
484	  0.104574420	-4.806000E+00	  0.104574420	-1.155940E+02	  0.104574420	6.048000E+00	  0.104574420	3.591700E+01
485	  0.104770228	-4.805000E+00	  0.104770228	-1.158740E+02	  0.104770228	6.055000E+00	  0.104770228	3.602700E+01
486	  0.104966030	-4.807000E+00	  0.104966030	-1.160800E+02	  0.104966030	6.000000E+00	  0.104966030	3.603000E+01
487	  0.105161838	-4.810000E+00	  0.105161838	-1.163110E+02	  0.105161838	6.167000E+00	  0.105161838	3.632500E+01
488	  0.105357639	-4.808000E+00	  0.105357639	-1.165530E+02	  0.105357639	6.112000E+00	  0.105357639	3.634200E+01
489	  0.105553456	-4.803000E+00	  0.105553456	-1.167890E+02	  0.105553456	6.124000E+00	  0.105553456	3.644300E+01
490	  0.105749257	-4.804000E+00	  0.105749257	-1.169760E+02	  0.105749257	6.055000E+00	  0.105749257	3.646500E+01
491	  0.105945066	-4.801000E+00	  0.105945066	-1.171730E+02	  0.105945066	6.001000E+00	  0.105945066	3.646800E+01
492	  0.106140867	-4.809000E+00	  0.106140867	-1.174420E+02	  0.106140867	6.166000E+00	  0.106140867	3.676200E+01
493	  0.106336676	-4.802000E+00	  0.106336676	-1.176160E+02	  0.106336676	6.176000E+00	  0.106336676	3.687100E+01
494	  0.106532477	-4.802000E+00	  0.106532477	-1.178470E+02	  0.106532477	6.118000E+00	  0.106532477	3.688000E+01
495	  0.106728286	-4.799000E+00	  0.106728286	-1.179780E+02	  0.106728286	6.045000E+00	  0.106728286	3.688900E+01
496	  0.106924094	-4.804000E+00	  0.106924094	-1.182290E+02	  0.106924094	6.057000E+00	  0.106924094	3.699400E+01
497	  0.107119903	-4.802000E+00	  0.107119903	-1.184800E+02	  0.107119903	6.222000E+00	  0.107119903	3.729600E+01
498	  0.107315712	-4.806000E+00	  0.107315712	-1.186930E+02	  0.107315712	6.163000E+00	  0.107315712	3.731600E+01
499	  0.107511513	-4.802000E+00	  0.107511513	-1.188930E+02	  0.107511513	6.080000E+00	  0.107511513	3.732000E+01
500	  0.107707322	-4.801000E+00	  0.107707322	-1.191220E+02	  0.107707322	6.097000E+00	  0.107707322	3.742800E+01
501	  0.107903123	-4.804000E+00	  0.107903123	-1.193250E+02	  0.107903123	6.030000E+00	  0.107903123	3.744500E+01
