! Anritsu VNA Master:             	Model: MS2036C/10/77
! SN:             	1601066
! /card0/usr/255.ew.n.r200.1_1.txt
! Existing Calibration Information:
! TYPE:             	Current Settings	Active Cal Settings
! TIME:             	12/17/2017 06:47:06 PM	12/17/2017 06:38:14 PM
! INTERNAL TEMP:    	43.5 C	43.8 C
! # POINTS:         	501	501
! START FREQ:       	10.000 MHz	10.000 MHz
! STOP FREQ:        	107.903 125 MHz	107.903 125 MHz
! SOURCE POWER:     	High	High
! IFBW:             	100 Hz	100 Hz
! AVG FACTOR:       	  1 	  1 
! REF PLANE 1:      	0 mm	0 mm
! REF PLANE 2:      	0 mm	0 mm
! CAL TYPE:         	Full S11	Full S11
! CAL METHOD:       	SOLT	SOLT
! CAL LINE TYPE:    	Coax	Coax
! DUT PORT 1:       	N-Conn(F)	N-Conn(F)
! DUT PORT 2:       	K-Conn(F)	K-Conn(F)
! CAL STATUS:       	OK: Accuracy High	--
! PROP-V:       	0.700
! CABLE LOSS:       	0.000 dB/m
! REF IMPEDANCE:       	50.0
! Trace Specific Parameters:	TR1	TR2	TR3	TR4
! TRACE.#.Y (GRAPH TYPE)	LOG MAG	PHASE	REAL IMPEDANCE	IMAGINARY IMPEDANCE
! TRACE.#.X 	FREQ.GHZ	FREQ.GHZ	FREQ.GHZ	FREQ.GHZ
! S-PARAMETER	S11	S11	S11	S11
! SMOOTH/APERTURE %	0	0	0	0
! WINDOW	NSL	NSL	NSL	NSL
! GATING	OFF	OFF	OFF	OFF
! FGTD	OFF	OFF	OFF	OFF
Marker Information per Trace:	TR1	TR2	TR3	TR4
!MK1	--	--	--	--
!MK2	--	--	--	--
!MK3	--	--	--	--
!MK4	--	--	--	--
!MK5	--	--	--	--
!MK6	--	--	--	--
!MK7	--	--	--	--
!MK8	--	--	--	--
PNT	TR1.FREQ.GHZ	TR1.LOG MAG.dB	TR2.FREQ.GHZ	TR2.PHASE.deg	TR3.FREQ.GHZ	TR3.REAL IMPEDANCE.ohm	TR4.FREQ.GHZ	TR4.IMAGINARY IMPEDANCE.ohm
1	  0.010000000	-4.546000E+00	  0.010000000	-1.176900E+01	  0.010000000	1.698910E+02	  0.010000000	-6.327000E+01
2	  0.010195807	-4.537000E+00	  0.010195807	-1.193200E+01	  0.010195807	1.695140E+02	  0.010195807	-6.413300E+01
3	  0.010391613	-4.532000E+00	  0.010391613	-1.215300E+01	  0.010391613	1.687980E+02	  0.010391613	-6.510800E+01
4	  0.010587418	-4.539000E+00	  0.010587418	-1.236000E+01	  0.010587418	1.678360E+02	  0.010587418	-6.571400E+01
5	  0.010783225	-4.541000E+00	  0.010783225	-1.260000E+01	  0.010783225	1.668620E+02	  0.010783225	-6.654900E+01
6	  0.010979031	-4.538000E+00	  0.010979031	-1.282400E+01	  0.010979031	1.660430E+02	  0.010979031	-6.742000E+01
7	  0.011174837	-4.544000E+00	  0.011174837	-1.305800E+01	  0.011174837	1.650050E+02	  0.011174837	-6.811300E+01
8	  0.011370643	-4.540000E+00	  0.011370643	-1.328300E+01	  0.011370643	1.642000E+02	  0.011370643	-6.898300E+01
9	  0.011566450	-4.543000E+00	  0.011566450	-1.349400E+01	  0.011566450	1.632960E+02	  0.011566450	-6.962800E+01
10	  0.011762256	-4.542000E+00	  0.011762256	-1.369900E+01	  0.011762256	1.624960E+02	  0.011762256	-7.032900E+01
11	  0.011958062	-4.545000E+00	  0.011958062	-1.396500E+01	  0.011958062	1.613800E+02	  0.011958062	-7.113000E+01
12	  0.012153869	-4.549000E+00	  0.012153869	-1.418000E+01	  0.012153869	1.604400E+02	  0.012153869	-7.172300E+01
13	  0.012349674	-4.549000E+00	  0.012349674	-1.443800E+01	  0.012349674	1.593890E+02	  0.012349674	-7.250900E+01
14	  0.012545481	-4.551000E+00	  0.012545481	-1.468000E+01	  0.012545481	1.583750E+02	  0.012545481	-7.320200E+01
15	  0.012741288	-4.549000E+00	  0.012741288	-1.491100E+01	  0.012741288	1.574730E+02	  0.012741288	-7.393000E+01
16	  0.012937094	-4.557000E+00	  0.012937094	-1.515300E+01	  0.012937094	1.563440E+02	  0.012937094	-7.442800E+01
17	  0.013132900	-4.556000E+00	  0.013132900	-1.540500E+01	  0.013132900	1.553320E+02	  0.013132900	-7.516100E+01
18	  0.013328707	-4.556000E+00	  0.013328707	-1.564700E+01	  0.013328707	1.543400E+02	  0.013328707	-7.582700E+01
19	  0.013524513	-4.556000E+00	  0.013524513	-1.588500E+01	  0.013524513	1.533640E+02	  0.013524513	-7.645600E+01
20	  0.013720319	-4.553000E+00	  0.013720319	-1.611800E+01	  0.013720319	1.524690E+02	  0.013720319	-7.715700E+01
21	  0.013916126	-4.556000E+00	  0.013916126	-1.638600E+01	  0.013916126	1.513240E+02	  0.013916126	-7.777100E+01
22	  0.014111931	-4.556000E+00	  0.014111931	-1.662400E+01	  0.014111931	1.503440E+02	  0.014111931	-7.835700E+01
23	  0.014307737	-4.554000E+00	  0.014307737	-1.686700E+01	  0.014307737	1.493780E+02	  0.014307737	-7.899400E+01
24	  0.014503544	-4.554000E+00	  0.014503544	-1.711700E+01	  0.014503544	1.483450E+02	  0.014503544	-7.957700E+01
25	  0.014699350	-4.554000E+00	  0.014699350	-1.735500E+01	  0.014699350	1.473560E+02	  0.014699350	-8.010400E+01
26	  0.014895156	-4.556000E+00	  0.014895156	-1.759600E+01	  0.014895156	1.463340E+02	  0.014895156	-8.057800E+01
27	  0.015090963	-4.555000E+00	  0.015090963	-1.783800E+01	  0.015090963	1.453620E+02	  0.015090963	-8.113600E+01
28	  0.015286769	-4.556000E+00	  0.015286769	-1.806500E+01	  0.015286769	1.444040E+02	  0.015286769	-8.155900E+01
29	  0.015482575	-4.556000E+00	  0.015482575	-1.831800E+01	  0.015482575	1.433610E+02	  0.015482575	-8.206800E+01
30	  0.015678382	-4.551000E+00	  0.015678382	-1.854600E+01	  0.015678382	1.424930E+02	  0.015678382	-8.265500E+01
31	  0.015874187	-4.553000E+00	  0.015874187	-1.878200E+01	  0.015874187	1.415030E+02	  0.015874187	-8.304700E+01
32	  0.016069993	-4.554000E+00	  0.016069993	-1.900600E+01	  0.016069993	1.405720E+02	  0.016069993	-8.343200E+01
33	  0.016265800	-4.554000E+00	  0.016265800	-1.923500E+01	  0.016265800	1.396410E+02	  0.016265800	-8.385100E+01
34	  0.016461605	-4.553000E+00	  0.016461605	-1.943900E+01	  0.016461605	1.388150E+02	  0.016461605	-8.421900E+01
35	  0.016657412	-4.555000E+00	  0.016657412	-1.967800E+01	  0.016657412	1.378140E+02	  0.016657412	-8.455300E+01
36	  0.016853219	-4.555000E+00	  0.016853219	-1.989000E+01	  0.016853219	1.369580E+02	  0.016853219	-8.490300E+01
37	  0.017049024	-4.551000E+00	  0.017049024	-2.012200E+01	  0.017049024	1.360610E+02	  0.017049024	-8.537800E+01
38	  0.017244833	-4.551000E+00	  0.017244833	-2.032000E+01	  0.017244833	1.352540E+02	  0.017244833	-8.566100E+01
39	  0.017440638	-4.547000E+00	  0.017440638	-2.056400E+01	  0.017440638	1.343100E+02	  0.017440638	-8.612300E+01
40	  0.017636444	-4.552000E+00	  0.017636444	-2.078600E+01	  0.017636444	1.333690E+02	  0.017636444	-8.631000E+01
41	  0.017832249	-4.548000E+00	  0.017832249	-2.099400E+01	  0.017832249	1.325660E+02	  0.017832249	-8.667500E+01
42	  0.018028056	-4.553000E+00	  0.018028056	-2.119800E+01	  0.018028056	1.317130E+02	  0.018028056	-8.682400E+01
43	  0.018223861	-4.553000E+00	  0.018223861	-2.142300E+01	  0.018223861	1.308110E+02	  0.018223861	-8.709000E+01
44	  0.018419670	-4.558000E+00	  0.018419670	-2.166700E+01	  0.018419670	1.298090E+02	  0.018419670	-8.726800E+01
45	  0.018615475	-4.560000E+00	  0.018615475	-2.189500E+01	  0.018615475	1.288880E+02	  0.018615475	-8.746300E+01
46	  0.018811282	-4.558000E+00	  0.018811282	-2.212000E+01	  0.018811282	1.280200E+02	  0.018811282	-8.776100E+01
47	  0.019007087	-4.562000E+00	  0.019007087	-2.233500E+01	  0.019007087	1.271530E+02	  0.019007087	-8.790400E+01
48	  0.019202894	-4.562000E+00	  0.019202894	-2.257400E+01	  0.019202894	1.262210E+02	  0.019202894	-8.813500E+01
49	  0.019398699	-4.566000E+00	  0.019398699	-2.279600E+01	  0.019398699	1.253370E+02	  0.019398699	-8.824300E+01
50	  0.019594505	-4.564000E+00	  0.019594505	-2.302300E+01	  0.019594505	1.244740E+02	  0.019594505	-8.850100E+01
51	  0.019790314	-4.567000E+00	  0.019790314	-2.326300E+01	  0.019790314	1.235360E+02	  0.019790314	-8.864500E+01
52	  0.019986119	-4.569000E+00	  0.019986119	-2.349000E+01	  0.019986119	1.226580E+02	  0.019986119	-8.877800E+01
53	  0.020181926	-4.568000E+00	  0.020181926	-2.374600E+01	  0.020181926	1.216920E+02	  0.020181926	-8.900100E+01
54	  0.020377731	-4.566000E+00	  0.020377731	-2.397200E+01	  0.020377731	1.208520E+02	  0.020377731	-8.923900E+01
55	  0.020573538	-4.566000E+00	  0.020573538	-2.422400E+01	  0.020573538	1.199060E+02	  0.020573538	-8.939300E+01
56	  0.020769343	-4.568000E+00	  0.020769343	-2.446400E+01	  0.020769343	1.190030E+02	  0.020769343	-8.952300E+01
57	  0.020965151	-4.565000E+00	  0.020965151	-2.469100E+01	  0.020965151	1.181720E+02	  0.020965151	-8.972600E+01
58	  0.021160956	-4.568000E+00	  0.021160956	-2.495000E+01	  0.021160956	1.172080E+02	  0.021160956	-8.981400E+01
59	  0.021356763	-4.566000E+00	  0.021356763	-2.521400E+01	  0.021356763	1.162450E+02	  0.021356763	-8.998000E+01
60	  0.021552568	-4.565000E+00	  0.021552568	-2.546100E+01	  0.021552568	1.153470E+02	  0.021552568	-9.012900E+01
61	  0.021748375	-4.566000E+00	  0.021748375	-2.569400E+01	  0.021748375	1.145040E+02	  0.021748375	-9.022500E+01
62	  0.021944180	-4.569000E+00	  0.021944180	-2.590900E+01	  0.021944180	1.137220E+02	  0.021944180	-9.023200E+01
63	  0.022139989	-4.572000E+00	  0.022139989	-2.614100E+01	  0.022139989	1.128880E+02	  0.022139989	-9.026400E+01
64	  0.022335794	-4.571000E+00	  0.022335794	-2.637200E+01	  0.022335794	1.120710E+02	  0.022335794	-9.036100E+01
65	  0.022531601	-4.571000E+00	  0.022531601	-2.660100E+01	  0.022531601	1.112630E+02	  0.022531601	-9.043100E+01
66	  0.022727406	-4.573000E+00	  0.022727406	-2.681400E+01	  0.022727406	1.105150E+02	  0.022727406	-9.044700E+01
67	  0.022923212	-4.571000E+00	  0.022923212	-2.705400E+01	  0.022923212	1.096840E+02	  0.022923212	-9.054300E+01
68	  0.023119017	-4.573000E+00	  0.023119017	-2.728200E+01	  0.023119017	1.088920E+02	  0.023119017	-9.056400E+01
69	  0.023314826	-4.576000E+00	  0.023314826	-2.751400E+01	  0.023314826	1.080940E+02	  0.023314826	-9.052600E+01
70	  0.023510631	-4.573000E+00	  0.023510631	-2.775100E+01	  0.023510631	1.072900E+02	  0.023510631	-9.062300E+01
71	  0.023706438	-4.571000E+00	  0.023706438	-2.795900E+01	  0.023706438	1.065870E+02	  0.023706438	-9.070400E+01
72	  0.023902243	-4.572000E+00	  0.023902243	-2.819800E+01	  0.023902243	1.057820E+02	  0.023902243	-9.071400E+01
73	  0.024098050	-4.565000E+00	  0.024098050	-2.843300E+01	  0.024098050	1.050010E+02	  0.024098050	-9.086300E+01
74	  0.024293855	-4.566000E+00	  0.024293855	-2.867400E+01	  0.024293855	1.042020E+02	  0.024293855	-9.085800E+01
75	  0.024489662	-4.567000E+00	  0.024489662	-2.890700E+01	  0.024489662	1.034350E+02	  0.024489662	-9.084300E+01
76	  0.024685470	-4.568000E+00	  0.024685470	-2.913500E+01	  0.024685470	1.026880E+02	  0.024685470	-9.080200E+01
77	  0.024881275	-4.570000E+00	  0.024881275	-2.936700E+01	  0.024881275	1.019380E+02	  0.024881275	-9.075200E+01
78	  0.025077082	-4.572000E+00	  0.025077082	-2.959200E+01	  0.025077082	1.012160E+02	  0.025077082	-9.069800E+01
79	  0.025272887	-4.572000E+00	  0.025272887	-2.980600E+01	  0.025272887	1.005300E+02	  0.025272887	-9.068800E+01
80	  0.025468694	-4.577000E+00	  0.025468694	-3.002700E+01	  0.025468694	9.983500E+01	  0.025468694	-9.055700E+01
81	  0.025664499	-4.578000E+00	  0.025664499	-3.023800E+01	  0.025664499	9.917300E+01	  0.025664499	-9.050600E+01
82	  0.025860308	-4.584000E+00	  0.025860308	-3.044200E+01	  0.025860308	9.854000E+01	  0.025860308	-9.035200E+01
83	  0.026056113	-4.585000E+00	  0.026056113	-3.067300E+01	  0.026056113	9.783000E+01	  0.026056113	-9.027300E+01
84	  0.026251920	-4.587000E+00	  0.026251920	-3.090900E+01	  0.026251920	9.710600E+01	  0.026251920	-9.018600E+01
85	  0.026447725	-4.588000E+00	  0.026447725	-3.115000E+01	  0.026447725	9.637300E+01	  0.026447725	-9.011400E+01
86	  0.026643531	-4.592000E+00	  0.026643531	-3.140400E+01	  0.026643531	9.561400E+01	  0.026643531	-8.998500E+01
87	  0.026839336	-4.594000E+00	  0.026839336	-3.168600E+01	  0.026839336	9.477500E+01	  0.026839336	-8.987100E+01
88	  0.027035145	-4.593000E+00	  0.027035145	-3.193600E+01	  0.027035145	9.403300E+01	  0.027035145	-8.980400E+01
89	  0.027230950	-4.593000E+00	  0.027230950	-3.222200E+01	  0.027230950	9.319400E+01	  0.027230950	-8.972700E+01
90	  0.027426757	-4.594000E+00	  0.027426757	-3.248600E+01	  0.027426757	9.243100E+01	  0.027426757	-8.961100E+01
91	  0.027622562	-4.592000E+00	  0.027622562	-3.273300E+01	  0.027622562	9.171500E+01	  0.027622562	-8.955600E+01
92	  0.027818369	-4.595000E+00	  0.027818369	-3.299600E+01	  0.027818369	9.096900E+01	  0.027818369	-8.940500E+01
93	  0.028014174	-4.595000E+00	  0.028014174	-3.327400E+01	  0.028014174	9.018700E+01	  0.028014174	-8.928800E+01
94	  0.028209982	-4.591000E+00	  0.028209982	-3.354700E+01	  0.028209982	8.940900E+01	  0.028209982	-8.925600E+01
95	  0.028405787	-4.587000E+00	  0.028405787	-3.379700E+01	  0.028405787	8.870600E+01	  0.028405787	-8.921000E+01
96	  0.028601594	-4.582000E+00	  0.028601594	-3.402800E+01	  0.028601594	8.805300E+01	  0.028601594	-8.920400E+01
97	  0.028797399	-4.576000E+00	  0.028797399	-3.423900E+01	  0.028797399	8.745700E+01	  0.028797399	-8.921000E+01
98	  0.028993206	-4.575000E+00	  0.028993206	-3.444000E+01	  0.028993206	8.690900E+01	  0.028993206	-8.912300E+01
99	  0.029189013	-4.571000E+00	  0.029189013	-3.461700E+01	  0.029189013	8.641800E+01	  0.029189013	-8.911400E+01
100	  0.029384818	-4.570000E+00	  0.029384818	-3.480700E+01	  0.029384818	8.590700E+01	  0.029384818	-8.901700E+01
101	  0.029580627	-4.572000E+00	  0.029580627	-3.500200E+01	  0.029580627	8.539700E+01	  0.029580627	-8.888300E+01
102	  0.029776432	-4.575000E+00	  0.029776432	-3.518300E+01	  0.029776432	8.492800E+01	  0.029776432	-8.872800E+01
103	  0.029972238	-4.579000E+00	  0.029972238	-3.540900E+01	  0.029972238	8.435200E+01	  0.029972238	-8.853400E+01
104	  0.030168043	-4.584000E+00	  0.030168043	-3.565200E+01	  0.030168043	8.374000E+01	  0.030168043	-8.831000E+01
105	  0.030363850	-4.586000E+00	  0.030363850	-3.587600E+01	  0.030363850	8.317100E+01	  0.030363850	-8.815800E+01
106	  0.030559655	-4.588000E+00	  0.030559655	-3.610800E+01	  0.030559655	8.258700E+01	  0.030559655	-8.798100E+01
107	  0.030755464	-4.586000E+00	  0.030755464	-3.636100E+01	  0.030755464	8.194200E+01	  0.030755464	-8.785800E+01
108	  0.030951269	-4.586000E+00	  0.030951269	-3.660200E+01	  0.030951269	8.133600E+01	  0.030951269	-8.772100E+01
109	  0.031147076	-4.581000E+00	  0.031147076	-3.682700E+01	  0.031147076	8.076000E+01	  0.031147076	-8.765200E+01
110	  0.031342883	-4.579000E+00	  0.031342883	-3.705800E+01	  0.031342883	8.018300E+01	  0.031342883	-8.753600E+01
111	  0.031538688	-4.581000E+00	  0.031538688	-3.728700E+01	  0.031538688	7.963100E+01	  0.031538688	-8.736000E+01
112	  0.031734493	-4.574000E+00	  0.031734493	-3.748200E+01	  0.031734493	7.912900E+01	  0.031734493	-8.733700E+01
113	  0.031930301	-4.574000E+00	  0.031930301	-3.769800E+01	  0.031930301	7.861100E+01	  0.031930301	-8.719000E+01
114	  0.032126106	-4.570000E+00	  0.032126106	-3.789500E+01	  0.032126106	7.812000E+01	  0.032126106	-8.712300E+01
115	  0.032321911	-4.568000E+00	  0.032321911	-3.810100E+01	  0.032321911	7.762600E+01	  0.032321911	-8.700500E+01
116	  0.032517716	-4.562000E+00	  0.032517716	-3.828000E+01	  0.032517716	7.717800E+01	  0.032517716	-8.696000E+01
117	  0.032713525	-4.562000E+00	  0.032713525	-3.847600E+01	  0.032713525	7.671800E+01	  0.032713525	-8.683300E+01
118	  0.032909330	-4.561000E+00	  0.032909330	-3.869500E+01	  0.032909330	7.620500E+01	  0.032909330	-8.668500E+01
119	  0.033105139	-4.563000E+00	  0.033105139	-3.888400E+01	  0.033105139	7.578300E+01	  0.033105139	-8.651300E+01
120	  0.033300944	-4.566000E+00	  0.033300944	-3.909600E+01	  0.033300944	7.531400E+01	  0.033300944	-8.630800E+01
121	  0.033496749	-4.576000E+00	  0.033496749	-3.929900E+01	  0.033496749	7.490600E+01	  0.033496749	-8.600800E+01
122	  0.033692554	-4.579000E+00	  0.033692554	-3.954100E+01	  0.033692554	7.437600E+01	  0.033692554	-8.578700E+01
123	  0.033888362	-4.582000E+00	  0.033888362	-3.979200E+01	  0.033888362	7.383500E+01	  0.033888362	-8.555500E+01
124	  0.034084171	-4.585000E+00	  0.034084171	-4.003100E+01	  0.034084171	7.332600E+01	  0.034084171	-8.532700E+01
125	  0.034279976	-4.590000E+00	  0.034279976	-4.025500E+01	  0.034279976	7.286800E+01	  0.034279976	-8.507200E+01
126	  0.034475781	-4.592000E+00	  0.034475781	-4.045900E+01	  0.034475781	7.243900E+01	  0.034475781	-8.488600E+01
127	  0.034671586	-4.596000E+00	  0.034671586	-4.070200E+01	  0.034671586	7.193700E+01	  0.034671586	-8.464700E+01
128	  0.034867391	-4.600000E+00	  0.034867391	-4.097800E+01	  0.034867391	7.137800E+01	  0.034867391	-8.436600E+01
129	  0.035063203	-4.606000E+00	  0.035063203	-4.126500E+01	  0.035063203	7.080700E+01	  0.035063203	-8.406500E+01
130	  0.035259008	-4.607000E+00	  0.035259008	-4.151400E+01	  0.035259008	7.029900E+01	  0.035259008	-8.384700E+01
131	  0.035454813	-4.609000E+00	  0.035454813	-4.177200E+01	  0.035454813	6.978100E+01	  0.035454813	-8.361400E+01
132	  0.035650618	-4.608000E+00	  0.035650618	-4.202800E+01	  0.035650618	6.925900E+01	  0.035650618	-8.341600E+01
133	  0.035846427	-4.606000E+00	  0.035846427	-4.226500E+01	  0.035846427	6.876800E+01	  0.035846427	-8.325700E+01
134	  0.036042232	-4.603000E+00	  0.036042232	-4.253700E+01	  0.036042232	6.821200E+01	  0.036042232	-8.306900E+01
135	  0.036238037	-4.596000E+00	  0.036238037	-4.277900E+01	  0.036238037	6.769600E+01	  0.036238037	-8.296300E+01
136	  0.036433842	-4.593000E+00	  0.036433842	-4.303200E+01	  0.036433842	6.718600E+01	  0.036433842	-8.278900E+01
137	  0.036629651	-4.586000E+00	  0.036629651	-4.323200E+01	  0.036629651	6.676200E+01	  0.036629651	-8.269900E+01
138	  0.036825456	-4.586000E+00	  0.036825456	-4.346200E+01	  0.036825456	6.632300E+01	  0.036825456	-8.250100E+01
139	  0.037021261	-4.581000E+00	  0.037021261	-4.364100E+01	  0.037021261	6.594900E+01	  0.037021261	-8.242100E+01
140	  0.037217066	-4.584000E+00	  0.037217066	-4.382600E+01	  0.037217066	6.561800E+01	  0.037217066	-8.221900E+01
141	  0.037412878	-4.587000E+00	  0.037412878	-4.402800E+01	  0.037412878	6.525400E+01	  0.037412878	-8.201300E+01
142	  0.037608683	-4.596000E+00	  0.037608683	-4.426600E+01	  0.037608683	6.486300E+01	  0.037608683	-8.169400E+01
143	  0.037804488	-4.602000E+00	  0.037804488	-4.448500E+01	  0.037804488	6.449400E+01	  0.037804488	-8.143200E+01
144	  0.038000293	-4.608000E+00	  0.038000293	-4.474400E+01	  0.038000293	6.405600E+01	  0.038000293	-8.113500E+01
145	  0.038196102	-4.615000E+00	  0.038196102	-4.500700E+01	  0.038196102	6.362500E+01	  0.038196102	-8.081600E+01
146	  0.038391907	-4.624000E+00	  0.038391907	-4.523200E+01	  0.038391907	6.327400E+01	  0.038391907	-8.051800E+01
147	  0.038587712	-4.624000E+00	  0.038587712	-4.549400E+01	  0.038587712	6.280800E+01	  0.038587712	-8.029100E+01
148	  0.038783520	-4.625000E+00	  0.038783520	-4.577100E+01	  0.038783520	6.232900E+01	  0.038783520	-8.003900E+01
149	  0.038979325	-4.628000E+00	  0.038979325	-4.602100E+01	  0.038979325	6.191200E+01	  0.038979325	-7.978400E+01
150	  0.039175130	-4.627000E+00	  0.039175130	-4.630600E+01	  0.039175130	6.141900E+01	  0.039175130	-7.954500E+01
151	  0.039370935	-4.623000E+00	  0.039370935	-4.657000E+01	  0.039370935	6.095200E+01	  0.039370935	-7.934800E+01
152	  0.039566744	-4.616000E+00	  0.039566744	-4.681700E+01	  0.039566744	6.049600E+01	  0.039566744	-7.920600E+01
153	  0.039762549	-4.614000E+00	  0.039762549	-4.705200E+01	  0.039762549	6.008800E+01	  0.039762549	-7.902500E+01
154	  0.039958358	-4.610000E+00	  0.039958358	-4.730400E+01	  0.039958358	5.964900E+01	  0.039958358	-7.884400E+01
155	  0.040154163	-4.606000E+00	  0.040154163	-4.753300E+01	  0.040154163	5.925600E+01	  0.040154163	-7.867100E+01
156	  0.040349972	-4.604000E+00	  0.040349972	-4.775100E+01	  0.040349972	5.888600E+01	  0.040349972	-7.850300E+01
157	  0.040545776	-4.600000E+00	  0.040545776	-4.795900E+01	  0.040545776	5.852800E+01	  0.040545776	-7.835600E+01
158	  0.040741581	-4.604000E+00	  0.040741581	-4.818200E+01	  0.040741581	5.819600E+01	  0.040741581	-7.811300E+01
159	  0.040937386	-4.606000E+00	  0.040937386	-4.840600E+01	  0.040937386	5.785800E+01	  0.040937386	-7.788200E+01
160	  0.041133195	-4.608000E+00	  0.041133195	-4.866100E+01	  0.041133195	5.747100E+01	  0.041133195	-7.762700E+01
161	  0.041329000	-4.616000E+00	  0.041329000	-4.890400E+01	  0.041329000	5.714200E+01	  0.041329000	-7.732400E+01
162	  0.041524805	-4.619000E+00	  0.041524805	-4.917500E+01	  0.041524805	5.674100E+01	  0.041524805	-7.705200E+01
163	  0.041720610	-4.619000E+00	  0.041720610	-4.943600E+01	  0.041720610	5.634700E+01	  0.041720610	-7.681200E+01
164	  0.041916419	-4.620000E+00	  0.041916419	-4.969700E+01	  0.041916419	5.596100E+01	  0.041916419	-7.656000E+01
165	  0.042112224	-4.623000E+00	  0.042112224	-4.995600E+01	  0.042112224	5.559400E+01	  0.042112224	-7.629500E+01
166	  0.042308029	-4.624000E+00	  0.042308029	-5.018400E+01	  0.042308029	5.526200E+01	  0.042308029	-7.608200E+01
167	  0.042503837	-4.623000E+00	  0.042503837	-5.044000E+01	  0.042503837	5.488100E+01	  0.042503837	-7.586100E+01
168	  0.042699646	-4.617000E+00	  0.042699646	-5.068600E+01	  0.042699646	5.448900E+01	  0.042699646	-7.569000E+01
169	  0.042895451	-4.615000E+00	  0.042895451	-5.092000E+01	  0.042895451	5.414200E+01	  0.042895451	-7.549400E+01
170	  0.043091256	-4.613000E+00	  0.043091256	-5.117700E+01	  0.043091256	5.376400E+01	  0.043091256	-7.527700E+01
171	  0.043287061	-4.609000E+00	  0.043287061	-5.140700E+01	  0.043287061	5.341500E+01	  0.043287061	-7.510200E+01
172	  0.043482870	-4.603000E+00	  0.043482870	-5.166400E+01	  0.043482870	5.302200E+01	  0.043482870	-7.491900E+01
173	  0.043678675	-4.596000E+00	  0.043678675	-5.189800E+01	  0.043678675	5.265800E+01	  0.043678675	-7.476200E+01
174	  0.043874480	-4.590000E+00	  0.043874480	-5.210400E+01	  0.043874480	5.234200E+01	  0.043874480	-7.462300E+01
175	  0.044070289	-4.585000E+00	  0.044070289	-5.228600E+01	  0.044070289	5.206100E+01	  0.044070289	-7.450100E+01
176	  0.044266094	-4.583000E+00	  0.044266094	-5.245600E+01	  0.044266094	5.182000E+01	  0.044266094	-7.436100E+01
177	  0.044461899	-4.584000E+00	  0.044461899	-5.260200E+01	  0.044461899	5.163100E+01	  0.044461899	-7.421500E+01
178	  0.044657703	-4.589000E+00	  0.044657703	-5.277800E+01	  0.044657703	5.142500E+01	  0.044657703	-7.400800E+01
179	  0.044853516	-4.591000E+00	  0.044853516	-5.294100E+01	  0.044853516	5.122200E+01	  0.044853516	-7.383800E+01
180	  0.045049321	-4.596000E+00	  0.045049321	-5.313600E+01	  0.045049321	5.099800E+01	  0.045049321	-7.361300E+01
181	  0.045245126	-4.605000E+00	  0.045245126	-5.334900E+01	  0.045245126	5.077200E+01	  0.045245126	-7.334000E+01
182	  0.045440931	-4.611000E+00	  0.045440931	-5.355600E+01	  0.045440931	5.054100E+01	  0.045440931	-7.309900E+01
183	  0.045636740	-4.620000E+00	  0.045636740	-5.376400E+01	  0.045636740	5.033000E+01	  0.045636740	-7.282900E+01
184	  0.045832545	-4.623000E+00	  0.045832545	-5.399800E+01	  0.045832545	5.005000E+01	  0.045832545	-7.258700E+01
185	  0.046028350	-4.628000E+00	  0.046028350	-5.421900E+01	  0.046028350	4.980000E+01	  0.046028350	-7.234600E+01
186	  0.046224155	-4.633000E+00	  0.046224155	-5.447500E+01	  0.046224155	4.950900E+01	  0.046224155	-7.207100E+01
187	  0.046419963	-4.634000E+00	  0.046419963	-5.473100E+01	  0.046419963	4.920000E+01	  0.046419963	-7.182500E+01
188	  0.046615768	-4.636000E+00	  0.046615768	-5.499700E+01	  0.046615768	4.888300E+01	  0.046615768	-7.157000E+01
189	  0.046811573	-4.633000E+00	  0.046811573	-5.523600E+01	  0.046811573	4.857900E+01	  0.046811573	-7.136900E+01
190	  0.047007378	-4.632000E+00	  0.047007378	-5.547800E+01	  0.047007378	4.827900E+01	  0.047007378	-7.115800E+01
191	  0.047203191	-4.634000E+00	  0.047203191	-5.571300E+01	  0.047203191	4.800600E+01	  0.047203191	-7.093300E+01
192	  0.047398996	-4.632000E+00	  0.047398996	-5.592800E+01	  0.047398996	4.774100E+01	  0.047398996	-7.075100E+01
193	  0.047594801	-4.631000E+00	  0.047594801	-5.614700E+01	  0.047594801	4.748100E+01	  0.047594801	-7.055500E+01
194	  0.047790606	-4.636000E+00	  0.047790606	-5.638600E+01	  0.047790606	4.722900E+01	  0.047790606	-7.030500E+01
195	  0.047986414	-4.642000E+00	  0.047986414	-5.663200E+01	  0.047986414	4.698500E+01	  0.047986414	-7.002900E+01
196	  0.048182219	-4.646000E+00	  0.048182219	-5.681200E+01	  0.048182219	4.680500E+01	  0.048182219	-6.983600E+01
197	  0.048378024	-4.652000E+00	  0.048378024	-5.708800E+01	  0.048378024	4.652200E+01	  0.048378024	-6.954700E+01
198	  0.048573833	-4.654000E+00	  0.048573833	-5.731600E+01	  0.048573833	4.627900E+01	  0.048573833	-6.932400E+01
199	  0.048769638	-4.662000E+00	  0.048769638	-5.764300E+01	  0.048769638	4.596200E+01	  0.048769638	-6.897200E+01
200	  0.048965443	-4.663000E+00	  0.048965443	-5.788500E+01	  0.048965443	4.570000E+01	  0.048965443	-6.874900E+01
201	  0.049161248	-4.665000E+00	  0.049161248	-5.814500E+01	  0.049161248	4.543300E+01	  0.049161248	-6.849700E+01
202	  0.049357057	-4.668000E+00	  0.049357057	-5.841600E+01	  0.049357057	4.515600E+01	  0.049357057	-6.823500E+01
203	  0.049552862	-4.668000E+00	  0.049552862	-5.866900E+01	  0.049552862	4.488600E+01	  0.049552862	-6.800700E+01
204	  0.049748670	-4.667000E+00	  0.049748670	-5.896400E+01	  0.049748670	4.456400E+01	  0.049748670	-6.775600E+01
205	  0.049944475	-4.666000E+00	  0.049944475	-5.924400E+01	  0.049944475	4.426800E+01	  0.049944475	-6.750900E+01
206	  0.050140284	-4.663000E+00	  0.050140284	-5.953000E+01	  0.050140284	4.395100E+01	  0.050140284	-6.727900E+01
207	  0.050336089	-4.663000E+00	  0.050336089	-5.981100E+01	  0.050336089	4.366200E+01	  0.050336089	-6.703000E+01
208	  0.050531894	-4.651000E+00	  0.050531894	-6.010500E+01	  0.050531894	4.329400E+01	  0.050531894	-6.684800E+01
209	  0.050727699	-4.649000E+00	  0.050727699	-6.037800E+01	  0.050727699	4.300800E+01	  0.050727699	-6.661700E+01
210	  0.050923508	-4.646000E+00	  0.050923508	-6.062100E+01	  0.050923508	4.274800E+01	  0.050923508	-6.642300E+01
211	  0.051119313	-4.640000E+00	  0.051119313	-6.084600E+01	  0.051119313	4.249300E+01	  0.051119313	-6.626000E+01
212	  0.051315118	-4.635000E+00	  0.051315118	-6.104100E+01	  0.051315118	4.227300E+01	  0.051315118	-6.611800E+01
213	  0.051510923	-4.630000E+00	  0.051510923	-6.127800E+01	  0.051510923	4.201100E+01	  0.051510923	-6.594300E+01
214	  0.051706731	-4.630000E+00	  0.051706731	-6.148100E+01	  0.051706731	4.181500E+01	  0.051706731	-6.576300E+01
215	  0.051902536	-4.630000E+00	  0.051902536	-6.167800E+01	  0.051902536	4.163000E+01	  0.051902536	-6.558500E+01
216	  0.052098341	-4.631000E+00	  0.052098341	-6.188500E+01	  0.052098341	4.143700E+01	  0.052098341	-6.539900E+01
217	  0.052294150	-4.633000E+00	  0.052294150	-6.210300E+01	  0.052294150	4.124400E+01	  0.052294150	-6.519300E+01
218	  0.052489959	-4.634000E+00	  0.052489959	-6.231800E+01	  0.052489959	4.105100E+01	  0.052489959	-6.499600E+01
219	  0.052685764	-4.640000E+00	  0.052685764	-6.254500E+01	  0.052685764	4.087100E+01	  0.052685764	-6.476400E+01
220	  0.052881569	-4.639000E+00	  0.052881569	-6.275300E+01	  0.052881569	4.067700E+01	  0.052881569	-6.458400E+01
221	  0.053077377	-4.643000E+00	  0.053077377	-6.298900E+01	  0.053077377	4.048300E+01	  0.053077377	-6.435600E+01
222	  0.053273182	-4.642000E+00	  0.053273182	-6.321700E+01	  0.053273182	4.027000E+01	  0.053273182	-6.416300E+01
223	  0.053468987	-4.644000E+00	  0.053468987	-6.344500E+01	  0.053468987	4.007500E+01	  0.053468987	-6.395500E+01
224	  0.053664792	-4.642000E+00	  0.053664792	-6.371500E+01	  0.053664792	3.982800E+01	  0.053664792	-6.372800E+01
225	  0.053860601	-4.640000E+00	  0.053860601	-6.394700E+01	  0.053860601	3.961200E+01	  0.053860601	-6.353700E+01
226	  0.054056406	-4.639000E+00	  0.054056406	-6.421500E+01	  0.054056406	3.936700E+01	  0.054056406	-6.331500E+01
227	  0.054252211	-4.638000E+00	  0.054252211	-6.441000E+01	  0.054252211	3.919100E+01	  0.054252211	-6.315300E+01
228	  0.054448016	-4.633000E+00	  0.054448016	-6.462600E+01	  0.054448016	3.898000E+01	  0.054448016	-6.299100E+01
229	  0.054643828	-4.635000E+00	  0.054643828	-6.481700E+01	  0.054643828	3.882600E+01	  0.054643828	-6.281900E+01
230	  0.054839633	-4.631000E+00	  0.054839633	-6.500200E+01	  0.054839633	3.864900E+01	  0.054839633	-6.267800E+01
231	  0.055035438	-4.632000E+00	  0.055035438	-6.521800E+01	  0.055035438	3.847400E+01	  0.055035438	-6.248700E+01
232	  0.055231243	-4.638000E+00	  0.055231243	-6.543200E+01	  0.055231243	3.832500E+01	  0.055231243	-6.227300E+01
233	  0.055427052	-4.636000E+00	  0.055427052	-6.563700E+01	  0.055427052	3.814600E+01	  0.055427052	-6.210600E+01
234	  0.055622857	-4.642000E+00	  0.055622857	-6.586700E+01	  0.055622857	3.799000E+01	  0.055622857	-6.187800E+01
235	  0.055818662	-4.647000E+00	  0.055818662	-6.607000E+01	  0.055818662	3.785400E+01	  0.055818662	-6.167600E+01
236	  0.056014467	-4.650000E+00	  0.056014467	-6.628600E+01	  0.056014467	3.769500E+01	  0.056014467	-6.147600E+01
237	  0.056210276	-4.652000E+00	  0.056210276	-6.651700E+01	  0.056210276	3.752100E+01	  0.056210276	-6.126900E+01
238	  0.056406081	-4.656000E+00	  0.056406081	-6.671400E+01	  0.056406081	3.738100E+01	  0.056406081	-6.108600E+01
239	  0.056601886	-4.655000E+00	  0.056601886	-6.693400E+01	  0.056601886	3.720400E+01	  0.056601886	-6.090300E+01
240	  0.056797691	-4.657000E+00	  0.056797691	-6.720400E+01	  0.056797691	3.700400E+01	  0.056797691	-6.066400E+01
241	  0.056993503	-4.661000E+00	  0.056993503	-6.743400E+01	  0.056993503	3.684400E+01	  0.056993503	-6.045300E+01
242	  0.057189308	-4.661000E+00	  0.057189308	-6.770200E+01	  0.057189308	3.663700E+01	  0.057189308	-6.022900E+01
243	  0.057385113	-4.663000E+00	  0.057385113	-6.793900E+01	  0.057385113	3.646900E+01	  0.057385113	-6.001900E+01
244	  0.057580918	-4.661000E+00	  0.057580918	-6.817800E+01	  0.057580918	3.627400E+01	  0.057580918	-5.983100E+01
245	  0.057776727	-4.661000E+00	  0.057776727	-6.844100E+01	  0.057776727	3.607500E+01	  0.057776727	-5.961400E+01
246	  0.057972532	-4.663000E+00	  0.057972532	-6.866400E+01	  0.057972532	3.591800E+01	  0.057972532	-5.942000E+01
247	  0.058168337	-4.658000E+00	  0.058168337	-6.886400E+01	  0.058168337	3.574500E+01	  0.058168337	-5.927700E+01
248	  0.058364145	-4.659000E+00	  0.058364145	-6.910000E+01	  0.058364145	3.557300E+01	  0.058364145	-5.908000E+01
249	  0.058559950	-4.659000E+00	  0.058559950	-6.930300E+01	  0.058559950	3.542500E+01	  0.058559950	-5.891300E+01
250	  0.058755755	-4.662000E+00	  0.058755755	-6.950800E+01	  0.058755755	3.529500E+01	  0.058755755	-5.872800E+01
251	  0.058951560	-4.660000E+00	  0.058951560	-6.971100E+01	  0.058951560	3.513400E+01	  0.058951560	-5.857300E+01
252	  0.059147369	-4.666000E+00	  0.059147369	-6.994000E+01	  0.059147369	3.500700E+01	  0.059147369	-5.835400E+01
253	  0.059343174	-4.671000E+00	  0.059343174	-7.014300E+01	  0.059343174	3.488800E+01	  0.059343174	-5.816600E+01
254	  0.059538983	-4.674000E+00	  0.059538983	-7.037700E+01	  0.059538983	3.474100E+01	  0.059538983	-5.796100E+01
255	  0.059734788	-4.677000E+00	  0.059734788	-7.059400E+01	  0.059734788	3.460400E+01	  0.059734788	-5.777200E+01
256	  0.059930597	-4.678000E+00	  0.059930597	-7.081700E+01	  0.059930597	3.445100E+01	  0.059930597	-5.758900E+01
257	  0.060126401	-4.682000E+00	  0.060126401	-7.106800E+01	  0.060126401	3.430200E+01	  0.060126401	-5.736700E+01
258	  0.060322206	-4.688000E+00	  0.060322206	-7.135700E+01	  0.060322206	3.413700E+01	  0.060322206	-5.710600E+01
259	  0.060518011	-4.691000E+00	  0.060518011	-7.161400E+01	  0.060518011	3.397600E+01	  0.060518011	-5.689000E+01
260	  0.060713820	-4.694000E+00	  0.060713820	-7.188800E+01	  0.060713820	3.381100E+01	  0.060713820	-5.665600E+01
261	  0.060909625	-4.694000E+00	  0.060909625	-7.214400E+01	  0.060909625	3.364000E+01	  0.060909625	-5.645100E+01
262	  0.061105430	-4.694000E+00	  0.061105430	-7.241600E+01	  0.061105430	3.345900E+01	  0.061105430	-5.623700E+01
263	  0.061301235	-4.697000E+00	  0.061301235	-7.267900E+01	  0.061301235	3.330200E+01	  0.061301235	-5.601600E+01
264	  0.061497044	-4.693000E+00	  0.061497044	-7.292300E+01	  0.061497044	3.312300E+01	  0.061497044	-5.584100E+01
265	  0.061692849	-4.692000E+00	  0.061692849	-7.318900E+01	  0.061692849	3.294800E+01	  0.061692849	-5.563500E+01
266	  0.061888654	-4.691000E+00	  0.061888654	-7.341800E+01	  0.061888654	3.279400E+01	  0.061888654	-5.546100E+01
267	  0.062084462	-4.694000E+00	  0.062084462	-7.368200E+01	  0.062084462	3.264600E+01	  0.062084462	-5.523900E+01
268	  0.062280271	-4.692000E+00	  0.062280271	-7.391800E+01	  0.062280271	3.248500E+01	  0.062280271	-5.506400E+01
269	  0.062476076	-4.686000E+00	  0.062476076	-7.409600E+01	  0.062476076	3.234600E+01	  0.062476076	-5.494800E+01
270	  0.062671877	-4.688000E+00	  0.062671877	-7.434400E+01	  0.062671877	3.220300E+01	  0.062671877	-5.474600E+01
271	  0.062867686	-4.689000E+00	  0.062867686	-7.460600E+01	  0.062867686	3.204500E+01	  0.062867686	-5.454100E+01
272	  0.063063495	-4.690000E+00	  0.063063495	-7.484100E+01	  0.063063495	3.190700E+01	  0.063063495	-5.435400E+01
273	  0.063259304	-4.688000E+00	  0.063259304	-7.512400E+01	  0.063259304	3.172900E+01	  0.063259304	-5.414200E+01
274	  0.063455105	-4.689000E+00	  0.063455105	-7.530600E+01	  0.063455105	3.162600E+01	  0.063455105	-5.399600E+01
275	  0.063650914	-4.691000E+00	  0.063650914	-7.560200E+01	  0.063650914	3.145700E+01	  0.063650914	-5.376400E+01
276	  0.063846722	-4.689000E+00	  0.063846722	-7.584300E+01	  0.063846722	3.131000E+01	  0.063846722	-5.358300E+01
277	  0.064042524	-4.683000E+00	  0.064042524	-7.608000E+01	  0.064042524	3.113600E+01	  0.064042524	-5.342900E+01
278	  0.064238332	-4.692000E+00	  0.064238332	-7.633700E+01	  0.064238332	3.103400E+01	  0.064238332	-5.319800E+01
279	  0.064434141	-4.686000E+00	  0.064434141	-7.657300E+01	  0.064434141	3.087100E+01	  0.064434141	-5.303800E+01
280	  0.064629942	-4.686000E+00	  0.064629942	-7.681900E+01	  0.064629942	3.073200E+01	  0.064629942	-5.285100E+01
281	  0.064825751	-4.685000E+00	  0.064825751	-7.706500E+01	  0.064825751	3.058700E+01	  0.064825751	-5.266800E+01
282	  0.065021552	-4.678000E+00	  0.065021552	-7.730600E+01	  0.065021552	3.041500E+01	  0.065021552	-5.251400E+01
283	  0.065217361	-4.674000E+00	  0.065217361	-7.754200E+01	  0.065217361	3.026700E+01	  0.065217361	-5.234700E+01
284	  0.065413170	-4.676000E+00	  0.065413170	-7.777400E+01	  0.065413170	3.014800E+01	  0.065413170	-5.216600E+01
285	  0.065608978	-4.673000E+00	  0.065608978	-7.801100E+01	  0.065608978	3.000100E+01	  0.065608978	-5.200100E+01
286	  0.065804780	-4.670000E+00	  0.065804780	-7.822700E+01	  0.065804780	2.987000E+01	  0.065804780	-5.184900E+01
287	  0.066000588	-4.675000E+00	  0.066000588	-7.840100E+01	  0.066000588	2.980200E+01	  0.066000588	-5.170000E+01
288	  0.066196397	-4.668000E+00	  0.066196397	-7.859600E+01	  0.066196397	2.966500E+01	  0.066196397	-5.157800E+01
289	  0.066392198	-4.664000E+00	  0.066392198	-7.882000E+01	  0.066392198	2.952500E+01	  0.066392198	-5.142500E+01
290	  0.066588007	-4.662000E+00	  0.066588007	-7.898800E+01	  0.066588007	2.942600E+01	  0.066588007	-5.130700E+01
291	  0.066783816	-4.666000E+00	  0.066783816	-7.917400E+01	  0.066783816	2.934700E+01	  0.066783816	-5.115500E+01
292	  0.066979617	-4.671000E+00	  0.066979617	-7.941000E+01	  0.066979617	2.924700E+01	  0.066979617	-5.096400E+01
293	  0.067175426	-4.673000E+00	  0.067175426	-7.963100E+01	  0.067175426	2.914500E+01	  0.067175426	-5.079100E+01
294	  0.067371234	-4.677000E+00	  0.067371234	-7.986500E+01	  0.067371234	2.904100E+01	  0.067371234	-5.060800E+01
295	  0.067567036	-4.685000E+00	  0.067567036	-8.008500E+01	  0.067567036	2.896800E+01	  0.067567036	-5.041900E+01
296	  0.067762844	-4.681000E+00	  0.067762844	-8.025600E+01	  0.067762844	2.886100E+01	  0.067762844	-5.030700E+01
297	  0.067958646	-4.686000E+00	  0.067958646	-8.053200E+01	  0.067958646	2.874500E+01	  0.067958646	-5.009000E+01
298	  0.068154462	-4.688000E+00	  0.068154462	-8.077600E+01	  0.068154462	2.863500E+01	  0.068154462	-4.990200E+01
299	  0.068350263	-4.691000E+00	  0.068350263	-8.102600E+01	  0.068350263	2.852600E+01	  0.068350263	-4.971100E+01
300	  0.068546072	-4.688000E+00	  0.068546072	-8.123200E+01	  0.068546072	2.840900E+01	  0.068546072	-4.957200E+01
301	  0.068741873	-4.694000E+00	  0.068741873	-8.148300E+01	  0.068741873	2.831200E+01	  0.068741873	-4.937300E+01
302	  0.068937682	-4.696000E+00	  0.068937682	-8.172900E+01	  0.068937682	2.820300E+01	  0.068937682	-4.918800E+01
303	  0.069133483	-4.698000E+00	  0.069133483	-8.195400E+01	  0.069133483	2.810700E+01	  0.069133483	-4.901800E+01
304	  0.069329299	-4.700000E+00	  0.069329299	-8.215700E+01	  0.069329299	2.801900E+01	  0.069329299	-4.886700E+01
305	  0.069525100	-4.702000E+00	  0.069525100	-8.237200E+01	  0.069525100	2.792300E+01	  0.069525100	-4.870900E+01
306	  0.069720909	-4.700000E+00	  0.069720909	-8.261200E+01	  0.069720909	2.780100E+01	  0.069720909	-4.854400E+01
307	  0.069916710	-4.699000E+00	  0.069916710	-8.284700E+01	  0.069916710	2.768700E+01	  0.069916710	-4.837800E+01
308	  0.070112519	-4.704000E+00	  0.070112519	-8.306600E+01	  0.070112519	2.760600E+01	  0.070112519	-4.820900E+01
309	  0.070308320	-4.704000E+00	  0.070308320	-8.330200E+01	  0.070308320	2.749800E+01	  0.070308320	-4.804100E+01
310	  0.070504129	-4.704000E+00	  0.070504129	-8.353100E+01	  0.070504129	2.739200E+01	  0.070504129	-4.788000E+01
311	  0.070699938	-4.710000E+00	  0.070699938	-8.377300E+01	  0.070699938	2.731000E+01	  0.070699938	-4.769100E+01
312	  0.070895746	-4.710000E+00	  0.070895746	-8.400800E+01	  0.070895746	2.720300E+01	  0.070895746	-4.752600E+01
313	  0.071091555	-4.713000E+00	  0.071091555	-8.422200E+01	  0.071091555	2.712100E+01	  0.071091555	-4.736800E+01
314	  0.071287356	-4.724000E+00	  0.071287356	-8.450500E+01	  0.071287356	2.704400E+01	  0.071287356	-4.713700E+01
315	  0.071483165	-4.723000E+00	  0.071483165	-8.473700E+01	  0.071483165	2.693700E+01	  0.071483165	-4.697900E+01
316	  0.071678966	-4.723000E+00	  0.071678966	-8.497100E+01	  0.071678966	2.683500E+01	  0.071678966	-4.681500E+01
317	  0.071874775	-4.729000E+00	  0.071874775	-8.524600E+01	  0.071874775	2.674100E+01	  0.071874775	-4.660900E+01
318	  0.072070576	-4.724000E+00	  0.072070576	-8.548200E+01	  0.072070576	2.661900E+01	  0.072070576	-4.645900E+01
319	  0.072266392	-4.725000E+00	  0.072266392	-8.576400E+01	  0.072266392	2.650300E+01	  0.072266392	-4.626200E+01
320	  0.072462194	-4.724000E+00	  0.072462194	-8.605200E+01	  0.072462194	2.637500E+01	  0.072462194	-4.606800E+01
321	  0.072658002	-4.727000E+00	  0.072658002	-8.625500E+01	  0.072658002	2.630100E+01	  0.072658002	-4.592100E+01
322	  0.072853811	-4.728000E+00	  0.072853811	-8.648100E+01	  0.072853811	2.620900E+01	  0.072853811	-4.576500E+01
323	  0.073049612	-4.725000E+00	  0.073049612	-8.674000E+01	  0.073049612	2.608700E+01	  0.073049612	-4.559600E+01
324	  0.073245421	-4.726000E+00	  0.073245421	-8.697600E+01	  0.073245421	2.599500E+01	  0.073245421	-4.543300E+01
325	  0.073441222	-4.726000E+00	  0.073441222	-8.719500E+01	  0.073441222	2.590500E+01	  0.073441222	-4.528400E+01
326	  0.073637031	-4.725000E+00	  0.073637031	-8.744200E+01	  0.073637031	2.579900E+01	  0.073637031	-4.512000E+01
327	  0.073832840	-4.724000E+00	  0.073832840	-8.767700E+01	  0.073832840	2.570200E+01	  0.073832840	-4.496400E+01
328	  0.074028648	-4.724000E+00	  0.074028648	-8.792300E+01	  0.074028648	2.560100E+01	  0.074028648	-4.479900E+01
329	  0.074224450	-4.726000E+00	  0.074224450	-8.816500E+01	  0.074224450	2.551700E+01	  0.074224450	-4.463000E+01
330	  0.074420258	-4.726000E+00	  0.074420258	-8.838400E+01	  0.074420258	2.543000E+01	  0.074420258	-4.448300E+01
331	  0.074616060	-4.729000E+00	  0.074616060	-8.864800E+01	  0.074616060	2.533800E+01	  0.074616060	-4.429900E+01
332	  0.074811868	-4.733000E+00	  0.074811868	-8.889300E+01	  0.074811868	2.526100E+01	  0.074811868	-4.412600E+01
333	  0.075007670	-4.731000E+00	  0.075007670	-8.915000E+01	  0.075007670	2.515000E+01	  0.075007670	-4.396100E+01
334	  0.075203478	-4.740000E+00	  0.075203478	-8.937900E+01	  0.075203478	2.510300E+01	  0.075203478	-4.378600E+01
335	  0.075399294	-4.739000E+00	  0.075399294	-8.963700E+01	  0.075399294	2.500100E+01	  0.075399294	-4.361700E+01
336	  0.075595096	-4.740000E+00	  0.075595096	-8.987600E+01	  0.075595096	2.491500E+01	  0.075595096	-4.345800E+01
337	  0.075790904	-4.737000E+00	  0.075790904	-9.016000E+01	  0.075790904	2.479500E+01	  0.075790904	-4.327800E+01
338	  0.075986706	-4.739000E+00	  0.075986706	-9.037200E+01	  0.075986706	2.472400E+01	  0.075986706	-4.313500E+01
339	  0.076182514	-4.743000E+00	  0.076182514	-9.061800E+01	  0.076182514	2.464900E+01	  0.076182514	-4.296500E+01
340	  0.076378316	-4.737000E+00	  0.076378316	-9.085800E+01	  0.076378316	2.453500E+01	  0.076378316	-4.282300E+01
341	  0.076574124	-4.737000E+00	  0.076574124	-9.112300E+01	  0.076574124	2.443800E+01	  0.076574124	-4.265100E+01
342	  0.076769926	-4.731000E+00	  0.076769926	-9.133900E+01	  0.076769926	2.433300E+01	  0.076769926	-4.252500E+01
343	  0.076965742	-4.730000E+00	  0.076965742	-9.158000E+01	  0.076965742	2.424200E+01	  0.076965742	-4.237100E+01
344	  0.077161543	-4.725000E+00	  0.077161543	-9.178800E+01	  0.077161543	2.414800E+01	  0.077161543	-4.224800E+01
345	  0.077357352	-4.732000E+00	  0.077357352	-9.197700E+01	  0.077357352	2.411000E+01	  0.077357352	-4.211000E+01
346	  0.077553153	-4.729000E+00	  0.077553153	-9.221000E+01	  0.077553153	2.401400E+01	  0.077553153	-4.196700E+01
347	  0.077748962	-4.728000E+00	  0.077748962	-9.240900E+01	  0.077748962	2.394000E+01	  0.077748962	-4.184200E+01
348	  0.077944770	-4.733000E+00	  0.077944770	-9.262900E+01	  0.077944770	2.388700E+01	  0.077944770	-4.168800E+01
349	  0.078140572	-4.733000E+00	  0.078140572	-9.286100E+01	  0.078140572	2.380300E+01	  0.078140572	-4.154100E+01
350	  0.078336388	-4.733000E+00	  0.078336388	-9.308600E+01	  0.078336388	2.372700E+01	  0.078336388	-4.139800E+01
351	  0.078532189	-4.733000E+00	  0.078532189	-9.330200E+01	  0.078532189	2.365200E+01	  0.078532189	-4.126100E+01
352	  0.078727998	-4.741000E+00	  0.078727998	-9.353600E+01	  0.078727998	2.360600E+01	  0.078727998	-4.109400E+01
353	  0.078923799	-4.740000E+00	  0.078923799	-9.372500E+01	  0.078923799	2.353800E+01	  0.078923799	-4.097600E+01
354	  0.079119608	-4.754000E+00	  0.079119608	-9.399600E+01	  0.079119608	2.350600E+01	  0.079119608	-4.077400E+01
355	  0.079315409	-4.750000E+00	  0.079315409	-9.422100E+01	  0.079315409	2.341500E+01	  0.079315409	-4.064100E+01
356	  0.079511218	-4.753000E+00	  0.079511218	-9.448200E+01	  0.079511218	2.334300E+01	  0.079511218	-4.046900E+01
357	  0.079707019	-4.758000E+00	  0.079707019	-9.472000E+01	  0.079707019	2.328300E+01	  0.079707019	-4.031100E+01
358	  0.079902835	-4.757000E+00	  0.079902835	-9.494900E+01	  0.079902835	2.320400E+01	  0.079902835	-4.017000E+01
359	  0.080098644	-4.759000E+00	  0.080098644	-9.520700E+01	  0.080098644	2.313100E+01	  0.080098644	-4.000400E+01
360	  0.080294445	-4.761000E+00	  0.080294445	-9.544000E+01	  0.080294445	2.306300E+01	  0.080294445	-3.985500E+01
361	  0.080490254	-4.762000E+00	  0.080490254	-9.567600E+01	  0.080490254	2.299300E+01	  0.080490254	-3.970600E+01
362	  0.080686055	-4.757000E+00	  0.080686055	-9.590700E+01	  0.080686055	2.289700E+01	  0.080686055	-3.957500E+01
363	  0.080881864	-4.765000E+00	  0.080881864	-9.615300E+01	  0.080881864	2.285200E+01	  0.080881864	-3.940600E+01
364	  0.081077665	-4.768000E+00	  0.081077665	-9.639300E+01	  0.081077665	2.279100E+01	  0.081077665	-3.925200E+01
365	  0.081273474	-4.764000E+00	  0.081273474	-9.662500E+01	  0.081273474	2.270200E+01	  0.081273474	-3.911800E+01
366	  0.081469283	-4.772000E+00	  0.081469283	-9.687700E+01	  0.081469283	2.265700E+01	  0.081469283	-3.894600E+01
367	  0.081665091	-4.773000E+00	  0.081665091	-9.714500E+01	  0.081665091	2.257800E+01	  0.081665091	-3.878100E+01
368	  0.081860892	-4.779000E+00	  0.081860892	-9.739600E+01	  0.081860892	2.252400E+01	  0.081860892	-3.861700E+01
369	  0.082056701	-4.783000E+00	  0.082056701	-9.767800E+01	  0.082056701	2.245600E+01	  0.082056701	-3.843700E+01
370	  0.082252502	-4.791000E+00	  0.082252502	-9.796400E+01	  0.082252502	2.240100E+01	  0.082252502	-3.824900E+01
371	  0.082448311	-4.792000E+00	  0.082448311	-9.823900E+01	  0.082448311	2.232300E+01	  0.082448311	-3.808100E+01
372	  0.082644112	-4.792000E+00	  0.082644112	-9.852400E+01	  0.082644112	2.224000E+01	  0.082644112	-3.790900E+01
373	  0.082839929	-4.795000E+00	  0.082839929	-9.877800E+01	  0.082839929	2.217800E+01	  0.082839929	-3.775100E+01
374	  0.083035737	-4.795000E+00	  0.083035737	-9.903400E+01	  0.083035737	2.210400E+01	  0.083035737	-3.759700E+01
375	  0.083231539	-4.796000E+00	  0.083231539	-9.933600E+01	  0.083231539	2.201800E+01	  0.083231539	-3.741600E+01
376	  0.083427347	-4.798000E+00	  0.083427347	-9.961300E+01	  0.083427347	2.194600E+01	  0.083427347	-3.724800E+01
377	  0.083623149	-4.792000E+00	  0.083623149	-9.989200E+01	  0.083623149	2.184400E+01	  0.083623149	-3.709300E+01
378	  0.083818957	-4.784000E+00	  0.083818957	-1.001440E+02	  0.083818957	2.174200E+01	  0.083818957	-3.695900E+01
379	  0.084014758	-4.781000E+00	  0.084014758	-1.004240E+02	  0.084014758	2.165300E+01	  0.084014758	-3.679800E+01
380	  0.084210567	-4.780000E+00	  0.084210567	-1.006400E+02	  0.084210567	2.158800E+01	  0.084210567	-3.667300E+01
381	  0.084406376	-4.780000E+00	  0.084406376	-1.008770E+02	  0.084406376	2.152200E+01	  0.084406376	-3.653300E+01
382	  0.084602185	-4.771000E+00	  0.084602185	-1.011330E+02	  0.084602185	2.141900E+01	  0.084602185	-3.639800E+01
383	  0.084797986	-4.772000E+00	  0.084797986	-1.013460E+02	  0.084797986	2.136500E+01	  0.084797986	-3.627100E+01
384	  0.084993795	-4.772000E+00	  0.084993795	-1.015720E+02	  0.084993795	2.130500E+01	  0.084993795	-3.613900E+01
385	  0.085189603	-4.770000E+00	  0.085189603	-1.018340E+02	  0.085189603	2.122500E+01	  0.085189603	-3.599000E+01
386	  0.085385405	-4.768000E+00	  0.085385405	-1.020910E+02	  0.085385405	2.115100E+01	  0.085385405	-3.584300E+01
387	  0.085581213	-4.766000E+00	  0.085581213	-1.022850E+02	  0.085581213	2.109200E+01	  0.085581213	-3.573400E+01
388	  0.085777014	-4.770000E+00	  0.085777014	-1.025400E+02	  0.085777014	2.104100E+01	  0.085777014	-3.557800E+01
389	  0.085972831	-4.768000E+00	  0.085972831	-1.027340E+02	  0.085972831	2.098300E+01	  0.085972831	-3.546900E+01
390	  0.086168632	-4.772000E+00	  0.086168632	-1.030010E+02	  0.086168632	2.092900E+01	  0.086168632	-3.530900E+01
391	  0.086364441	-4.776000E+00	  0.086364441	-1.032440E+02	  0.086364441	2.088100E+01	  0.086364441	-3.516100E+01
392	  0.086560242	-4.772000E+00	  0.086560242	-1.034870E+02	  0.086560242	2.080200E+01	  0.086560242	-3.502900E+01
393	  0.086756051	-4.776000E+00	  0.086756051	-1.036980E+02	  0.086756051	2.076600E+01	  0.086756051	-3.490000E+01
394	  0.086951852	-4.779000E+00	  0.086951852	-1.039470E+02	  0.086951852	2.071200E+01	  0.086951852	-3.475400E+01
395	  0.087147661	-4.772000E+00	  0.087147661	-1.041890E+02	  0.087147661	2.062800E+01	  0.087147661	-3.462600E+01
396	  0.087343477	-4.774000E+00	  0.087343477	-1.044250E+02	  0.087343477	2.057400E+01	  0.087343477	-3.448900E+01
397	  0.087539278	-4.771000E+00	  0.087539278	-1.046710E+02	  0.087539278	2.050400E+01	  0.087539278	-3.435300E+01
398	  0.087735087	-4.769000E+00	  0.087735087	-1.048600E+02	  0.087735087	2.044900E+01	  0.087735087	-3.424900E+01
399	  0.087930888	-4.774000E+00	  0.087930888	-1.051020E+02	  0.087930888	2.040900E+01	  0.087930888	-3.410400E+01
400	  0.088126697	-4.768000E+00	  0.088126697	-1.053000E+02	  0.088126697	2.033800E+01	  0.088126697	-3.400200E+01
401	  0.088322498	-4.766000E+00	  0.088322498	-1.055520E+02	  0.088322498	2.027100E+01	  0.088322498	-3.386200E+01
402	  0.088518307	-4.771000E+00	  0.088518307	-1.057770E+02	  0.088518307	2.023400E+01	  0.088518307	-3.372700E+01
403	  0.088714108	-4.772000E+00	  0.088714108	-1.060300E+02	  0.088714108	2.017800E+01	  0.088714108	-3.358400E+01
404	  0.088909924	-4.776000E+00	  0.088909924	-1.062420E+02	  0.088909924	2.014500E+01	  0.088909924	-3.345800E+01
405	  0.089105725	-4.774000E+00	  0.089105725	-1.064610E+02	  0.089105725	2.008600E+01	  0.089105725	-3.333800E+01
406	  0.089301534	-4.781000E+00	  0.089301534	-1.066850E+02	  0.089301534	2.005800E+01	  0.089301534	-3.320300E+01
407	  0.089497335	-4.779000E+00	  0.089497335	-1.069150E+02	  0.089497335	1.999900E+01	  0.089497335	-3.307600E+01
408	  0.089693144	-4.785000E+00	  0.089693144	-1.071070E+02	  0.089693144	1.997500E+01	  0.089693144	-3.296100E+01
409	  0.089888945	-4.788000E+00	  0.089888945	-1.073610E+02	  0.089888945	1.992900E+01	  0.089888945	-3.281500E+01
410	  0.090084754	-4.789000E+00	  0.090084754	-1.076180E+02	  0.090084754	1.987300E+01	  0.090084754	-3.267200E+01
411	  0.090280563	-4.790000E+00	  0.090280563	-1.078380E+02	  0.090280563	1.982900E+01	  0.090280563	-3.254700E+01
412	  0.090476371	-4.789000E+00	  0.090476371	-1.080730E+02	  0.090476371	1.977100E+01	  0.090476371	-3.242000E+01
413	  0.090672180	-4.788000E+00	  0.090672180	-1.083290E+02	  0.090672180	1.971000E+01	  0.090672180	-3.228000E+01
414	  0.090867981	-4.790000E+00	  0.090867981	-1.085710E+02	  0.090867981	1.966400E+01	  0.090867981	-3.214400E+01
415	  0.091063790	-4.788000E+00	  0.091063790	-1.088170E+02	  0.091063790	1.960300E+01	  0.091063790	-3.201200E+01
416	  0.091259591	-4.785000E+00	  0.091259591	-1.089990E+02	  0.091259591	1.955100E+01	  0.091259591	-3.191700E+01
417	  0.091455400	-4.786000E+00	  0.091455400	-1.092370E+02	  0.091455400	1.950400E+01	  0.091455400	-3.178500E+01
418	  0.091651201	-4.785000E+00	  0.091651201	-1.094370E+02	  0.091651201	1.945900E+01	  0.091651201	-3.167700E+01
419	  0.091847017	-4.790000E+00	  0.091847017	-1.096790E+02	  0.091847017	1.942300E+01	  0.091847017	-3.153900E+01
420	  0.092042819	-4.791000E+00	  0.092042819	-1.098950E+02	  0.092042819	1.938000E+01	  0.092042819	-3.142000E+01
421	  0.092238627	-4.791000E+00	  0.092238627	-1.101170E+02	  0.092238627	1.933500E+01	  0.092238627	-3.129900E+01
422	  0.092434436	-4.792000E+00	  0.092434436	-1.103250E+02	  0.092434436	1.929400E+01	  0.092434436	-3.118500E+01
423	  0.092630237	-4.799000E+00	  0.092630237	-1.105510E+02	  0.092630237	1.927100E+01	  0.092630237	-3.105400E+01
424	  0.092826046	-4.804000E+00	  0.092826046	-1.107790E+02	  0.092826046	1.924200E+01	  0.092826046	-3.092300E+01
425	  0.093021847	-4.809000E+00	  0.093021847	-1.110470E+02	  0.093021847	1.920500E+01	  0.093021847	-3.077200E+01
426	  0.093217656	-4.809000E+00	  0.093217656	-1.112850E+02	  0.093217656	1.915500E+01	  0.093217656	-3.064500E+01
427	  0.093413465	-4.817000E+00	  0.093413465	-1.115220E+02	  0.093413465	1.913400E+01	  0.093413465	-3.050800E+01
428	  0.093609273	-4.821000E+00	  0.093609273	-1.118020E+02	  0.093609273	1.909400E+01	  0.093609273	-3.035200E+01
429	  0.093805075	-4.828000E+00	  0.093805075	-1.120600E+02	  0.093805075	1.906600E+01	  0.093805075	-3.020500E+01
430	  0.094000883	-4.826000E+00	  0.094000883	-1.123330E+02	  0.094000883	1.900200E+01	  0.094000883	-3.006300E+01
431	  0.094196685	-4.829000E+00	  0.094196685	-1.126180E+02	  0.094196685	1.895600E+01	  0.094196685	-2.990800E+01
432	  0.094392493	-4.829000E+00	  0.094392493	-1.128710E+02	  0.094392493	1.890700E+01	  0.094392493	-2.977400E+01
433	  0.094588295	-4.834000E+00	  0.094588295	-1.131670E+02	  0.094588295	1.886600E+01	  0.094588295	-2.961200E+01
434	  0.094784103	-4.829000E+00	  0.094784103	-1.134460E+02	  0.094784103	1.879700E+01	  0.094784103	-2.947000E+01
435	  0.094979919	-4.834000E+00	  0.094979919	-1.137050E+02	  0.094979919	1.876400E+01	  0.094979919	-2.932800E+01
436	  0.095175721	-4.834000E+00	  0.095175721	-1.139920E+02	  0.095175721	1.870600E+01	  0.095175721	-2.917800E+01
437	  0.095371529	-4.828000E+00	  0.095371529	-1.142610E+02	  0.095371529	1.863700E+01	  0.095371529	-2.904400E+01
438	  0.095567331	-4.831000E+00	  0.095567331	-1.145520E+02	  0.095567331	1.859100E+01	  0.095567331	-2.888900E+01
439	  0.095763139	-4.827000E+00	  0.095763139	-1.148210E+02	  0.095763139	1.852600E+01	  0.095763139	-2.875400E+01
440	  0.095958941	-4.828000E+00	  0.095958941	-1.151070E+02	  0.095958941	1.847700E+01	  0.095958941	-2.860300E+01
441	  0.096154749	-4.826000E+00	  0.096154749	-1.153870E+02	  0.096154749	1.841900E+01	  0.096154749	-2.846100E+01
442	  0.096350558	-4.823000E+00	  0.096350558	-1.156670E+02	  0.096350558	1.836000E+01	  0.096350558	-2.831800E+01
443	  0.096546367	-4.823000E+00	  0.096546367	-1.159130E+02	  0.096546367	1.831500E+01	  0.096546367	-2.819100E+01
444	  0.096742168	-4.823000E+00	  0.096742168	-1.161650E+02	  0.096742168	1.826900E+01	  0.096742168	-2.806200E+01
445	  0.096937977	-4.818000E+00	  0.096937977	-1.164260E+02	  0.096937977	1.820500E+01	  0.096937977	-2.793300E+01
446	  0.097133778	-4.819000E+00	  0.097133778	-1.166890E+02	  0.097133778	1.816300E+01	  0.097133778	-2.779600E+01
447	  0.097329587	-4.811000E+00	  0.097329587	-1.169190E+02	  0.097329587	1.809500E+01	  0.097329587	-2.768800E+01
448	  0.097525395	-4.805000E+00	  0.097525395	-1.171560E+02	  0.097525395	1.803500E+01	  0.097525395	-2.757300E+01
449	  0.097721197	-4.801000E+00	  0.097721197	-1.173890E+02	  0.097721197	1.797900E+01	  0.097721197	-2.745900E+01
450	  0.097917013	-4.794000E+00	  0.097917013	-1.176550E+02	  0.097917013	1.791100E+01	  0.097917013	-2.733000E+01
451	  0.098112814	-4.793000E+00	  0.098112814	-1.178430E+02	  0.098112814	1.787500E+01	  0.098112814	-2.723500E+01
452	  0.098308623	-4.784000E+00	  0.098308623	-1.180590E+02	  0.098308623	1.780900E+01	  0.098308623	-2.713500E+01
453	  0.098504424	-4.779000E+00	  0.098504424	-1.182530E+02	  0.098504424	1.775700E+01	  0.098504424	-2.704300E+01
454	  0.098700233	-4.781000E+00	  0.098700233	-1.184540E+02	  0.098700233	1.773000E+01	  0.098700233	-2.693800E+01
455	  0.098896034	-4.771000E+00	  0.098896034	-1.186500E+02	  0.098896034	1.766700E+01	  0.098896034	-2.684900E+01
456	  0.099091843	-4.769000E+00	  0.099091843	-1.188190E+02	  0.099091843	1.763300E+01	  0.099091843	-2.676600E+01
457	  0.099287644	-4.768000E+00	  0.099287644	-1.189970E+02	  0.099287644	1.759800E+01	  0.099287644	-2.667700E+01
458	  0.099483460	-4.768000E+00	  0.099483460	-1.191970E+02	  0.099483460	1.756500E+01	  0.099483460	-2.657600E+01
459	  0.099679269	-4.769000E+00	  0.099679269	-1.193720E+02	  0.099679269	1.754200E+01	  0.099679269	-2.648600E+01
460	  0.099875070	-4.764000E+00	  0.099875070	-1.195720E+02	  0.099875070	1.749200E+01	  0.099875070	-2.639000E+01
461	  0.100070879	-4.771000E+00	  0.100070879	-1.197210E+02	  0.100070879	1.749000E+01	  0.100070879	-2.630800E+01
462	  0.100266680	-4.771000E+00	  0.100266680	-1.198810E+02	  0.100266680	1.746500E+01	  0.100266680	-2.622800E+01
463	  0.100462489	-4.782000E+00	  0.100462489	-1.201030E+02	  0.100462489	1.746700E+01	  0.100462489	-2.610400E+01
464	  0.100658290	-4.771000E+00	  0.100658290	-1.202720E+02	  0.100658290	1.740400E+01	  0.100658290	-2.603100E+01
465	  0.100854106	-4.781000E+00	  0.100854106	-1.204660E+02	  0.100854106	1.740700E+01	  0.100854106	-2.592300E+01
466	  0.101049908	-4.783000E+00	  0.101049908	-1.206470E+02	  0.101049908	1.738400E+01	  0.101049908	-2.583000E+01
467	  0.101245716	-4.790000E+00	  0.101245716	-1.208910E+02	  0.101245716	1.736800E+01	  0.101245716	-2.570200E+01
468	  0.101441517	-4.796000E+00	  0.101441517	-1.210670E+02	  0.101441517	1.736000E+01	  0.101441517	-2.560800E+01
469	  0.101637326	-4.797000E+00	  0.101637326	-1.212760E+02	  0.101637326	1.733200E+01	  0.101637326	-2.550200E+01
470	  0.101833127	-4.811000E+00	  0.101833127	-1.214920E+02	  0.101833127	1.734600E+01	  0.101833127	-2.538100E+01
471	  0.102028936	-4.808000E+00	  0.102028936	-1.217490E+02	  0.102028936	1.729600E+01	  0.102028936	-2.525700E+01
472	  0.102224737	-4.816000E+00	  0.102224737	-1.219460E+02	  0.102224737	1.729200E+01	  0.102224737	-2.515100E+01
473	  0.102420554	-4.821000E+00	  0.102420554	-1.222240E+02	  0.102420554	1.726400E+01	  0.102420554	-2.500900E+01
474	  0.102616362	-4.831000E+00	  0.102616362	-1.224390E+02	  0.102616362	1.726500E+01	  0.102616362	-2.489300E+01
475	  0.102812164	-4.828000E+00	  0.102812164	-1.227400E+02	  0.102812164	1.721100E+01	  0.102812164	-2.474800E+01
476	  0.103007972	-4.838000E+00	  0.103007972	-1.229650E+02	  0.103007972	1.721100E+01	  0.103007972	-2.462700E+01
477	  0.103203773	-4.839000E+00	  0.103203773	-1.232380E+02	  0.103203773	1.717200E+01	  0.103203773	-2.449300E+01
478	  0.103399582	-4.842000E+00	  0.103399582	-1.234680E+02	  0.103399582	1.714900E+01	  0.103399582	-2.437700E+01
479	  0.103595383	-4.845000E+00	  0.103595383	-1.237630E+02	  0.103595383	1.711700E+01	  0.103595383	-2.423000E+01
480	  0.103791192	-4.844000E+00	  0.103791192	-1.240220E+02	  0.103791192	1.707600E+01	  0.103791192	-2.410500E+01
481	  0.103987001	-4.849000E+00	  0.103987001	-1.242530E+02	  0.103987001	1.705700E+01	  0.103987001	-2.398800E+01
482	  0.104182810	-4.851000E+00	  0.104182810	-1.245260E+02	  0.104182810	1.702700E+01	  0.104182810	-2.385300E+01
483	  0.104378611	-4.854000E+00	  0.104378611	-1.247660E+02	  0.104378611	1.700000E+01	  0.104378611	-2.373500E+01
484	  0.104574420	-4.854000E+00	  0.104574420	-1.250340E+02	  0.104574420	1.696300E+01	  0.104574420	-2.360500E+01
485	  0.104770228	-4.849000E+00	  0.104770228	-1.252640E+02	  0.104770228	1.691500E+01	  0.104770228	-2.349900E+01
486	  0.104966030	-4.861000E+00	  0.104966030	-1.254960E+02	  0.104966030	1.692100E+01	  0.104966030	-2.337600E+01
487	  0.105161838	-4.853000E+00	  0.105161838	-1.257910E+02	  0.105161838	1.685800E+01	  0.105161838	-2.324000E+01
488	  0.105357639	-4.859000E+00	  0.105357639	-1.260040E+02	  0.105357639	1.684600E+01	  0.105357639	-2.313300E+01
489	  0.105553456	-4.859000E+00	  0.105553456	-1.262980E+02	  0.105553456	1.680600E+01	  0.105553456	-2.299200E+01
490	  0.105749257	-4.854000E+00	  0.105749257	-1.265550E+02	  0.105749257	1.675400E+01	  0.105749257	-2.287400E+01
491	  0.105945066	-4.852000E+00	  0.105945066	-1.267850E+02	  0.105945066	1.671900E+01	  0.105945066	-2.276500E+01
492	  0.106140867	-4.852000E+00	  0.106140867	-1.269890E+02	  0.106140867	1.669100E+01	  0.106140867	-2.266800E+01
493	  0.106336676	-4.854000E+00	  0.106336676	-1.272310E+02	  0.106336676	1.666700E+01	  0.106336676	-2.255000E+01
494	  0.106532477	-4.850000E+00	  0.106532477	-1.274340E+02	  0.106532477	1.662700E+01	  0.106532477	-2.245700E+01
495	  0.106728286	-4.853000E+00	  0.106728286	-1.276670E+02	  0.106728286	1.660700E+01	  0.106728286	-2.234400E+01
496	  0.106924094	-4.853000E+00	  0.106924094	-1.278840E+02	  0.106924094	1.657900E+01	  0.106924094	-2.224100E+01
497	  0.107119903	-4.856000E+00	  0.107119903	-1.281230E+02	  0.107119903	1.655700E+01	  0.107119903	-2.212500E+01
498	  0.107315712	-4.859000E+00	  0.107315712	-1.283700E+02	  0.107315712	1.653500E+01	  0.107315712	-2.200500E+01
499	  0.107511513	-4.860000E+00	  0.107511513	-1.286160E+02	  0.107511513	1.650800E+01	  0.107511513	-2.188800E+01
500	  0.107707322	-4.866000E+00	  0.107707322	-1.288430E+02	  0.107707322	1.649700E+01	  0.107707322	-2.177600E+01
501	  0.107903123	-4.865000E+00	  0.107903123	-1.291010E+02	  0.107903123	1.646200E+01	  0.107903123	-2.165500E+01
