! Anritsu VNA Master:             	Model: MS2036C/10/77
! SN:             	1601066
! /card0/usr/255.ew.n.r20.1_1.txt
! Existing Calibration Information:
! TYPE:             	Current Settings	Active Cal Settings
! TIME:             	12/17/2017 06:42:06 PM	12/17/2017 06:38:14 PM
! INTERNAL TEMP:    	43.8 C	43.8 C
! # POINTS:         	501	501
! START FREQ:       	10.000 MHz	10.000 MHz
! STOP FREQ:        	107.903 125 MHz	107.903 125 MHz
! SOURCE POWER:     	High	High
! IFBW:             	100 Hz	100 Hz
! AVG FACTOR:       	  1 	  1 
! REF PLANE 1:      	0 mm	0 mm
! REF PLANE 2:      	0 mm	0 mm
! CAL TYPE:         	Full S11	Full S11
! CAL METHOD:       	SOLT	SOLT
! CAL LINE TYPE:    	Coax	Coax
! DUT PORT 1:       	N-Conn(F)	N-Conn(F)
! DUT PORT 2:       	K-Conn(F)	K-Conn(F)
! CAL STATUS:       	OK: Accuracy High	--
! PROP-V:       	0.700
! CABLE LOSS:       	0.000 dB/m
! REF IMPEDANCE:       	50.0
! Trace Specific Parameters:	TR1	TR2	TR3	TR4
! TRACE.#.Y (GRAPH TYPE)	LOG MAG	PHASE	REAL IMPEDANCE	IMAGINARY IMPEDANCE
! TRACE.#.X 	FREQ.GHZ	FREQ.GHZ	FREQ.GHZ	FREQ.GHZ
! S-PARAMETER	S11	S11	S11	S11
! SMOOTH/APERTURE %	0	0	0	0
! WINDOW	NSL	NSL	NSL	NSL
! GATING	OFF	OFF	OFF	OFF
! FGTD	OFF	OFF	OFF	OFF
Marker Information per Trace:	TR1	TR2	TR3	TR4
!MK1	--	--	--	--
!MK2	--	--	--	--
!MK3	--	--	--	--
!MK4	--	--	--	--
!MK5	--	--	--	--
!MK6	--	--	--	--
!MK7	--	--	--	--
!MK8	--	--	--	--
PNT	TR1.FREQ.GHZ	TR1.LOG MAG.dB	TR2.FREQ.GHZ	TR2.PHASE.deg	TR3.FREQ.GHZ	TR3.REAL IMPEDANCE.ohm	TR4.FREQ.GHZ	TR4.IMAGINARY IMPEDANCE.ohm
1	  0.010000000	-7.219000E+00	  0.010000000	1.670090E+02	  0.010000000	1.987400E+01	  0.010000000	4.802000E+00
2	  0.010195807	-7.207000E+00	  0.010195807	1.667960E+02	  0.010195807	1.985200E+01	  0.010195807	4.884000E+00
3	  0.010391613	-7.206000E+00	  0.010391613	1.665570E+02	  0.010391613	1.985900E+01	  0.010391613	4.973000E+00
4	  0.010587418	-7.209000E+00	  0.010587418	1.663060E+02	  0.010587418	1.987500E+01	  0.010587418	5.066000E+00
5	  0.010783225	-7.209000E+00	  0.010783225	1.660490E+02	  0.010783225	1.988400E+01	  0.010783225	5.161000E+00
6	  0.010979031	-7.213000E+00	  0.010979031	1.657710E+02	  0.010979031	1.990500E+01	  0.010979031	5.264000E+00
7	  0.011174837	-7.215000E+00	  0.011174837	1.655020E+02	  0.011174837	1.991800E+01	  0.011174837	5.363000E+00
8	  0.011370643	-7.213000E+00	  0.011370643	1.652670E+02	  0.011370643	1.992100E+01	  0.011370643	5.452000E+00
9	  0.011566450	-7.220000E+00	  0.011566450	1.650190E+02	  0.011566450	1.994800E+01	  0.011566450	5.542000E+00
10	  0.011762256	-7.219000E+00	  0.011762256	1.647860E+02	  0.011762256	1.995600E+01	  0.011762256	5.629000E+00
11	  0.011958062	-7.216000E+00	  0.011958062	1.645210E+02	  0.011958062	1.995900E+01	  0.011958062	5.728000E+00
12	  0.012153869	-7.219000E+00	  0.012153869	1.642580E+02	  0.012153869	1.997700E+01	  0.012153869	5.826000E+00
13	  0.012349674	-7.219000E+00	  0.012349674	1.639690E+02	  0.012349674	1.998900E+01	  0.012349674	5.933000E+00
14	  0.012545481	-7.221000E+00	  0.012545481	1.637100E+02	  0.012545481	2.000300E+01	  0.012545481	6.029000E+00
15	  0.012741288	-7.224000E+00	  0.012741288	1.634690E+02	  0.012741288	2.002100E+01	  0.012741288	6.119000E+00
16	  0.012937094	-7.227000E+00	  0.012937094	1.632520E+02	  0.012937094	2.003800E+01	  0.012937094	6.198000E+00
17	  0.013132900	-7.233000E+00	  0.013132900	1.629880E+02	  0.013132900	2.006500E+01	  0.013132900	6.295000E+00
18	  0.013328707	-7.229000E+00	  0.013328707	1.627260E+02	  0.013328707	2.006600E+01	  0.013328707	6.394000E+00
19	  0.013524513	-7.228000E+00	  0.013524513	1.624950E+02	  0.013524513	2.007500E+01	  0.013524513	6.481000E+00
20	  0.013720319	-7.227000E+00	  0.013720319	1.622760E+02	  0.013720319	2.008200E+01	  0.013720319	6.563000E+00
21	  0.013916126	-7.226000E+00	  0.013916126	1.619800E+02	  0.013916126	2.009200E+01	  0.013916126	6.674000E+00
22	  0.014111931	-7.230000E+00	  0.014111931	1.617680E+02	  0.014111931	2.011200E+01	  0.014111931	6.751000E+00
23	  0.014307737	-7.233000E+00	  0.014307737	1.615150E+02	  0.014307737	2.013300E+01	  0.014307737	6.845000E+00
24	  0.014503544	-7.233000E+00	  0.014503544	1.612660E+02	  0.014503544	2.014500E+01	  0.014503544	6.938000E+00
25	  0.014699350	-7.236000E+00	  0.014699350	1.609950E+02	  0.014699350	2.016500E+01	  0.014699350	7.039000E+00
26	  0.014895156	-7.237000E+00	  0.014895156	1.607620E+02	  0.014895156	2.018100E+01	  0.014895156	7.125000E+00
27	  0.015090963	-7.240000E+00	  0.015090963	1.605070E+02	  0.015090963	2.019900E+01	  0.015090963	7.220000E+00
28	  0.015286769	-7.241000E+00	  0.015286769	1.602530E+02	  0.015286769	2.021600E+01	  0.015286769	7.315000E+00
29	  0.015482575	-7.243000E+00	  0.015482575	1.599880E+02	  0.015482575	2.023300E+01	  0.015482575	7.413000E+00
30	  0.015678382	-7.247000E+00	  0.015678382	1.597390E+02	  0.015678382	2.025800E+01	  0.015678382	7.505000E+00
31	  0.015874187	-7.246000E+00	  0.015874187	1.594900E+02	  0.015874187	2.026700E+01	  0.015874187	7.599000E+00
32	  0.016069993	-7.248000E+00	  0.016069993	1.592500E+02	  0.016069993	2.028700E+01	  0.016069993	7.688000E+00
33	  0.016265800	-7.251000E+00	  0.016265800	1.590200E+02	  0.016265800	2.030600E+01	  0.016265800	7.773000E+00
34	  0.016461605	-7.252000E+00	  0.016461605	1.587620E+02	  0.016461605	2.032300E+01	  0.016461605	7.869000E+00
35	  0.016657412	-7.251000E+00	  0.016657412	1.585170E+02	  0.016657412	2.033500E+01	  0.016657412	7.962000E+00
36	  0.016853219	-7.247000E+00	  0.016853219	1.582670E+02	  0.016853219	2.033800E+01	  0.016853219	8.057000E+00
37	  0.017049024	-7.251000E+00	  0.017049024	1.579890E+02	  0.017049024	2.036400E+01	  0.017049024	8.160000E+00
38	  0.017244833	-7.252000E+00	  0.017244833	1.577540E+02	  0.017244833	2.038000E+01	  0.017244833	8.248000E+00
39	  0.017440638	-7.254000E+00	  0.017440638	1.574940E+02	  0.017440638	2.040100E+01	  0.017440638	8.344000E+00
40	  0.017636444	-7.252000E+00	  0.017636444	1.572310E+02	  0.017636444	2.041100E+01	  0.017636444	8.445000E+00
41	  0.017832249	-7.257000E+00	  0.017832249	1.569840E+02	  0.017832249	2.043800E+01	  0.017832249	8.535000E+00
42	  0.018028056	-7.256000E+00	  0.018028056	1.567320E+02	  0.018028056	2.045200E+01	  0.018028056	8.630000E+00
43	  0.018223861	-7.256000E+00	  0.018223861	1.564790E+02	  0.018223861	2.046700E+01	  0.018223861	8.726000E+00
44	  0.018419670	-7.260000E+00	  0.018419670	1.562360E+02	  0.018419670	2.049200E+01	  0.018419670	8.816000E+00
45	  0.018615475	-7.259000E+00	  0.018615475	1.559880E+02	  0.018615475	2.050500E+01	  0.018615475	8.909000E+00
46	  0.018811282	-7.264000E+00	  0.018811282	1.557330E+02	  0.018811282	2.053400E+01	  0.018811282	9.003000E+00
47	  0.019007087	-7.258000E+00	  0.019007087	1.554890E+02	  0.019007087	2.053600E+01	  0.019007087	9.098000E+00
48	  0.019202894	-7.262000E+00	  0.019202894	1.552360E+02	  0.019202894	2.056200E+01	  0.019202894	9.192000E+00
49	  0.019398699	-7.260000E+00	  0.019398699	1.550010E+02	  0.019398699	2.057300E+01	  0.019398699	9.281000E+00
50	  0.019594505	-7.263000E+00	  0.019594505	1.547720E+02	  0.019594505	2.059500E+01	  0.019594505	9.366000E+00
51	  0.019790314	-7.264000E+00	  0.019790314	1.544930E+02	  0.019790314	2.061600E+01	  0.019790314	9.471000E+00
52	  0.019986119	-7.259000E+00	  0.019986119	1.542540E+02	  0.019986119	2.062200E+01	  0.019986119	9.564000E+00
53	  0.020181926	-7.259000E+00	  0.020181926	1.539910E+02	  0.020181926	2.063900E+01	  0.020181926	9.663000E+00
54	  0.020377731	-7.260000E+00	  0.020377731	1.537470E+02	  0.020377731	2.066000E+01	  0.020377731	9.755000E+00
55	  0.020573538	-7.258000E+00	  0.020573538	1.535080E+02	  0.020573538	2.067000E+01	  0.020573538	9.847000E+00
56	  0.020769343	-7.254000E+00	  0.020769343	1.532390E+02	  0.020769343	2.067900E+01	  0.020769343	9.950000E+00
57	  0.020965151	-7.256000E+00	  0.020965151	1.530080E+02	  0.020965151	2.070100E+01	  0.020965151	1.003700E+01
58	  0.021160956	-7.258000E+00	  0.021160956	1.527500E+02	  0.021160956	2.072400E+01	  0.021160956	1.013400E+01
59	  0.021356763	-7.257000E+00	  0.021356763	1.525150E+02	  0.021356763	2.074100E+01	  0.021356763	1.022400E+01
60	  0.021552568	-7.261000E+00	  0.021552568	1.522750E+02	  0.021552568	2.076800E+01	  0.021552568	1.031300E+01
61	  0.021748375	-7.258000E+00	  0.021748375	1.520330E+02	  0.021748375	2.077900E+01	  0.021748375	1.040600E+01
62	  0.021944180	-7.259000E+00	  0.021944180	1.517930E+02	  0.021944180	2.080000E+01	  0.021944180	1.049600E+01
63	  0.022139989	-7.266000E+00	  0.022139989	1.515480E+02	  0.022139989	2.083600E+01	  0.022139989	1.058600E+01
64	  0.022335794	-7.264000E+00	  0.022335794	1.513270E+02	  0.022335794	2.084800E+01	  0.022335794	1.067100E+01
65	  0.022531601	-7.268000E+00	  0.022531601	1.510720E+02	  0.022531601	2.087800E+01	  0.022531601	1.076600E+01
66	  0.022727406	-7.263000E+00	  0.022727406	1.508210E+02	  0.022727406	2.088500E+01	  0.022727406	1.086400E+01
67	  0.022923212	-7.269000E+00	  0.022923212	1.506040E+02	  0.022923212	2.091700E+01	  0.022923212	1.094400E+01
68	  0.023119017	-7.270000E+00	  0.023119017	1.503320E+02	  0.023119017	2.094300E+01	  0.023119017	1.104700E+01
69	  0.023314826	-7.269000E+00	  0.023314826	1.500900E+02	  0.023314826	2.095800E+01	  0.023314826	1.114000E+01
70	  0.023510631	-7.268000E+00	  0.023510631	1.498550E+02	  0.023510631	2.097600E+01	  0.023510631	1.123000E+01
71	  0.023706438	-7.275000E+00	  0.023706438	1.495910E+02	  0.023706438	2.101400E+01	  0.023706438	1.132700E+01
72	  0.023902243	-7.271000E+00	  0.023902243	1.493280E+02	  0.023902243	2.102600E+01	  0.023902243	1.143000E+01
73	  0.024098050	-7.268000E+00	  0.024098050	1.490730E+02	  0.024098050	2.104000E+01	  0.024098050	1.152900E+01
74	  0.024293855	-7.268000E+00	  0.024293855	1.488230E+02	  0.024293855	2.106100E+01	  0.024293855	1.162400E+01
75	  0.024489662	-7.268000E+00	  0.024489662	1.485340E+02	  0.024489662	2.108700E+01	  0.024489662	1.173500E+01
76	  0.024685470	-7.271000E+00	  0.024685470	1.482750E+02	  0.024685470	2.111600E+01	  0.024685470	1.183200E+01
77	  0.024881275	-7.273000E+00	  0.024881275	1.480390E+02	  0.024881275	2.114200E+01	  0.024881275	1.192200E+01
78	  0.025077082	-7.270000E+00	  0.025077082	1.477850E+02	  0.025077082	2.115700E+01	  0.025077082	1.202100E+01
79	  0.025272887	-7.268000E+00	  0.025272887	1.475410E+02	  0.025272887	2.117500E+01	  0.025272887	1.211500E+01
80	  0.025468694	-7.270000E+00	  0.025468694	1.473210E+02	  0.025468694	2.119900E+01	  0.025468694	1.219900E+01
81	  0.025664499	-7.274000E+00	  0.025664499	1.470770E+02	  0.025664499	2.123100E+01	  0.025664499	1.229000E+01
82	  0.025860308	-7.277000E+00	  0.025860308	1.468570E+02	  0.025860308	2.125900E+01	  0.025860308	1.237300E+01
83	  0.026056113	-7.275000E+00	  0.026056113	1.466150E+02	  0.026056113	2.127600E+01	  0.026056113	1.246700E+01
84	  0.026251920	-7.278000E+00	  0.026251920	1.463840E+02	  0.026251920	2.130600E+01	  0.026251920	1.255400E+01
85	  0.026447725	-7.283000E+00	  0.026447725	1.461150E+02	  0.026447725	2.134300E+01	  0.026447725	1.265400E+01
86	  0.026643531	-7.284000E+00	  0.026643531	1.458770E+02	  0.026643531	2.136900E+01	  0.026643531	1.274500E+01
87	  0.026839336	-7.288000E+00	  0.026839336	1.456110E+02	  0.026839336	2.140400E+01	  0.026839336	1.284500E+01
88	  0.027035145	-7.285000E+00	  0.027035145	1.453470E+02	  0.027035145	2.142100E+01	  0.027035145	1.294900E+01
89	  0.027230950	-7.283000E+00	  0.027230950	1.450610E+02	  0.027230950	2.144400E+01	  0.027230950	1.306000E+01
90	  0.027426757	-7.279000E+00	  0.027426757	1.448080E+02	  0.027426757	2.145800E+01	  0.027426757	1.316100E+01
91	  0.027622562	-7.277000E+00	  0.027622562	1.445300E+02	  0.027622562	2.148200E+01	  0.027622562	1.326900E+01
92	  0.027818369	-7.270000E+00	  0.027818369	1.442620E+02	  0.027818369	2.149000E+01	  0.027818369	1.337800E+01
93	  0.028014174	-7.273000E+00	  0.028014174	1.439810E+02	  0.028014174	2.152700E+01	  0.028014174	1.348400E+01
94	  0.028209982	-7.271000E+00	  0.028209982	1.437560E+02	  0.028209982	2.154500E+01	  0.028209982	1.357300E+01
95	  0.028405787	-7.268000E+00	  0.028405787	1.435160E+02	  0.028405787	2.156100E+01	  0.028405787	1.366800E+01
96	  0.028601594	-7.266000E+00	  0.028601594	1.432870E+02	  0.028601594	2.158000E+01	  0.028601594	1.375800E+01
97	  0.028797399	-7.264000E+00	  0.028797399	1.430940E+02	  0.028797399	2.159500E+01	  0.028797399	1.383400E+01
98	  0.028993206	-7.260000E+00	  0.028993206	1.428980E+02	  0.028993206	2.160600E+01	  0.028993206	1.391300E+01
99	  0.029189013	-7.261000E+00	  0.029189013	1.426870E+02	  0.029189013	2.163100E+01	  0.029189013	1.399400E+01
100	  0.029384818	-7.262000E+00	  0.029384818	1.425050E+02	  0.029384818	2.165100E+01	  0.029384818	1.406500E+01
101	  0.029580627	-7.261000E+00	  0.029580627	1.423060E+02	  0.029580627	2.166900E+01	  0.029580627	1.414300E+01
102	  0.029776432	-7.264000E+00	  0.029776432	1.420840E+02	  0.029776432	2.170300E+01	  0.029776432	1.422700E+01
103	  0.029972238	-7.269000E+00	  0.029972238	1.418190E+02	  0.029972238	2.174400E+01	  0.029972238	1.432600E+01
104	  0.030168043	-7.273000E+00	  0.030168043	1.416020E+02	  0.030168043	2.177700E+01	  0.030168043	1.440800E+01
105	  0.030363850	-7.274000E+00	  0.030363850	1.413360E+02	  0.030363850	2.181000E+01	  0.030363850	1.451100E+01
106	  0.030559655	-7.278000E+00	  0.030559655	1.410570E+02	  0.030559655	2.185000E+01	  0.030559655	1.461800E+01
107	  0.030755464	-7.278000E+00	  0.030755464	1.407900E+02	  0.030755464	2.188100E+01	  0.030755464	1.472100E+01
108	  0.030951269	-7.280000E+00	  0.030951269	1.405410E+02	  0.030951269	2.191300E+01	  0.030951269	1.481800E+01
109	  0.031147076	-7.276000E+00	  0.031147076	1.403470E+02	  0.031147076	2.192600E+01	  0.031147076	1.489600E+01
110	  0.031342883	-7.276000E+00	  0.031342883	1.400530E+02	  0.031342883	2.196000E+01	  0.031342883	1.501100E+01
111	  0.031538688	-7.284000E+00	  0.031538688	1.397900E+02	  0.031538688	2.201100E+01	  0.031538688	1.510800E+01
112	  0.031734493	-7.283000E+00	  0.031734493	1.395190E+02	  0.031734493	2.203800E+01	  0.031734493	1.521500E+01
113	  0.031930301	-7.278000E+00	  0.031930301	1.392400E+02	  0.031930301	2.206000E+01	  0.031930301	1.532800E+01
114	  0.032126106	-7.282000E+00	  0.032126106	1.389820E+02	  0.032126106	2.210000E+01	  0.032126106	1.542600E+01
115	  0.032321911	-7.275000E+00	  0.032321911	1.387350E+02	  0.032321911	2.211100E+01	  0.032321911	1.552900E+01
116	  0.032517716	-7.271000E+00	  0.032517716	1.384990E+02	  0.032517716	2.212900E+01	  0.032517716	1.562500E+01
117	  0.032713525	-7.266000E+00	  0.032713525	1.382640E+02	  0.032713525	2.214300E+01	  0.032713525	1.572200E+01
118	  0.032909330	-7.262000E+00	  0.032909330	1.380400E+02	  0.032909330	2.216000E+01	  0.032909330	1.581400E+01
119	  0.033105139	-7.262000E+00	  0.033105139	1.378340E+02	  0.033105139	2.218600E+01	  0.033105139	1.589500E+01
120	  0.033300944	-7.261000E+00	  0.033300944	1.376150E+02	  0.033300944	2.221100E+01	  0.033300944	1.598200E+01
121	  0.033496749	-7.264000E+00	  0.033496749	1.373710E+02	  0.033496749	2.224800E+01	  0.033496749	1.607600E+01
122	  0.033692554	-7.267000E+00	  0.033692554	1.371770E+02	  0.033692554	2.228000E+01	  0.033692554	1.615000E+01
123	  0.033888362	-7.270000E+00	  0.033888362	1.369130E+02	  0.033888362	2.232200E+01	  0.033888362	1.625200E+01
124	  0.034084171	-7.274000E+00	  0.034084171	1.366330E+02	  0.034084171	2.236800E+01	  0.034084171	1.635900E+01
125	  0.034279976	-7.278000E+00	  0.034279976	1.363280E+02	  0.034279976	2.241900E+01	  0.034279976	1.647600E+01
126	  0.034475781	-7.276000E+00	  0.034475781	1.360830E+02	  0.034475781	2.244600E+01	  0.034475781	1.657500E+01
127	  0.034671586	-7.280000E+00	  0.034671586	1.358040E+02	  0.034671586	2.249300E+01	  0.034671586	1.668200E+01
128	  0.034867391	-7.286000E+00	  0.034867391	1.355140E+02	  0.034867391	2.254500E+01	  0.034867391	1.679200E+01
129	  0.035063203	-7.283000E+00	  0.035063203	1.352740E+02	  0.035063203	2.256900E+01	  0.035063203	1.689000E+01
130	  0.035259008	-7.281000E+00	  0.035259008	1.349730E+02	  0.035259008	2.260300E+01	  0.035259008	1.701200E+01
131	  0.035454813	-7.275000E+00	  0.035454813	1.347230E+02	  0.035454813	2.262300E+01	  0.035454813	1.711600E+01
132	  0.035650618	-7.269000E+00	  0.035650618	1.344700E+02	  0.035650618	2.264100E+01	  0.035650618	1.722200E+01
133	  0.035846427	-7.266000E+00	  0.035846427	1.341980E+02	  0.035846427	2.267100E+01	  0.035846427	1.733300E+01
134	  0.036042232	-7.257000E+00	  0.036042232	1.339330E+02	  0.036042232	2.268400E+01	  0.036042232	1.744700E+01
135	  0.036238037	-7.255000E+00	  0.036238037	1.337110E+02	  0.036238037	2.270900E+01	  0.036238037	1.753800E+01
136	  0.036433842	-7.247000E+00	  0.036433842	1.334750E+02	  0.036433842	2.272000E+01	  0.036433842	1.764000E+01
137	  0.036629651	-7.241000E+00	  0.036629651	1.332660E+02	  0.036629651	2.273400E+01	  0.036629651	1.772900E+01
138	  0.036825456	-7.238000E+00	  0.036825456	1.330680E+02	  0.036825456	2.275200E+01	  0.036825456	1.781200E+01
139	  0.037021261	-7.238000E+00	  0.037021261	1.328800E+02	  0.037021261	2.278100E+01	  0.037021261	1.788700E+01
140	  0.037217066	-7.244000E+00	  0.037217066	1.326700E+02	  0.037217066	2.282600E+01	  0.037217066	1.796600E+01
141	  0.037412878	-7.244000E+00	  0.037412878	1.324390E+02	  0.037412878	2.285900E+01	  0.037412878	1.805900E+01
142	  0.037608683	-7.240000E+00	  0.037608683	1.322050E+02	  0.037608683	2.288400E+01	  0.037608683	1.815600E+01
143	  0.037804488	-7.248000E+00	  0.037804488	1.319990E+02	  0.037804488	2.293400E+01	  0.037804488	1.823200E+01
144	  0.038000293	-7.255000E+00	  0.038000293	1.317440E+02	  0.038000293	2.298900E+01	  0.038000293	1.832800E+01
145	  0.038196102	-7.257000E+00	  0.038196102	1.314760E+02	  0.038196102	2.303500E+01	  0.038196102	1.843300E+01
146	  0.038391907	-7.259000E+00	  0.038391907	1.312120E+02	  0.038391907	2.308000E+01	  0.038391907	1.853800E+01
147	  0.038587712	-7.262000E+00	  0.038587712	1.309740E+02	  0.038587712	2.312300E+01	  0.038587712	1.863100E+01
148	  0.038783520	-7.265000E+00	  0.038783520	1.307150E+02	  0.038783520	2.316900E+01	  0.038783520	1.873300E+01
149	  0.038979325	-7.264000E+00	  0.038979325	1.304640E+02	  0.038979325	2.320500E+01	  0.038979325	1.883500E+01
150	  0.039175130	-7.266000E+00	  0.039175130	1.302430E+02	  0.039175130	2.324400E+01	  0.039175130	1.892300E+01
151	  0.039370935	-7.264000E+00	  0.039370935	1.299780E+02	  0.039370935	2.327900E+01	  0.039370935	1.903200E+01
152	  0.039566744	-7.262000E+00	  0.039566744	1.297220E+02	  0.039566744	2.331400E+01	  0.039566744	1.913800E+01
153	  0.039762549	-7.254000E+00	  0.039762549	1.294220E+02	  0.039762549	2.334000E+01	  0.039762549	1.926800E+01
154	  0.039958358	-7.248000E+00	  0.039958358	1.291970E+02	  0.039958358	2.336000E+01	  0.039958358	1.936500E+01
155	  0.040154163	-7.241000E+00	  0.040154163	1.289670E+02	  0.040154163	2.337800E+01	  0.040154163	1.946600E+01
156	  0.040349972	-7.237000E+00	  0.040349972	1.287630E+02	  0.040349972	2.339800E+01	  0.040349972	1.955300E+01
157	  0.040545776	-7.240000E+00	  0.040545776	1.285550E+02	  0.040545776	2.343900E+01	  0.040545776	1.963500E+01
158	  0.040741581	-7.234000E+00	  0.040741581	1.283670E+02	  0.040741581	2.345500E+01	  0.040741581	1.971800E+01
159	  0.040937386	-7.243000E+00	  0.040937386	1.281800E+02	  0.040937386	2.350900E+01	  0.040937386	1.978500E+01
160	  0.041133195	-7.249000E+00	  0.041133195	1.279580E+02	  0.041133195	2.356200E+01	  0.041133195	1.986900E+01
161	  0.041329000	-7.253000E+00	  0.041329000	1.277420E+02	  0.041329000	2.360600E+01	  0.041329000	1.995400E+01
162	  0.041524805	-7.262000E+00	  0.041524805	1.274990E+02	  0.041524805	2.367200E+01	  0.041524805	2.004200E+01
163	  0.041720610	-7.264000E+00	  0.041720610	1.272590E+02	  0.041720610	2.371600E+01	  0.041720610	2.013900E+01
164	  0.041916419	-7.275000E+00	  0.041916419	1.269820E+02	  0.041916419	2.379200E+01	  0.041916419	2.024000E+01
165	  0.042112224	-7.275000E+00	  0.042112224	1.267270E+02	  0.042112224	2.383600E+01	  0.042112224	2.034300E+01
166	  0.042308029	-7.275000E+00	  0.042308029	1.264630E+02	  0.042308029	2.388200E+01	  0.042308029	2.045100E+01
167	  0.042503837	-7.276000E+00	  0.042503837	1.261770E+02	  0.042503837	2.393200E+01	  0.042503837	2.056800E+01
168	  0.042699646	-7.277000E+00	  0.042699646	1.259270E+02	  0.042699646	2.397800E+01	  0.042699646	2.067000E+01
169	  0.042895451	-7.276000E+00	  0.042895451	1.256610E+02	  0.042895451	2.402100E+01	  0.042895451	2.078000E+01
170	  0.043091256	-7.271000E+00	  0.043091256	1.253890E+02	  0.043091256	2.405500E+01	  0.043091256	2.089800E+01
171	  0.043287061	-7.265000E+00	  0.043287061	1.251200E+02	  0.043287061	2.408700E+01	  0.043287061	2.101500E+01
172	  0.043482870	-7.260000E+00	  0.043482870	1.248580E+02	  0.043482870	2.411900E+01	  0.043482870	2.112900E+01
173	  0.043678675	-7.254000E+00	  0.043678675	1.246670E+02	  0.043678675	2.413900E+01	  0.043678675	2.121400E+01
174	  0.043874480	-7.254000E+00	  0.043874480	1.244180E+02	  0.043874480	2.418200E+01	  0.043874480	2.131800E+01
175	  0.044070289	-7.250000E+00	  0.044070289	1.242190E+02	  0.044070289	2.420700E+01	  0.044070289	2.140500E+01
176	  0.044266094	-7.252000E+00	  0.044266094	1.239590E+02	  0.044266094	2.425900E+01	  0.044266094	2.151100E+01
177	  0.044461899	-7.253000E+00	  0.044461899	1.237460E+02	  0.044461899	2.430200E+01	  0.044461899	2.159700E+01
178	  0.044657703	-7.260000E+00	  0.044657703	1.235280E+02	  0.044657703	2.436000E+01	  0.044657703	2.168000E+01
179	  0.044853516	-7.264000E+00	  0.044853516	1.232720E+02	  0.044853516	2.441800E+01	  0.044853516	2.178100E+01
180	  0.045049321	-7.268000E+00	  0.045049321	1.230090E+02	  0.045049321	2.447800E+01	  0.045049321	2.188500E+01
181	  0.045245126	-7.269000E+00	  0.045245126	1.227770E+02	  0.045245126	2.452500E+01	  0.045245126	2.198000E+01
182	  0.045440931	-7.276000E+00	  0.045440931	1.225160E+02	  0.045440931	2.459400E+01	  0.045440931	2.208000E+01
183	  0.045636740	-7.274000E+00	  0.045636740	1.222940E+02	  0.045636740	2.462900E+01	  0.045636740	2.217500E+01
184	  0.045832545	-7.273000E+00	  0.045832545	1.220580E+02	  0.045832545	2.467200E+01	  0.045832545	2.227500E+01
185	  0.046028350	-7.273000E+00	  0.046028350	1.217890E+02	  0.046028350	2.472500E+01	  0.046028350	2.238600E+01
186	  0.046224155	-7.278000E+00	  0.046224155	1.215300E+02	  0.046224155	2.478900E+01	  0.046224155	2.248800E+01
187	  0.046419963	-7.275000E+00	  0.046419963	1.212690E+02	  0.046419963	2.483200E+01	  0.046419963	2.260100E+01
188	  0.046615768	-7.271000E+00	  0.046615768	1.210090E+02	  0.046615768	2.487100E+01	  0.046615768	2.271500E+01
189	  0.046811573	-7.267000E+00	  0.046811573	1.207210E+02	  0.046811573	2.491600E+01	  0.046811573	2.284100E+01
190	  0.047007378	-7.261000E+00	  0.047007378	1.204560E+02	  0.047007378	2.495300E+01	  0.047007378	2.296000E+01
191	  0.047203191	-7.253000E+00	  0.047203191	1.202200E+02	  0.047203191	2.497800E+01	  0.047203191	2.307000E+01
192	  0.047398996	-7.249000E+00	  0.047398996	1.199560E+02	  0.047398996	2.502000E+01	  0.047398996	2.318700E+01
193	  0.047594801	-7.251000E+00	  0.047594801	1.197440E+02	  0.047594801	2.506800E+01	  0.047594801	2.327300E+01
194	  0.047790606	-7.249000E+00	  0.047790606	1.195470E+02	  0.047790606	2.510300E+01	  0.047790606	2.335900E+01
195	  0.047986414	-7.245000E+00	  0.047986414	1.193530E+02	  0.047986414	2.513200E+01	  0.047986414	2.344600E+01
196	  0.048182219	-7.246000E+00	  0.048182219	1.191110E+02	  0.048182219	2.518600E+01	  0.048182219	2.354600E+01
197	  0.048378024	-7.249000E+00	  0.048378024	1.189230E+02	  0.048378024	2.523300E+01	  0.048378024	2.362200E+01
198	  0.048573833	-7.257000E+00	  0.048573833	1.186530E+02	  0.048573833	2.531300E+01	  0.048573833	2.372400E+01
199	  0.048769638	-7.256000E+00	  0.048769638	1.184720E+02	  0.048769638	2.534800E+01	  0.048769638	2.380200E+01
200	  0.048965443	-7.261000E+00	  0.048965443	1.182360E+02	  0.048965443	2.541100E+01	  0.048965443	2.389500E+01
201	  0.049161248	-7.268000E+00	  0.049161248	1.179530E+02	  0.049161248	2.549100E+01	  0.049161248	2.400500E+01
202	  0.049357057	-7.265000E+00	  0.049357057	1.177150E+02	  0.049357057	2.553400E+01	  0.049357057	2.411000E+01
203	  0.049552862	-7.268000E+00	  0.049552862	1.174420E+02	  0.049552862	2.560000E+01	  0.049552862	2.422200E+01
204	  0.049748670	-7.267000E+00	  0.049748670	1.172220E+02	  0.049748670	2.564600E+01	  0.049748670	2.431600E+01
205	  0.049944475	-7.261000E+00	  0.049944475	1.169210E+02	  0.049944475	2.569500E+01	  0.049944475	2.445300E+01
206	  0.050140284	-7.265000E+00	  0.050140284	1.166940E+02	  0.050140284	2.575500E+01	  0.050140284	2.454400E+01
207	  0.050336089	-7.253000E+00	  0.050336089	1.164030E+02	  0.050336089	2.578700E+01	  0.050336089	2.468600E+01
208	  0.050531894	-7.257000E+00	  0.050531894	1.161650E+02	  0.050531894	2.585100E+01	  0.050531894	2.478100E+01
209	  0.050727699	-7.251000E+00	  0.050727699	1.159530E+02	  0.050727699	2.588000E+01	  0.050727699	2.488200E+01
210	  0.050923508	-7.245000E+00	  0.050923508	1.157160E+02	  0.050923508	2.591700E+01	  0.050923508	2.499100E+01
211	  0.051119313	-7.243000E+00	  0.051119313	1.154540E+02	  0.051119313	2.597100E+01	  0.051119313	2.510700E+01
212	  0.051315118	-7.243000E+00	  0.051315118	1.152430E+02	  0.051315118	2.601800E+01	  0.051315118	2.519700E+01
213	  0.051510923	-7.246000E+00	  0.051510923	1.150470E+02	  0.051510923	2.607200E+01	  0.051510923	2.527700E+01
214	  0.051706731	-7.248000E+00	  0.051706731	1.148070E+02	  0.051706731	2.613400E+01	  0.051706731	2.537700E+01
215	  0.051902536	-7.249000E+00	  0.051902536	1.145960E+02	  0.051902536	2.618600E+01	  0.051902536	2.546600E+01
216	  0.052098341	-7.254000E+00	  0.052098341	1.143730E+02	  0.052098341	2.625100E+01	  0.052098341	2.555500E+01
217	  0.052294150	-7.254000E+00	  0.052294150	1.141210E+02	  0.052294150	2.631200E+01	  0.052294150	2.566200E+01
218	  0.052489959	-7.263000E+00	  0.052489959	1.138770E+02	  0.052489959	2.639300E+01	  0.052489959	2.575400E+01
219	  0.052685764	-7.259000E+00	  0.052685764	1.136220E+02	  0.052685764	2.644300E+01	  0.052685764	2.587000E+01
220	  0.052881569	-7.267000E+00	  0.052881569	1.134020E+02	  0.052881569	2.652000E+01	  0.052881569	2.595100E+01
221	  0.053077377	-7.264000E+00	  0.053077377	1.131660E+02	  0.053077377	2.656600E+01	  0.053077377	2.605900E+01
222	  0.053273182	-7.267000E+00	  0.053273182	1.128850E+02	  0.053273182	2.664300E+01	  0.053273182	2.617600E+01
223	  0.053468987	-7.265000E+00	  0.053468987	1.125980E+02	  0.053468987	2.670800E+01	  0.053468987	2.630200E+01
224	  0.053664792	-7.262000E+00	  0.053664792	1.123210E+02	  0.053664792	2.676800E+01	  0.053664792	2.642700E+01
225	  0.053860601	-7.261000E+00	  0.053860601	1.120420E+02	  0.053860601	2.683500E+01	  0.053860601	2.654900E+01
226	  0.054056406	-7.257000E+00	  0.054056406	1.118290E+02	  0.054056406	2.687700E+01	  0.054056406	2.664800E+01
227	  0.054252211	-7.256000E+00	  0.054252211	1.115570E+02	  0.054252211	2.694200E+01	  0.054252211	2.676800E+01
228	  0.054448016	-7.253000E+00	  0.054448016	1.113130E+02	  0.054448016	2.699500E+01	  0.054448016	2.687900E+01
229	  0.054643828	-7.249000E+00	  0.054643828	1.110530E+02	  0.054643828	2.704800E+01	  0.054643828	2.700000E+01
230	  0.054839633	-7.250000E+00	  0.054839633	1.108550E+02	  0.054839633	2.710100E+01	  0.054839633	2.708500E+01
231	  0.055035438	-7.245000E+00	  0.055035438	1.105990E+02	  0.055035438	2.715300E+01	  0.055035438	2.720500E+01
232	  0.055231243	-7.245000E+00	  0.055231243	1.103910E+02	  0.055231243	2.720800E+01	  0.055231243	2.729500E+01
233	  0.055427052	-7.252000E+00	  0.055427052	1.101690E+02	  0.055427052	2.728600E+01	  0.055427052	2.738000E+01
234	  0.055622857	-7.250000E+00	  0.055622857	1.099500E+02	  0.055622857	2.733800E+01	  0.055622857	2.747900E+01
235	  0.055818662	-7.252000E+00	  0.055818662	1.097170E+02	  0.055818662	2.740500E+01	  0.055818662	2.757700E+01
236	  0.056014467	-7.253000E+00	  0.056014467	1.094500E+02	  0.056014467	2.747700E+01	  0.056014467	2.769300E+01
237	  0.056210276	-7.258000E+00	  0.056210276	1.092180E+02	  0.056210276	2.755500E+01	  0.056210276	2.778500E+01
238	  0.056406081	-7.256000E+00	  0.056406081	1.089790E+02	  0.056406081	2.761100E+01	  0.056406081	2.789500E+01
239	  0.056601886	-7.255000E+00	  0.056601886	1.087270E+02	  0.056601886	2.767800E+01	  0.056601886	2.800700E+01
240	  0.056797691	-7.259000E+00	  0.056797691	1.084860E+02	  0.056797691	2.775600E+01	  0.056797691	2.810500E+01
241	  0.056993503	-7.260000E+00	  0.056993503	1.081750E+02	  0.056993503	2.784200E+01	  0.056993503	2.824100E+01
242	  0.057189308	-7.258000E+00	  0.057189308	1.079140E+02	  0.057189308	2.790800E+01	  0.057189308	2.835900E+01
243	  0.057385113	-7.251000E+00	  0.057385113	1.076690E+02	  0.057385113	2.795600E+01	  0.057385113	2.848000E+01
244	  0.057580918	-7.249000E+00	  0.057580918	1.073980E+02	  0.057580918	2.802600E+01	  0.057580918	2.860400E+01
245	  0.057776727	-7.250000E+00	  0.057776727	1.071460E+02	  0.057776727	2.810000E+01	  0.057776727	2.871200E+01
246	  0.057972532	-7.246000E+00	  0.057972532	1.068810E+02	  0.057972532	2.816400E+01	  0.057972532	2.883700E+01
247	  0.058168337	-7.244000E+00	  0.058168337	1.066590E+02	  0.058168337	2.821800E+01	  0.058168337	2.894100E+01
248	  0.058364145	-7.239000E+00	  0.058364145	1.064570E+02	  0.058364145	2.826300E+01	  0.058364145	2.904000E+01
249	  0.058559950	-7.238000E+00	  0.058559950	1.062130E+02	  0.058559950	2.833000E+01	  0.058559950	2.915000E+01
250	  0.058755755	-7.235000E+00	  0.058755755	1.059800E+02	  0.058755755	2.838800E+01	  0.058755755	2.926000E+01
251	  0.058951560	-7.241000E+00	  0.058951560	1.057590E+02	  0.058951560	2.847100E+01	  0.058951560	2.934500E+01
252	  0.059147369	-7.236000E+00	  0.059147369	1.055230E+02	  0.059147369	2.852500E+01	  0.059147369	2.946100E+01
253	  0.059343174	-7.239000E+00	  0.059343174	1.053020E+02	  0.059343174	2.859700E+01	  0.059343174	2.955400E+01
254	  0.059538983	-7.240000E+00	  0.059538983	1.050490E+02	  0.059538983	2.867700E+01	  0.059538983	2.966400E+01
255	  0.059734788	-7.240000E+00	  0.059734788	1.048470E+02	  0.059734788	2.873700E+01	  0.059734788	2.975400E+01
256	  0.059930597	-7.246000E+00	  0.059930597	1.046300E+02	  0.059930597	2.881800E+01	  0.059930597	2.984000E+01
257	  0.060126401	-7.244000E+00	  0.060126401	1.043380E+02	  0.060126401	2.890300E+01	  0.060126401	2.997300E+01
258	  0.060322206	-7.245000E+00	  0.060322206	1.041250E+02	  0.060322206	2.896800E+01	  0.060322206	3.006800E+01
259	  0.060518011	-7.243000E+00	  0.060518011	1.038450E+02	  0.060518011	2.904700E+01	  0.060518011	3.019800E+01
260	  0.060713820	-7.241000E+00	  0.060713820	1.036140E+02	  0.060713820	2.911300E+01	  0.060713820	3.030500E+01
261	  0.060909625	-7.242000E+00	  0.060909625	1.033320E+02	  0.060909625	2.920300E+01	  0.060909625	3.043000E+01
262	  0.061105430	-7.242000E+00	  0.061105430	1.030800E+02	  0.061105430	2.928300E+01	  0.061105430	3.054100E+01
263	  0.061301235	-7.236000E+00	  0.061301235	1.027960E+02	  0.061301235	2.935200E+01	  0.061301235	3.068300E+01
264	  0.061497044	-7.235000E+00	  0.061497044	1.025650E+02	  0.061497044	2.942200E+01	  0.061497044	3.079000E+01
265	  0.061692849	-7.233000E+00	  0.061692849	1.023570E+02	  0.061692849	2.948300E+01	  0.061692849	3.088700E+01
266	  0.061888654	-7.230000E+00	  0.061888654	1.021100E+02	  0.061888654	2.955400E+01	  0.061888654	3.100400E+01
267	  0.062084462	-7.225000E+00	  0.062084462	1.018950E+02	  0.062084462	2.960600E+01	  0.062084462	3.111300E+01
268	  0.062280271	-7.226000E+00	  0.062280271	1.016610E+02	  0.062280271	2.968500E+01	  0.062280271	3.121600E+01
269	  0.062476076	-7.219000E+00	  0.062476076	1.015000E+02	  0.062476076	2.971500E+01	  0.062476076	3.130500E+01
270	  0.062671877	-7.218000E+00	  0.062671877	1.012770E+02	  0.062671877	2.978700E+01	  0.062671877	3.140600E+01
271	  0.062867686	-7.223000E+00	  0.062867686	1.010690E+02	  0.062867686	2.987100E+01	  0.062867686	3.149000E+01
272	  0.063063495	-7.219000E+00	  0.063063495	1.008290E+02	  0.063063495	2.993700E+01	  0.063063495	3.160800E+01
273	  0.063259304	-7.221000E+00	  0.063259304	1.006410E+02	  0.063259304	3.000500E+01	  0.063259304	3.168900E+01
274	  0.063455105	-7.218000E+00	  0.063455105	1.003480E+02	  0.063455105	3.009300E+01	  0.063455105	3.183000E+01
275	  0.063650914	-7.220000E+00	  0.063650914	1.001130E+02	  0.063650914	3.017800E+01	  0.063650914	3.193200E+01
276	  0.063846722	-7.225000E+00	  0.063846722	9.984600E+01	  0.063846722	3.028300E+01	  0.063846722	3.204200E+01
277	  0.064042524	-7.228000E+00	  0.064042524	9.959800E+01	  0.064042524	3.037600E+01	  0.064042524	3.214900E+01
278	  0.064238332	-7.218000E+00	  0.064238332	9.934800E+01	  0.064238332	3.043300E+01	  0.064238332	3.228500E+01
279	  0.064434141	-7.225000E+00	  0.064434141	9.908900E+01	  0.064434141	3.054200E+01	  0.064434141	3.238700E+01
280	  0.064629942	-7.223000E+00	  0.064629942	9.881200E+01	  0.064629942	3.063300E+01	  0.064629942	3.251800E+01
281	  0.064825751	-7.218000E+00	  0.064825751	9.855900E+01	  0.064825751	3.070500E+01	  0.064825751	3.264600E+01
282	  0.065021552	-7.218000E+00	  0.065021552	9.832300E+01	  0.065021552	3.078700E+01	  0.065021552	3.275500E+01
283	  0.065217361	-7.215000E+00	  0.065217361	9.807100E+01	  0.065217361	3.086800E+01	  0.065217361	3.287700E+01
284	  0.065413170	-7.211000E+00	  0.065413170	9.785300E+01	  0.065413170	3.093400E+01	  0.065413170	3.298600E+01
285	  0.065608978	-7.214000E+00	  0.065608978	9.763400E+01	  0.065608978	3.102000E+01	  0.065608978	3.308000E+01
286	  0.065804780	-7.211000E+00	  0.065804780	9.742100E+01	  0.065804780	3.108800E+01	  0.065804780	3.318500E+01
287	  0.066000588	-7.204000E+00	  0.066000588	9.718500E+01	  0.066000588	3.115200E+01	  0.066000588	3.330900E+01
288	  0.066196397	-7.210000E+00	  0.066196397	9.689400E+01	  0.066196397	3.127500E+01	  0.066196397	3.343000E+01
289	  0.066392198	-7.209000E+00	  0.066392198	9.671900E+01	  0.066392198	3.133800E+01	  0.066392198	3.351200E+01
290	  0.066588007	-7.208000E+00	  0.066588007	9.646700E+01	  0.066588007	3.142600E+01	  0.066588007	3.363100E+01
291	  0.066783816	-7.208000E+00	  0.066783816	9.621600E+01	  0.066783816	3.152100E+01	  0.066783816	3.374600E+01
292	  0.066979617	-7.201000E+00	  0.066979617	9.601200E+01	  0.066979617	3.157500E+01	  0.066979617	3.385800E+01
293	  0.067175426	-7.203000E+00	  0.067175426	9.580300E+01	  0.067175426	3.166000E+01	  0.067175426	3.394900E+01
294	  0.067371234	-7.206000E+00	  0.067371234	9.559700E+01	  0.067371234	3.174500E+01	  0.067371234	3.403800E+01
295	  0.067567036	-7.204000E+00	  0.067567036	9.530800E+01	  0.067567036	3.184900E+01	  0.067567036	3.417600E+01
296	  0.067762844	-7.208000E+00	  0.067762844	9.499800E+01	  0.067762844	3.197900E+01	  0.067762844	3.431000E+01
297	  0.067958646	-7.208000E+00	  0.067958646	9.477300E+01	  0.067958646	3.206600E+01	  0.067958646	3.441400E+01
298	  0.068154462	-7.206000E+00	  0.068154462	9.457000E+01	  0.068154462	3.213700E+01	  0.068154462	3.451400E+01
299	  0.068350263	-7.201000E+00	  0.068350263	9.430300E+01	  0.068350263	3.222700E+01	  0.068350263	3.464900E+01
300	  0.068546072	-7.204000E+00	  0.068546072	9.407100E+01	  0.068546072	3.232700E+01	  0.068546072	3.475000E+01
301	  0.068741873	-7.200000E+00	  0.068741873	9.381800E+01	  0.068741873	3.241200E+01	  0.068741873	3.488000E+01
302	  0.068937682	-7.197000E+00	  0.068937682	9.358600E+01	  0.068937682	3.249600E+01	  0.068937682	3.499400E+01
303	  0.069133483	-7.194000E+00	  0.069133483	9.336800E+01	  0.069133483	3.257200E+01	  0.069133483	3.510500E+01
304	  0.069329299	-7.192000E+00	  0.069329299	9.309700E+01	  0.069329299	3.267600E+01	  0.069329299	3.523500E+01
305	  0.069525100	-7.186000E+00	  0.069525100	9.286900E+01	  0.069525100	3.275100E+01	  0.069525100	3.535700E+01
306	  0.069720909	-7.190000E+00	  0.069720909	9.267200E+01	  0.069720909	3.284200E+01	  0.069720909	3.543900E+01
307	  0.069916710	-7.191000E+00	  0.069916710	9.246900E+01	  0.069916710	3.292700E+01	  0.069916710	3.553200E+01
308	  0.070112519	-7.184000E+00	  0.070112519	9.223600E+01	  0.070112519	3.300200E+01	  0.070112519	3.565900E+01
309	  0.070308320	-7.187000E+00	  0.070308320	9.202700E+01	  0.070308320	3.309700E+01	  0.070308320	3.574900E+01
310	  0.070504129	-7.193000E+00	  0.070504129	9.178300E+01	  0.070504129	3.321700E+01	  0.070504129	3.584700E+01
311	  0.070699938	-7.188000E+00	  0.070699938	9.157400E+01	  0.070699938	3.328700E+01	  0.070699938	3.595900E+01
312	  0.070895746	-7.195000E+00	  0.070895746	9.134300E+01	  0.070895746	3.340600E+01	  0.070895746	3.604800E+01
313	  0.071091555	-7.193000E+00	  0.071091555	9.107400E+01	  0.071091555	3.351300E+01	  0.071091555	3.618000E+01
314	  0.071287356	-7.192000E+00	  0.071287356	9.082700E+01	  0.071287356	3.361600E+01	  0.071287356	3.629600E+01
315	  0.071483165	-7.188000E+00	  0.071483165	9.057200E+01	  0.071483165	3.371200E+01	  0.071483165	3.642800E+01
316	  0.071678966	-7.193000E+00	  0.071678966	9.032300E+01	  0.071678966	3.383300E+01	  0.071678966	3.653200E+01
317	  0.071874775	-7.191000E+00	  0.071874775	9.008900E+01	  0.071874775	3.393000E+01	  0.071874775	3.664600E+01
318	  0.072070576	-7.195000E+00	  0.072070576	8.980000E+01	  0.072070576	3.406600E+01	  0.072070576	3.677300E+01
319	  0.072266392	-7.190000E+00	  0.072266392	8.958500E+01	  0.072266392	3.414700E+01	  0.072266392	3.688600E+01
320	  0.072462194	-7.194000E+00	  0.072462194	8.934800E+01	  0.072462194	3.426400E+01	  0.072462194	3.698600E+01
321	  0.072658002	-7.193000E+00	  0.072658002	8.910600E+01	  0.072658002	3.436600E+01	  0.072658002	3.710500E+01
322	  0.072853811	-7.184000E+00	  0.072853811	8.884100E+01	  0.072853811	3.446000E+01	  0.072853811	3.725400E+01
323	  0.073049612	-7.187000E+00	  0.073049612	8.861000E+01	  0.073049612	3.457300E+01	  0.073049612	3.735300E+01
324	  0.073245421	-7.180000E+00	  0.073245421	8.840200E+01	  0.073245421	3.464200E+01	  0.073245421	3.747500E+01
325	  0.073441222	-7.179000E+00	  0.073441222	8.811600E+01	  0.073441222	3.477100E+01	  0.073441222	3.761100E+01
326	  0.073637031	-7.178000E+00	  0.073637031	8.792500E+01	  0.073637031	3.485500E+01	  0.073637031	3.770500E+01
327	  0.073832840	-7.173000E+00	  0.073832840	8.769000E+01	  0.073832840	3.494900E+01	  0.073832840	3.783000E+01
328	  0.074028648	-7.176000E+00	  0.074028648	8.750000E+01	  0.074028648	3.504500E+01	  0.074028648	3.791100E+01
329	  0.074224450	-7.174000E+00	  0.074224450	8.728600E+01	  0.074224450	3.513900E+01	  0.074224450	3.801800E+01
330	  0.074420258	-7.176000E+00	  0.074420258	8.699600E+01	  0.074420258	3.527900E+01	  0.074420258	3.815100E+01
331	  0.074616060	-7.179000E+00	  0.074616060	8.679100E+01	  0.074616060	3.538500E+01	  0.074616060	3.823900E+01
332	  0.074811868	-7.174000E+00	  0.074811868	8.653600E+01	  0.074811868	3.549100E+01	  0.074811868	3.837400E+01
333	  0.075007670	-7.174000E+00	  0.075007670	8.634400E+01	  0.075007670	3.558200E+01	  0.075007670	3.846600E+01
334	  0.075203478	-7.174000E+00	  0.075203478	8.603900E+01	  0.075203478	3.572800E+01	  0.075203478	3.861000E+01
335	  0.075399294	-7.174000E+00	  0.075399294	8.579800E+01	  0.075399294	3.584600E+01	  0.075399294	3.872200E+01
336	  0.075595096	-7.170000E+00	  0.075595096	8.553800E+01	  0.075595096	3.595900E+01	  0.075595096	3.886000E+01
337	  0.075790904	-7.171000E+00	  0.075790904	8.531500E+01	  0.075790904	3.607000E+01	  0.075790904	3.896300E+01
338	  0.075986706	-7.170000E+00	  0.075986706	8.505800E+01	  0.075986706	3.619300E+01	  0.075986706	3.908900E+01
339	  0.076182514	-7.162000E+00	  0.076182514	8.485600E+01	  0.076182514	3.627100E+01	  0.076182514	3.920800E+01
340	  0.076378316	-7.164000E+00	  0.076378316	8.456700E+01	  0.076378316	3.641900E+01	  0.076378316	3.934100E+01
341	  0.076574124	-7.158000E+00	  0.076574124	8.438200E+01	  0.076574124	3.649500E+01	  0.076574124	3.944600E+01
342	  0.076769926	-7.157000E+00	  0.076769926	8.413900E+01	  0.076769926	3.661200E+01	  0.076769926	3.956800E+01
343	  0.076965742	-7.155000E+00	  0.076965742	8.397700E+01	  0.076965742	3.669000E+01	  0.076965742	3.965000E+01
344	  0.077161543	-7.159000E+00	  0.077161543	8.372200E+01	  0.077161543	3.683300E+01	  0.077161543	3.975700E+01
345	  0.077357352	-7.149000E+00	  0.077357352	8.348700E+01	  0.077357352	3.692200E+01	  0.077357352	3.990300E+01
346	  0.077553153	-7.151000E+00	  0.077553153	8.327300E+01	  0.077553153	3.703700E+01	  0.077553153	3.999900E+01
347	  0.077748962	-7.148000E+00	  0.077748962	8.305500E+01	  0.077748962	3.714200E+01	  0.077748962	4.011200E+01
348	  0.077944770	-7.147000E+00	  0.077944770	8.283400E+01	  0.077944770	3.725300E+01	  0.077944770	4.022100E+01
349	  0.078140572	-7.153000E+00	  0.078140572	8.258400E+01	  0.078140572	3.740200E+01	  0.078140572	4.032100E+01
350	  0.078336388	-7.156000E+00	  0.078336388	8.234100E+01	  0.078336388	3.754200E+01	  0.078336388	4.042400E+01
351	  0.078532189	-7.156000E+00	  0.078532189	8.214300E+01	  0.078532189	3.764500E+01	  0.078532189	4.052000E+01
352	  0.078727998	-7.160000E+00	  0.078727998	8.189300E+01	  0.078727998	3.779100E+01	  0.078727998	4.062600E+01
353	  0.078923799	-7.163000E+00	  0.078923799	8.160800E+01	  0.078923799	3.795300E+01	  0.078923799	4.075000E+01
354	  0.079119608	-7.161000E+00	  0.079119608	8.140100E+01	  0.079119608	3.806000E+01	  0.079119608	4.085500E+01
355	  0.079315409	-7.160000E+00	  0.079315409	8.116100E+01	  0.079315409	3.818700E+01	  0.079315409	4.097400E+01
356	  0.079511218	-7.159000E+00	  0.079511218	8.092600E+01	  0.079511218	3.831400E+01	  0.079511218	4.108600E+01
357	  0.079707019	-7.158000E+00	  0.079707019	8.066300E+01	  0.079707019	3.845500E+01	  0.079707019	4.121600E+01
358	  0.079902835	-7.157000E+00	  0.079902835	8.038900E+01	  0.079902835	3.860400E+01	  0.079902835	4.135000E+01
359	  0.080098644	-7.156000E+00	  0.080098644	8.019700E+01	  0.080098644	3.870900E+01	  0.080098644	4.144400E+01
360	  0.080294445	-7.152000E+00	  0.080294445	7.993600E+01	  0.080294445	3.884100E+01	  0.080294445	4.158400E+01
361	  0.080490254	-7.147000E+00	  0.080490254	7.970300E+01	  0.080490254	3.895700E+01	  0.080490254	4.171400E+01
362	  0.080686055	-7.145000E+00	  0.080686055	7.946500E+01	  0.080686055	3.908900E+01	  0.080686055	4.183200E+01
363	  0.080881864	-7.139000E+00	  0.080881864	7.927700E+01	  0.080881864	3.917800E+01	  0.080881864	4.194400E+01
364	  0.081077665	-7.144000E+00	  0.081077665	7.905700E+01	  0.081077665	3.932000E+01	  0.081077665	4.202800E+01
365	  0.081273474	-7.148000E+00	  0.081273474	7.880500E+01	  0.081273474	3.947700E+01	  0.081273474	4.213500E+01
366	  0.081469283	-7.142000E+00	  0.081469283	7.860600E+01	  0.081469283	3.957500E+01	  0.081469283	4.225100E+01
367	  0.081665091	-7.146000E+00	  0.081665091	7.836900E+01	  0.081665091	3.972500E+01	  0.081665091	4.234900E+01
368	  0.081860892	-7.142000E+00	  0.081860892	7.815000E+01	  0.081860892	3.984400E+01	  0.081860892	4.246700E+01
369	  0.082056701	-7.141000E+00	  0.082056701	7.789500E+01	  0.082056701	3.999100E+01	  0.082056701	4.259100E+01
370	  0.082252502	-7.139000E+00	  0.082252502	7.768700E+01	  0.082252502	4.010800E+01	  0.082252502	4.270000E+01
371	  0.082448311	-7.144000E+00	  0.082448311	7.744700E+01	  0.082448311	4.026800E+01	  0.082448311	4.279300E+01
372	  0.082644112	-7.145000E+00	  0.082644112	7.723000E+01	  0.082644112	4.040000E+01	  0.082644112	4.289400E+01
373	  0.082839929	-7.145000E+00	  0.082839929	7.699500E+01	  0.082839929	4.054500E+01	  0.082839929	4.300200E+01
374	  0.083035737	-7.144000E+00	  0.083035737	7.672800E+01	  0.083035737	4.070500E+01	  0.083035737	4.313200E+01
375	  0.083231539	-7.141000E+00	  0.083231539	7.651700E+01	  0.083231539	4.082500E+01	  0.083231539	4.324300E+01
376	  0.083427347	-7.141000E+00	  0.083427347	7.623800E+01	  0.083427347	4.099700E+01	  0.083427347	4.337700E+01
377	  0.083623149	-7.139000E+00	  0.083623149	7.605300E+01	  0.083623149	4.110500E+01	  0.083623149	4.347300E+01
378	  0.083818957	-7.137000E+00	  0.083818957	7.581400E+01	  0.083818957	4.124900E+01	  0.083818957	4.359200E+01
379	  0.084014758	-7.138000E+00	  0.084014758	7.560300E+01	  0.084014758	4.138500E+01	  0.084014758	4.368800E+01
380	  0.084210567	-7.134000E+00	  0.084210567	7.536700E+01	  0.084210567	4.152300E+01	  0.084210567	4.381400E+01
381	  0.084406376	-7.132000E+00	  0.084406376	7.516300E+01	  0.084406376	4.164700E+01	  0.084406376	4.391900E+01
382	  0.084602185	-7.136000E+00	  0.084602185	7.494200E+01	  0.084602185	4.180000E+01	  0.084602185	4.400600E+01
383	  0.084797986	-7.133000E+00	  0.084797986	7.469700E+01	  0.084797986	4.194700E+01	  0.084797986	4.413600E+01
384	  0.084993795	-7.138000E+00	  0.084993795	7.445100E+01	  0.084993795	4.212400E+01	  0.084993795	4.422700E+01
385	  0.085189603	-7.135000E+00	  0.085189603	7.425900E+01	  0.085189603	4.224000E+01	  0.085189603	4.433000E+01
386	  0.085385405	-7.143000E+00	  0.085385405	7.403400E+01	  0.085385405	4.241000E+01	  0.085385405	4.440400E+01
387	  0.085581213	-7.144000E+00	  0.085581213	7.376600E+01	  0.085581213	4.259100E+01	  0.085581213	4.452300E+01
388	  0.085777014	-7.145000E+00	  0.085777014	7.356300E+01	  0.085777014	4.273000E+01	  0.085777014	4.461100E+01
389	  0.085972831	-7.151000E+00	  0.085972831	7.326800E+01	  0.085972831	4.294400E+01	  0.085972831	4.472400E+01
390	  0.086168632	-7.149000E+00	  0.086168632	7.306600E+01	  0.086168632	4.307500E+01	  0.086168632	4.482400E+01
391	  0.086364441	-7.152000E+00	  0.086364441	7.284900E+01	  0.086364441	4.323200E+01	  0.086364441	4.491100E+01
392	  0.086560242	-7.154000E+00	  0.086560242	7.258400E+01	  0.086560242	4.341600E+01	  0.086560242	4.502600E+01
393	  0.086756051	-7.154000E+00	  0.086756051	7.230000E+01	  0.086756051	4.360900E+01	  0.086756051	4.515900E+01
394	  0.086951852	-7.151000E+00	  0.086951852	7.204100E+01	  0.086951852	4.377900E+01	  0.086951852	4.529100E+01
395	  0.087147661	-7.151000E+00	  0.087147661	7.177700E+01	  0.087147661	4.396300E+01	  0.087147661	4.541200E+01
396	  0.087343477	-7.146000E+00	  0.087343477	7.153400E+01	  0.087343477	4.411800E+01	  0.087343477	4.554600E+01
397	  0.087539278	-7.147000E+00	  0.087539278	7.128600E+01	  0.087539278	4.429500E+01	  0.087539278	4.565400E+01
398	  0.087735087	-7.137000E+00	  0.087735087	7.103900E+01	  0.087735087	4.444100E+01	  0.087735087	4.581400E+01
399	  0.087930888	-7.138000E+00	  0.087930888	7.080700E+01	  0.087930888	4.460800E+01	  0.087930888	4.591800E+01
400	  0.088126697	-7.139000E+00	  0.088126697	7.053800E+01	  0.088126697	4.480400E+01	  0.088126697	4.603600E+01
401	  0.088322498	-7.139000E+00	  0.088322498	7.033000E+01	  0.088322498	4.495600E+01	  0.088322498	4.612700E+01
402	  0.088518307	-7.136000E+00	  0.088518307	7.009900E+01	  0.088518307	4.511300E+01	  0.088518307	4.624800E+01
403	  0.088714108	-7.138000E+00	  0.088714108	6.987300E+01	  0.088714108	4.528400E+01	  0.088714108	4.634200E+01
404	  0.088909924	-7.132000E+00	  0.088909924	6.961800E+01	  0.088909924	4.545300E+01	  0.088909924	4.648700E+01
405	  0.089105725	-7.134000E+00	  0.089105725	6.936700E+01	  0.089105725	4.564500E+01	  0.089105725	4.659100E+01
406	  0.089301534	-7.130000E+00	  0.089301534	6.911700E+01	  0.089301534	4.582100E+01	  0.089301534	4.672000E+01
407	  0.089497335	-7.132000E+00	  0.089497335	6.891700E+01	  0.089497335	4.597600E+01	  0.089497335	4.680200E+01
408	  0.089693144	-7.131000E+00	  0.089693144	6.866300E+01	  0.089693144	4.616600E+01	  0.089693144	4.691900E+01
409	  0.089888945	-7.129000E+00	  0.089888945	6.841600E+01	  0.089888945	4.634700E+01	  0.089888945	4.704100E+01
410	  0.090084754	-7.129000E+00	  0.090084754	6.817300E+01	  0.090084754	4.653300E+01	  0.090084754	4.714800E+01
411	  0.090280563	-7.129000E+00	  0.090280563	6.794000E+01	  0.090280563	4.671100E+01	  0.090280563	4.725400E+01
412	  0.090476371	-7.127000E+00	  0.090476371	6.768400E+01	  0.090476371	4.690200E+01	  0.090476371	4.737900E+01
413	  0.090672180	-7.122000E+00	  0.090672180	6.747600E+01	  0.090672180	4.705000E+01	  0.090672180	4.749600E+01
414	  0.090867981	-7.118000E+00	  0.090867981	6.722200E+01	  0.090867981	4.723600E+01	  0.090867981	4.763000E+01
415	  0.091063790	-7.114000E+00	  0.091063790	6.700700E+01	  0.091063790	4.739600E+01	  0.091063790	4.774300E+01
416	  0.091259591	-7.111000E+00	  0.091259591	6.677200E+01	  0.091259591	4.757100E+01	  0.091259591	4.786600E+01
417	  0.091455400	-7.112000E+00	  0.091455400	6.657400E+01	  0.091455400	4.773200E+01	  0.091455400	4.794900E+01
418	  0.091651201	-7.110000E+00	  0.091651201	6.633200E+01	  0.091651201	4.792000E+01	  0.091651201	4.806600E+01
419	  0.091847017	-7.106000E+00	  0.091847017	6.612600E+01	  0.091847017	4.807500E+01	  0.091847017	4.817600E+01
420	  0.092042819	-7.106000E+00	  0.092042819	6.591700E+01	  0.092042819	4.824600E+01	  0.092042819	4.826500E+01
421	  0.092238627	-7.111000E+00	  0.092238627	6.570400E+01	  0.092238627	4.843300E+01	  0.092238627	4.833400E+01
422	  0.092434436	-7.105000E+00	  0.092434436	6.548800E+01	  0.092434436	4.859300E+01	  0.092434436	4.845900E+01
423	  0.092630237	-7.103000E+00	  0.092630237	6.523700E+01	  0.092630237	4.879400E+01	  0.092630237	4.857900E+01
424	  0.092826046	-7.104000E+00	  0.092826046	6.502600E+01	  0.092826046	4.897200E+01	  0.092826046	4.866400E+01
425	  0.093021847	-7.108000E+00	  0.093021847	6.486500E+01	  0.093021847	4.911800E+01	  0.093021847	4.871000E+01
426	  0.093217656	-7.111000E+00	  0.093217656	6.462800E+01	  0.093217656	4.932400E+01	  0.093217656	4.879600E+01
427	  0.093413465	-7.113000E+00	  0.093413465	6.437900E+01	  0.093413465	4.954000E+01	  0.093413465	4.889100E+01
428	  0.093609273	-7.112000E+00	  0.093609273	6.415700E+01	  0.093609273	4.972700E+01	  0.093609273	4.898900E+01
429	  0.093805075	-7.110000E+00	  0.093805075	6.392600E+01	  0.093805075	4.991700E+01	  0.093805075	4.909900E+01
430	  0.094000883	-7.118000E+00	  0.094000883	6.371500E+01	  0.094000883	5.012000E+01	  0.094000883	4.914300E+01
431	  0.094196685	-7.112000E+00	  0.094196685	6.346600E+01	  0.094196685	5.031700E+01	  0.094196685	4.928300E+01
432	  0.094392493	-7.114000E+00	  0.094392493	6.320400E+01	  0.094392493	5.055100E+01	  0.094392493	4.937900E+01
433	  0.094588295	-7.109000E+00	  0.094588295	6.301700E+01	  0.094588295	5.070000E+01	  0.094588295	4.948900E+01
434	  0.094784103	-7.117000E+00	  0.094784103	6.276200E+01	  0.094784103	5.094700E+01	  0.094784103	4.954400E+01
435	  0.094979919	-7.115000E+00	  0.094979919	6.253700E+01	  0.094979919	5.114100E+01	  0.094979919	4.964800E+01
436	  0.095175721	-7.113000E+00	  0.095175721	6.230400E+01	  0.095175721	5.134300E+01	  0.095175721	4.975400E+01
437	  0.095371529	-7.115000E+00	  0.095371529	6.207000E+01	  0.095371529	5.155700E+01	  0.095371529	4.984000E+01
438	  0.095567331	-7.115000E+00	  0.095567331	6.182000E+01	  0.095567331	5.178100E+01	  0.095567331	4.994200E+01
439	  0.095763139	-7.115000E+00	  0.095763139	6.158600E+01	  0.095763139	5.199300E+01	  0.095763139	5.003500E+01
440	  0.095958941	-7.113000E+00	  0.095958941	6.138400E+01	  0.095958941	5.217300E+01	  0.095958941	5.012700E+01
441	  0.096154749	-7.110000E+00	  0.096154749	6.115200E+01	  0.096154749	5.237700E+01	  0.096154749	5.023600E+01
442	  0.096350558	-7.118000E+00	  0.096350558	6.093200E+01	  0.096350558	5.260000E+01	  0.096350558	5.027800E+01
443	  0.096546367	-7.119000E+00	  0.096546367	6.069600E+01	  0.096546367	5.282000E+01	  0.096546367	5.036600E+01
444	  0.096742168	-7.118000E+00	  0.096742168	6.044300E+01	  0.096742168	5.305300E+01	  0.096742168	5.047200E+01
445	  0.096937977	-7.125000E+00	  0.096937977	6.019800E+01	  0.096937977	5.330100E+01	  0.096937977	5.052300E+01
446	  0.097133778	-7.121000E+00	  0.097133778	5.994300E+01	  0.097133778	5.353100E+01	  0.097133778	5.064700E+01
447	  0.097329587	-7.117000E+00	  0.097329587	5.970700E+01	  0.097329587	5.374500E+01	  0.097329587	5.076200E+01
448	  0.097525395	-7.120000E+00	  0.097525395	5.941600E+01	  0.097525395	5.403100E+01	  0.097525395	5.085400E+01
449	  0.097721197	-7.120000E+00	  0.097721197	5.919400E+01	  0.097721197	5.424500E+01	  0.097721197	5.093600E+01
450	  0.097917013	-7.115000E+00	  0.097917013	5.897400E+01	  0.097917013	5.444500E+01	  0.097917013	5.104900E+01
451	  0.098112814	-7.116000E+00	  0.098112814	5.871300E+01	  0.098112814	5.470300E+01	  0.098112814	5.113700E+01
452	  0.098308623	-7.116000E+00	  0.098308623	5.844700E+01	  0.098308623	5.496400E+01	  0.098308623	5.123500E+01
453	  0.098504424	-7.115000E+00	  0.098504424	5.821500E+01	  0.098504424	5.518900E+01	  0.098504424	5.132900E+01
454	  0.098700233	-7.114000E+00	  0.098700233	5.795300E+01	  0.098700233	5.544600E+01	  0.098700233	5.143400E+01
455	  0.098896034	-7.111000E+00	  0.098896034	5.772000E+01	  0.098896034	5.567200E+01	  0.098896034	5.153300E+01
456	  0.099091843	-7.111000E+00	  0.099091843	5.743600E+01	  0.099091843	5.595700E+01	  0.099091843	5.163900E+01
457	  0.099287644	-7.104000E+00	  0.099287644	5.722700E+01	  0.099287644	5.615300E+01	  0.099287644	5.175800E+01
458	  0.099483460	-7.105000E+00	  0.099483460	5.701900E+01	  0.099483460	5.636600E+01	  0.099483460	5.182500E+01
459	  0.099679269	-7.107000E+00	  0.099679269	5.677300E+01	  0.099679269	5.662300E+01	  0.099679269	5.189500E+01
460	  0.099875070	-7.112000E+00	  0.099875070	5.655800E+01	  0.099875070	5.685600E+01	  0.099875070	5.193400E+01
461	  0.100070879	-7.101000E+00	  0.100070879	5.629100E+01	  0.100070879	5.710700E+01	  0.100070879	5.210100E+01
462	  0.100266680	-7.103000E+00	  0.100266680	5.606300E+01	  0.100266680	5.734800E+01	  0.100266680	5.216800E+01
463	  0.100462489	-7.105000E+00	  0.100462489	5.584100E+01	  0.100462489	5.758500E+01	  0.100462489	5.222900E+01
464	  0.100658290	-7.112000E+00	  0.100658290	5.554500E+01	  0.100658290	5.791400E+01	  0.100658290	5.227300E+01
465	  0.100854106	-7.102000E+00	  0.100854106	5.533500E+01	  0.100854106	5.811500E+01	  0.100854106	5.241200E+01
466	  0.101049908	-7.109000E+00	  0.101049908	5.505500E+01	  0.101049908	5.842600E+01	  0.101049908	5.245800E+01
467	  0.101245716	-7.106000E+00	  0.101245716	5.489900E+01	  0.101245716	5.858900E+01	  0.101245716	5.252700E+01
468	  0.101441517	-7.101000E+00	  0.101441517	5.465300E+01	  0.101441517	5.884200E+01	  0.101441517	5.264300E+01
469	  0.101637326	-7.101000E+00	  0.101637326	5.442500E+01	  0.101637326	5.908900E+01	  0.101637326	5.271300E+01
470	  0.101833127	-7.099000E+00	  0.101833127	5.419100E+01	  0.101833127	5.934000E+01	  0.101833127	5.280000E+01
471	  0.102028936	-7.099000E+00	  0.102028936	5.394700E+01	  0.102028936	5.960900E+01	  0.102028936	5.287100E+01
472	  0.102224737	-7.093000E+00	  0.102224737	5.366600E+01	  0.102224737	5.990700E+01	  0.102224737	5.300300E+01
473	  0.102420554	-7.098000E+00	  0.102420554	5.344200E+01	  0.102420554	6.016600E+01	  0.102420554	5.303200E+01
474	  0.102616362	-7.086000E+00	  0.102616362	5.320500E+01	  0.102616362	6.040800E+01	  0.102616362	5.318800E+01
475	  0.102812164	-7.090000E+00	  0.102812164	5.302800E+01	  0.102812164	6.061500E+01	  0.102812164	5.321100E+01
476	  0.103007972	-7.085000E+00	  0.103007972	5.278900E+01	  0.103007972	6.087500E+01	  0.103007972	5.331500E+01
477	  0.103203773	-7.092000E+00	  0.103203773	5.258100E+01	  0.103203773	6.112400E+01	  0.103203773	5.332200E+01
478	  0.103399582	-7.090000E+00	  0.103399582	5.228900E+01	  0.103399582	6.145300E+01	  0.103399582	5.342100E+01
479	  0.103595383	-7.093000E+00	  0.103595383	5.208300E+01	  0.103595383	6.169500E+01	  0.103595383	5.345600E+01
480	  0.103791192	-7.092000E+00	  0.103791192	5.186800E+01	  0.103791192	6.194200E+01	  0.103791192	5.352000E+01
481	  0.103987001	-7.091000E+00	  0.103987001	5.166600E+01	  0.103987001	6.217400E+01	  0.103987001	5.358500E+01
482	  0.104182810	-7.093000E+00	  0.104182810	5.139800E+01	  0.104182810	6.249100E+01	  0.104182810	5.363700E+01
483	  0.104378611	-7.089000E+00	  0.104378611	5.114200E+01	  0.104378611	6.278400E+01	  0.104378611	5.373200E+01
484	  0.104574420	-7.082000E+00	  0.104574420	5.095200E+01	  0.104574420	6.299700E+01	  0.104574420	5.383100E+01
485	  0.104770228	-7.088000E+00	  0.104770228	5.071200E+01	  0.104770228	6.329200E+01	  0.104770228	5.384400E+01
486	  0.104966030	-7.078000E+00	  0.104966030	5.041900E+01	  0.104966030	6.362600E+01	  0.104966030	5.399300E+01
487	  0.105161838	-7.080000E+00	  0.105161838	5.016300E+01	  0.105161838	6.393600E+01	  0.105161838	5.403800E+01
488	  0.105357639	-7.082000E+00	  0.105357639	4.993900E+01	  0.105357639	6.421100E+01	  0.105357639	5.407600E+01
489	  0.105553456	-7.076000E+00	  0.105553456	4.972200E+01	  0.105553456	6.446600E+01	  0.105553456	5.416900E+01
490	  0.105749257	-7.081000E+00	  0.105749257	4.946000E+01	  0.105749257	6.479200E+01	  0.105749257	5.419300E+01
491	  0.105945066	-7.078000E+00	  0.105945066	4.924200E+01	  0.105945066	6.505500E+01	  0.105945066	5.426400E+01
492	  0.106140867	-7.080000E+00	  0.106140867	4.898200E+01	  0.106140867	6.538000E+01	  0.106140867	5.430000E+01
493	  0.106336676	-7.078000E+00	  0.106336676	4.875900E+01	  0.106336676	6.565500E+01	  0.106336676	5.436300E+01
494	  0.106532477	-7.077000E+00	  0.106532477	4.850500E+01	  0.106532477	6.597100E+01	  0.106532477	5.441800E+01
495	  0.106728286	-7.072000E+00	  0.106728286	4.831100E+01	  0.106728286	6.620800E+01	  0.106728286	5.449300E+01
496	  0.106924094	-7.070000E+00	  0.106924094	4.804800E+01	  0.106924094	6.653800E+01	  0.106924094	5.456500E+01
497	  0.107119903	-7.076000E+00	  0.107119903	4.784400E+01	  0.107119903	6.680400E+01	  0.107119903	5.454700E+01
498	  0.107315712	-7.077000E+00	  0.107315712	4.761000E+01	  0.107315712	6.710400E+01	  0.107315712	5.458100E+01
499	  0.107511513	-7.070000E+00	  0.107511513	4.735100E+01	  0.107511513	6.742900E+01	  0.107511513	5.468100E+01
500	  0.107707322	-7.061000E+00	  0.107707322	4.715000E+01	  0.107707322	6.767800E+01	  0.107707322	5.479100E+01
501	  0.107903123	-7.061000E+00	  0.107903123	4.693800E+01	  0.107903123	6.795200E+01	  0.107903123	5.482900E+01
