! Anritsu VNA Master:             	Model: MS2036C/10/77
! SN:             	1601066
! /card0/usr/255.ew.sma.r20.v2_1.txt
! Existing Calibration Information:
! TYPE:             	Current Settings	Active Cal Settings
! TIME:             	12/17/2017 06:15:03 PM	12/17/2017 06:11:23 PM
! INTERNAL TEMP:    	43.8 C	43.8 C
! # POINTS:         	501	501
! START FREQ:       	10.000 MHz	10.000 MHz
! STOP FREQ:        	107.903 125 MHz	107.903 125 MHz
! SOURCE POWER:     	High	High
! IFBW:             	100 Hz	100 Hz
! AVG FACTOR:       	  1 	  1 
! REF PLANE 1:      	0 mm	0 mm
! REF PLANE 2:      	0 mm	0 mm
! CAL TYPE:         	Full S11	Full S11
! CAL METHOD:       	SOLT	SOLT
! CAL LINE TYPE:    	Coax	Coax
! DUT PORT 1:       	K-Conn(F)	K-Conn(F)
! DUT PORT 2:       	K-Conn(F)	K-Conn(F)
! CAL STATUS:       	OK: Accuracy High	--
! PROP-V:       	0.700
! CABLE LOSS:       	0.000 dB/m
! REF IMPEDANCE:       	50.0
! Trace Specific Parameters:	TR1	TR2	TR3	TR4
! TRACE.#.Y (GRAPH TYPE)	LOG MAG	PHASE	REAL IMPEDANCE	IMAGINARY IMPEDANCE
! TRACE.#.X 	FREQ.GHZ	FREQ.GHZ	FREQ.GHZ	FREQ.GHZ
! S-PARAMETER	S11	S11	S11	S11
! SMOOTH/APERTURE %	0	0	0	0
! WINDOW	NSL	NSL	NSL	NSL
! GATING	OFF	OFF	OFF	OFF
! FGTD	OFF	OFF	OFF	OFF
Marker Information per Trace:	TR1	TR2	TR3	TR4
!MK1	--	--	--	--
!MK2	--	--	--	--
!MK3	--	--	--	--
!MK4	--	--	--	--
!MK5	--	--	--	--
!MK6	--	--	--	--
!MK7	--	--	--	--
!MK8	--	--	--	--
PNT	TR1.FREQ.GHZ	TR1.LOG MAG.dB	TR2.FREQ.GHZ	TR2.PHASE.deg	TR3.FREQ.GHZ	TR3.REAL IMPEDANCE.ohm	TR4.FREQ.GHZ	TR4.IMAGINARY IMPEDANCE.ohm
1	  0.010000000	-7.219000E+00	  0.010000000	1.678690E+02	  0.010000000	1.984800E+01	  0.010000000	4.483000E+00
2	  0.010195807	-7.207000E+00	  0.010195807	1.676890E+02	  0.010195807	1.982300E+01	  0.010195807	4.553000E+00
3	  0.010391613	-7.206000E+00	  0.010391613	1.674400E+02	  0.010391613	1.983000E+01	  0.010391613	4.645000E+00
4	  0.010587418	-7.206000E+00	  0.010587418	1.672380E+02	  0.010587418	1.983600E+01	  0.010587418	4.720000E+00
5	  0.010783225	-7.212000E+00	  0.010783225	1.669970E+02	  0.010783225	1.985800E+01	  0.010783225	4.808000E+00
6	  0.010979031	-7.212000E+00	  0.010979031	1.667280E+02	  0.010979031	1.986700E+01	  0.010979031	4.908000E+00
7	  0.011174837	-7.210000E+00	  0.011174837	1.664860E+02	  0.011174837	1.987100E+01	  0.011174837	4.998000E+00
8	  0.011370643	-7.212000E+00	  0.011370643	1.662530E+02	  0.011370643	1.988400E+01	  0.011370643	5.085000E+00
9	  0.011566450	-7.216000E+00	  0.011566450	1.660410E+02	  0.011566450	1.990200E+01	  0.011566450	5.163000E+00
10	  0.011762256	-7.212000E+00	  0.011762256	1.658160E+02	  0.011762256	1.990100E+01	  0.011762256	5.247000E+00
11	  0.011958062	-7.215000E+00	  0.011958062	1.655390E+02	  0.011958062	1.991800E+01	  0.011958062	5.349000E+00
12	  0.012153869	-7.219000E+00	  0.012153869	1.653050E+02	  0.012153869	1.993500E+01	  0.012153869	5.436000E+00
13	  0.012349674	-7.216000E+00	  0.012349674	1.650630E+02	  0.012349674	1.993800E+01	  0.012349674	5.526000E+00
14	  0.012545481	-7.218000E+00	  0.012545481	1.648120E+02	  0.012545481	1.995300E+01	  0.012545481	5.620000E+00
15	  0.012741288	-7.220000E+00	  0.012741288	1.645840E+02	  0.012741288	1.996600E+01	  0.012741288	5.704000E+00
16	  0.012937094	-7.224000E+00	  0.012937094	1.643620E+02	  0.012937094	1.998500E+01	  0.012937094	5.786000E+00
17	  0.013132900	-7.224000E+00	  0.013132900	1.641080E+02	  0.013132900	1.999400E+01	  0.013132900	5.880000E+00
18	  0.013328707	-7.226000E+00	  0.013328707	1.638800E+02	  0.013328707	2.000900E+01	  0.013328707	5.965000E+00
19	  0.013524513	-7.221000E+00	  0.013524513	1.636390E+02	  0.013524513	2.000700E+01	  0.013524513	6.056000E+00
20	  0.013720319	-7.220000E+00	  0.013720319	1.634100E+02	  0.013720319	2.001300E+01	  0.013720319	6.142000E+00
21	  0.013916126	-7.216000E+00	  0.013916126	1.631740E+02	  0.013916126	2.001600E+01	  0.013916126	6.231000E+00
22	  0.014111931	-7.221000E+00	  0.014111931	1.629270E+02	  0.014111931	2.003800E+01	  0.014111931	6.321000E+00
23	  0.014307737	-7.219000E+00	  0.014307737	1.627090E+02	  0.014307737	2.004300E+01	  0.014307737	6.403000E+00
24	  0.014503544	-7.220000E+00	  0.014503544	1.624800E+02	  0.014503544	2.005500E+01	  0.014503544	6.489000E+00
25	  0.014699350	-7.222000E+00	  0.014699350	1.622220E+02	  0.014699350	2.007200E+01	  0.014699350	6.584000E+00
26	  0.014895156	-7.226000E+00	  0.014895156	1.619920E+02	  0.014895156	2.009300E+01	  0.014895156	6.669000E+00
27	  0.015090963	-7.226000E+00	  0.015090963	1.617540E+02	  0.015090963	2.010400E+01	  0.015090963	6.758000E+00
28	  0.015286769	-7.228000E+00	  0.015286769	1.614910E+02	  0.015286769	2.012100E+01	  0.015286769	6.856000E+00
29	  0.015482575	-7.231000E+00	  0.015482575	1.612720E+02	  0.015482575	2.013900E+01	  0.015482575	6.937000E+00
30	  0.015678382	-7.226000E+00	  0.015678382	1.610390E+02	  0.015678382	2.013700E+01	  0.015678382	7.026000E+00
31	  0.015874187	-7.228000E+00	  0.015874187	1.608130E+02	  0.015874187	2.015400E+01	  0.015874187	7.110000E+00
32	  0.016069993	-7.229000E+00	  0.016069993	1.605700E+02	  0.016069993	2.017000E+01	  0.016069993	7.200000E+00
33	  0.016265800	-7.227000E+00	  0.016265800	1.603280E+02	  0.016265800	2.017800E+01	  0.016265800	7.291000E+00
34	  0.016461605	-7.230000E+00	  0.016461605	1.601260E+02	  0.016461605	2.019500E+01	  0.016461605	7.366000E+00
35	  0.016657412	-7.231000E+00	  0.016657412	1.598910E+02	  0.016657412	2.020900E+01	  0.016657412	7.454000E+00
36	  0.016853219	-7.231000E+00	  0.016853219	1.596780E+02	  0.016853219	2.022000E+01	  0.016853219	7.533000E+00
37	  0.017049024	-7.232000E+00	  0.017049024	1.594310E+02	  0.017049024	2.023600E+01	  0.017049024	7.626000E+00
38	  0.017244833	-7.233000E+00	  0.017244833	1.592050E+02	  0.017244833	2.025200E+01	  0.017244833	7.710000E+00
39	  0.017440638	-7.232000E+00	  0.017440638	1.589800E+02	  0.017440638	2.026000E+01	  0.017440638	7.795000E+00
40	  0.017636444	-7.236000E+00	  0.017636444	1.587340E+02	  0.017636444	2.028300E+01	  0.017636444	7.886000E+00
41	  0.017832249	-7.234000E+00	  0.017832249	1.584870E+02	  0.017832249	2.029200E+01	  0.017832249	7.979000E+00
42	  0.018028056	-7.236000E+00	  0.018028056	1.582640E+02	  0.018028056	2.031200E+01	  0.018028056	8.062000E+00
43	  0.018223861	-7.235000E+00	  0.018223861	1.580270E+02	  0.018223861	2.032200E+01	  0.018223861	8.152000E+00
44	  0.018419670	-7.240000E+00	  0.018419670	1.577910E+02	  0.018419670	2.034900E+01	  0.018419670	8.238000E+00
45	  0.018615475	-7.242000E+00	  0.018615475	1.575580E+02	  0.018615475	2.036600E+01	  0.018615475	8.326000E+00
46	  0.018811282	-7.242000E+00	  0.018811282	1.573240E+02	  0.018811282	2.038200E+01	  0.018811282	8.413000E+00
47	  0.019007087	-7.239000E+00	  0.019007087	1.571100E+02	  0.019007087	2.038700E+01	  0.019007087	8.495000E+00
48	  0.019202894	-7.241000E+00	  0.019202894	1.568830E+02	  0.019202894	2.040600E+01	  0.019202894	8.579000E+00
49	  0.019398699	-7.244000E+00	  0.019398699	1.566500E+02	  0.019398699	2.042800E+01	  0.019398699	8.666000E+00
50	  0.019594505	-7.247000E+00	  0.019594505	1.564260E+02	  0.019594505	2.044800E+01	  0.019594505	8.749000E+00
51	  0.019790314	-7.244000E+00	  0.019790314	1.561810E+02	  0.019790314	2.045500E+01	  0.019790314	8.843000E+00
52	  0.019986119	-7.246000E+00	  0.019986119	1.559620E+02	  0.019986119	2.047600E+01	  0.019986119	8.924000E+00
53	  0.020181926	-7.246000E+00	  0.020181926	1.557360E+02	  0.020181926	2.048900E+01	  0.020181926	9.010000E+00
54	  0.020377731	-7.242000E+00	  0.020377731	1.554810E+02	  0.020377731	2.049700E+01	  0.020377731	9.108000E+00
55	  0.020573538	-7.240000E+00	  0.020573538	1.552470E+02	  0.020573538	2.050700E+01	  0.020573538	9.197000E+00
56	  0.020769343	-7.237000E+00	  0.020769343	1.550340E+02	  0.020769343	2.051200E+01	  0.020769343	9.279000E+00
57	  0.020965151	-7.235000E+00	  0.020965151	1.547950E+02	  0.020965151	2.052400E+01	  0.020965151	9.370000E+00
58	  0.021160956	-7.239000E+00	  0.021160956	1.545400E+02	  0.021160956	2.055000E+01	  0.021160956	9.465000E+00
59	  0.021356763	-7.238000E+00	  0.021356763	1.543080E+02	  0.021356763	2.056500E+01	  0.021356763	9.553000E+00
60	  0.021552568	-7.238000E+00	  0.021552568	1.540890E+02	  0.021552568	2.058000E+01	  0.021552568	9.636000E+00
61	  0.021748375	-7.238000E+00	  0.021748375	1.538970E+02	  0.021748375	2.059300E+01	  0.021748375	9.709000E+00
62	  0.021944180	-7.242000E+00	  0.021944180	1.536660E+02	  0.021944180	2.061900E+01	  0.021944180	9.794000E+00
63	  0.022139989	-7.251000E+00	  0.022139989	1.534210E+02	  0.022139989	2.066000E+01	  0.022139989	9.882000E+00
64	  0.022335794	-7.251000E+00	  0.022335794	1.532230E+02	  0.022335794	2.067200E+01	  0.022335794	9.958000E+00
65	  0.022531601	-7.247000E+00	  0.022531601	1.529930E+02	  0.022531601	2.067900E+01	  0.022531601	1.004700E+01
66	  0.022727406	-7.247000E+00	  0.022727406	1.527710E+02	  0.022727406	2.069700E+01	  0.022727406	1.013100E+01
67	  0.022923212	-7.243000E+00	  0.022923212	1.525340E+02	  0.022923212	2.070500E+01	  0.022923212	1.022300E+01
68	  0.023119017	-7.246000E+00	  0.023119017	1.522880E+02	  0.023119017	2.073000E+01	  0.023119017	1.031500E+01
69	  0.023314826	-7.248000E+00	  0.023314826	1.520700E+02	  0.023314826	2.075100E+01	  0.023314826	1.039700E+01
70	  0.023510631	-7.246000E+00	  0.023510631	1.518490E+02	  0.023510631	2.076300E+01	  0.023510631	1.048200E+01
71	  0.023706438	-7.248000E+00	  0.023706438	1.515960E+02	  0.023706438	2.078700E+01	  0.023706438	1.057700E+01
72	  0.023902243	-7.248000E+00	  0.023902243	1.513570E+02	  0.023902243	2.080400E+01	  0.023902243	1.066800E+01
73	  0.024098050	-7.246000E+00	  0.024098050	1.511390E+02	  0.024098050	2.081600E+01	  0.024098050	1.075200E+01
74	  0.024293855	-7.253000E+00	  0.024293855	1.508870E+02	  0.024293855	2.085400E+01	  0.024293855	1.084400E+01
75	  0.024489662	-7.250000E+00	  0.024489662	1.506120E+02	  0.024489662	2.086800E+01	  0.024489662	1.095100E+01
76	  0.024685470	-7.248000E+00	  0.024685470	1.503850E+02	  0.024685470	2.088200E+01	  0.024685470	1.103800E+01
77	  0.024881275	-7.247000E+00	  0.024881275	1.501430E+02	  0.024881275	2.089900E+01	  0.024881275	1.113100E+01
78	  0.025077082	-7.249000E+00	  0.025077082	1.499240E+02	  0.025077082	2.092200E+01	  0.025077082	1.121400E+01
79	  0.025272887	-7.251000E+00	  0.025272887	1.497030E+02	  0.025272887	2.094400E+01	  0.025272887	1.129800E+01
80	  0.025468694	-7.253000E+00	  0.025468694	1.495000E+02	  0.025468694	2.096800E+01	  0.025468694	1.137400E+01
81	  0.025664499	-7.255000E+00	  0.025664499	1.492810E+02	  0.025664499	2.099000E+01	  0.025664499	1.145600E+01
82	  0.025860308	-7.255000E+00	  0.025860308	1.490490E+02	  0.025860308	2.101100E+01	  0.025860308	1.154500E+01
83	  0.026056113	-7.254000E+00	  0.026056113	1.488390E+02	  0.026056113	2.102600E+01	  0.026056113	1.162600E+01
84	  0.026251920	-7.256000E+00	  0.026251920	1.486110E+02	  0.026251920	2.104900E+01	  0.026251920	1.171200E+01
85	  0.026447725	-7.258000E+00	  0.026447725	1.483720E+02	  0.026447725	2.107500E+01	  0.026447725	1.180300E+01
86	  0.026643531	-7.262000E+00	  0.026643531	1.481260E+02	  0.026643531	2.110700E+01	  0.026643531	1.189400E+01
87	  0.026839336	-7.265000E+00	  0.026839336	1.478750E+02	  0.026839336	2.113600E+01	  0.026839336	1.198900E+01
88	  0.027035145	-7.263000E+00	  0.027035145	1.476370E+02	  0.027035145	2.115200E+01	  0.027035145	1.208100E+01
89	  0.027230950	-7.261000E+00	  0.027230950	1.473680E+02	  0.027230950	2.117300E+01	  0.027230950	1.218600E+01
90	  0.027426757	-7.259000E+00	  0.027426757	1.470720E+02	  0.027426757	2.119200E+01	  0.027426757	1.230100E+01
91	  0.027622562	-7.255000E+00	  0.027622562	1.468560E+02	  0.027622562	2.120200E+01	  0.027622562	1.238600E+01
92	  0.027818369	-7.252000E+00	  0.027818369	1.466090E+02	  0.027818369	2.121900E+01	  0.027818369	1.248300E+01
93	  0.028014174	-7.252000E+00	  0.028014174	1.463480E+02	  0.028014174	2.124300E+01	  0.028014174	1.258300E+01
94	  0.028209982	-7.245000E+00	  0.028209982	1.461040E+02	  0.028209982	2.124800E+01	  0.028209982	1.268200E+01
95	  0.028405787	-7.246000E+00	  0.028405787	1.458930E+02	  0.028405787	2.127000E+01	  0.028405787	1.276300E+01
96	  0.028601594	-7.241000E+00	  0.028601594	1.456990E+02	  0.028601594	2.127700E+01	  0.028601594	1.284000E+01
97	  0.028797399	-7.241000E+00	  0.028797399	1.455030E+02	  0.028797399	2.129500E+01	  0.028797399	1.291600E+01
98	  0.028993206	-7.237000E+00	  0.028993206	1.453260E+02	  0.028993206	2.130000E+01	  0.028993206	1.298800E+01
99	  0.029189013	-7.237000E+00	  0.029189013	1.451360E+02	  0.029189013	2.131900E+01	  0.029189013	1.306100E+01
100	  0.029384818	-7.237000E+00	  0.029384818	1.449510E+02	  0.029384818	2.133700E+01	  0.029384818	1.313300E+01
101	  0.029580627	-7.236000E+00	  0.029580627	1.447700E+02	  0.029580627	2.135300E+01	  0.029580627	1.320300E+01
102	  0.029776432	-7.238000E+00	  0.029776432	1.445680E+02	  0.029776432	2.137800E+01	  0.029776432	1.328000E+01
103	  0.029972238	-7.243000E+00	  0.029972238	1.443350E+02	  0.029972238	2.141300E+01	  0.029972238	1.336700E+01
104	  0.030168043	-7.246000E+00	  0.030168043	1.441200E+02	  0.030168043	2.144500E+01	  0.030168043	1.344800E+01
105	  0.030363850	-7.248000E+00	  0.030363850	1.438620E+02	  0.030363850	2.147400E+01	  0.030363850	1.354700E+01
106	  0.030559655	-7.249000E+00	  0.030559655	1.436240E+02	  0.030559655	2.150100E+01	  0.030559655	1.363900E+01
107	  0.030755464	-7.250000E+00	  0.030755464	1.433790E+02	  0.030755464	2.153000E+01	  0.030755464	1.373300E+01
108	  0.030951269	-7.252000E+00	  0.030951269	1.431360E+02	  0.030951269	2.155900E+01	  0.030951269	1.382600E+01
109	  0.031147076	-7.249000E+00	  0.031147076	1.429770E+02	  0.031147076	2.156900E+01	  0.031147076	1.389000E+01
110	  0.031342883	-7.251000E+00	  0.031342883	1.426820E+02	  0.031342883	2.160500E+01	  0.031342883	1.400300E+01
111	  0.031538688	-7.254000E+00	  0.031538688	1.424410E+02	  0.031538688	2.163800E+01	  0.031538688	1.409500E+01
112	  0.031734493	-7.255000E+00	  0.031734493	1.421800E+02	  0.031734493	2.166800E+01	  0.031734493	1.419600E+01
113	  0.031930301	-7.255000E+00	  0.031930301	1.419620E+02	  0.031930301	2.169100E+01	  0.031930301	1.428100E+01
114	  0.032126106	-7.256000E+00	  0.032126106	1.417180E+02	  0.032126106	2.172200E+01	  0.032126106	1.437500E+01
115	  0.032321911	-7.250000E+00	  0.032321911	1.414960E+02	  0.032321911	2.172900E+01	  0.032321911	1.446700E+01
116	  0.032517716	-7.253000E+00	  0.032517716	1.412650E+02	  0.032517716	2.176400E+01	  0.032517716	1.455400E+01
117	  0.032713525	-7.244000E+00	  0.032713525	1.410480E+02	  0.032713525	2.176400E+01	  0.032713525	1.464600E+01
118	  0.032909330	-7.243000E+00	  0.032909330	1.408410E+02	  0.032909330	2.178400E+01	  0.032909330	1.472800E+01
119	  0.033105139	-7.241000E+00	  0.033105139	1.405950E+02	  0.033105139	2.180700E+01	  0.033105139	1.482500E+01
120	  0.033300944	-7.240000E+00	  0.033300944	1.404180E+02	  0.033300944	2.182300E+01	  0.033300944	1.489600E+01
121	  0.033496749	-7.245000E+00	  0.033496749	1.402230E+02	  0.033496749	2.185900E+01	  0.033496749	1.496800E+01
122	  0.033692554	-7.249000E+00	  0.033692554	1.399930E+02	  0.033692554	2.189500E+01	  0.033692554	1.505500E+01
123	  0.033888362	-7.254000E+00	  0.033888362	1.397690E+02	  0.033888362	2.193400E+01	  0.033888362	1.513900E+01
124	  0.034084171	-7.261000E+00	  0.034084171	1.395230E+02	  0.034084171	2.198000E+01	  0.034084171	1.523100E+01
125	  0.034279976	-7.255000E+00	  0.034279976	1.392730E+02	  0.034279976	2.199600E+01	  0.034279976	1.533300E+01
126	  0.034475781	-7.259000E+00	  0.034475781	1.389580E+02	  0.034475781	2.204200E+01	  0.034475781	1.545400E+01
127	  0.034671586	-7.266000E+00	  0.034671586	1.387080E+02	  0.034671586	2.209200E+01	  0.034671586	1.554700E+01
128	  0.034867391	-7.269000E+00	  0.034867391	1.384450E+02	  0.034867391	2.213100E+01	  0.034867391	1.564800E+01
129	  0.035063203	-7.265000E+00	  0.035063203	1.381980E+02	  0.035063203	2.215000E+01	  0.035063203	1.574800E+01
130	  0.035259008	-7.261000E+00	  0.035259008	1.379300E+02	  0.035259008	2.217300E+01	  0.035259008	1.585700E+01
131	  0.035454813	-7.261000E+00	  0.035454813	1.376840E+02	  0.035454813	2.220300E+01	  0.035454813	1.595400E+01
132	  0.035650618	-7.254000E+00	  0.035650618	1.374220E+02	  0.035650618	2.221600E+01	  0.035650618	1.606400E+01
133	  0.035846427	-7.253000E+00	  0.035846427	1.371530E+02	  0.035846427	2.224700E+01	  0.035846427	1.617100E+01
134	  0.036042232	-7.241000E+00	  0.036042232	1.369440E+02	  0.036042232	2.224300E+01	  0.036042232	1.626400E+01
135	  0.036238037	-7.241000E+00	  0.036238037	1.367190E+02	  0.036238037	2.227100E+01	  0.036238037	1.635300E+01
136	  0.036433842	-7.228000E+00	  0.036433842	1.365010E+02	  0.036433842	2.226600E+01	  0.036433842	1.645000E+01
137	  0.036629651	-7.227000E+00	  0.036629651	1.362890E+02	  0.036629651	2.229000E+01	  0.036629651	1.653500E+01
138	  0.036825456	-7.227000E+00	  0.036825456	1.361100E+02	  0.036825456	2.231300E+01	  0.036825456	1.660600E+01
139	  0.037021261	-7.224000E+00	  0.037021261	1.359150E+02	  0.037021261	2.232900E+01	  0.037021261	1.668700E+01
140	  0.037217066	-7.229000E+00	  0.037217066	1.357080E+02	  0.037217066	2.237100E+01	  0.037217066	1.676400E+01
141	  0.037412878	-7.229000E+00	  0.037412878	1.355210E+02	  0.037412878	2.239400E+01	  0.037412878	1.683900E+01
142	  0.037608683	-7.229000E+00	  0.037608683	1.352870E+02	  0.037608683	2.242500E+01	  0.037608683	1.693200E+01
143	  0.037804488	-7.234000E+00	  0.037804488	1.350580E+02	  0.037804488	2.246900E+01	  0.037804488	1.701900E+01
144	  0.038000293	-7.240000E+00	  0.038000293	1.348280E+02	  0.038000293	2.251500E+01	  0.038000293	1.710600E+01
145	  0.038196102	-7.243000E+00	  0.038196102	1.345580E+02	  0.038196102	2.256000E+01	  0.038196102	1.721100E+01
146	  0.038391907	-7.248000E+00	  0.038391907	1.343260E+02	  0.038391907	2.260500E+01	  0.038391907	1.729900E+01
147	  0.038587712	-7.254000E+00	  0.038587712	1.340790E+02	  0.038587712	2.265500E+01	  0.038587712	1.739200E+01
148	  0.038783520	-7.248000E+00	  0.038783520	1.338560E+02	  0.038783520	2.266800E+01	  0.038783520	1.748700E+01
149	  0.038979325	-7.252000E+00	  0.038979325	1.336250E+02	  0.038979325	2.271400E+01	  0.038979325	1.757500E+01
150	  0.039175130	-7.251000E+00	  0.039175130	1.334190E+02	  0.039175130	2.273800E+01	  0.039175130	1.765900E+01
151	  0.039370935	-7.253000E+00	  0.039370935	1.331720E+02	  0.039370935	2.277800E+01	  0.039370935	1.775600E+01
152	  0.039566744	-7.245000E+00	  0.039566744	1.329170E+02	  0.039566744	2.279200E+01	  0.039566744	1.786600E+01
153	  0.039762549	-7.243000E+00	  0.039762549	1.326510E+02	  0.039762549	2.282700E+01	  0.039762549	1.797400E+01
154	  0.039958358	-7.240000E+00	  0.039958358	1.323910E+02	  0.039958358	2.285500E+01	  0.039958358	1.808200E+01
155	  0.040154163	-7.230000E+00	  0.040154163	1.321610E+02	  0.040154163	2.286300E+01	  0.040154163	1.818300E+01
156	  0.040349972	-7.226000E+00	  0.040349972	1.319570E+02	  0.040349972	2.288100E+01	  0.040349972	1.827000E+01
157	  0.040545776	-7.220000E+00	  0.040545776	1.317810E+02	  0.040545776	2.289200E+01	  0.040545776	1.834600E+01
158	  0.040741581	-7.227000E+00	  0.040741581	1.315620E+02	  0.040741581	2.294200E+01	  0.040741581	1.842800E+01
159	  0.040937386	-7.228000E+00	  0.040937386	1.314040E+02	  0.040937386	2.296800E+01	  0.040937386	1.849100E+01
160	  0.041133195	-7.232000E+00	  0.041133195	1.311950E+02	  0.041133195	2.300900E+01	  0.041133195	1.857200E+01
161	  0.041329000	-7.236000E+00	  0.041329000	1.310060E+02	  0.041329000	2.304800E+01	  0.041329000	1.864400E+01
162	  0.041524805	-7.245000E+00	  0.041524805	1.307510E+02	  0.041524805	2.311100E+01	  0.041524805	1.873800E+01
163	  0.041720610	-7.249000E+00	  0.041720610	1.305030E+02	  0.041720610	2.316000E+01	  0.041720610	1.883400E+01
164	  0.041916419	-7.252000E+00	  0.041916419	1.302530E+02	  0.041916419	2.320500E+01	  0.041916419	1.893300E+01
165	  0.042112224	-7.255000E+00	  0.042112224	1.300200E+02	  0.042112224	2.325000E+01	  0.042112224	1.902400E+01
166	  0.042308029	-7.261000E+00	  0.042308029	1.297770E+02	  0.042308029	2.330300E+01	  0.042308029	1.911700E+01
167	  0.042503837	-7.248000E+00	  0.042503837	1.295110E+02	  0.042503837	2.331100E+01	  0.042503837	1.923700E+01
168	  0.042699646	-7.248000E+00	  0.042699646	1.292750E+02	  0.042699646	2.334700E+01	  0.042699646	1.933400E+01
169	  0.042895451	-7.250000E+00	  0.042895451	1.290240E+02	  0.042895451	2.339100E+01	  0.042895451	1.943400E+01
170	  0.043091256	-7.242000E+00	  0.043091256	1.287710E+02	  0.043091256	2.341100E+01	  0.043091256	1.954500E+01
171	  0.043287061	-7.235000E+00	  0.043287061	1.285010E+02	  0.043287061	2.343500E+01	  0.043287061	1.966300E+01
172	  0.043482870	-7.225000E+00	  0.043482870	1.283010E+02	  0.043482870	2.344100E+01	  0.043482870	1.975400E+01
173	  0.043678675	-7.222000E+00	  0.043678675	1.280730E+02	  0.043678675	2.347000E+01	  0.043678675	1.985100E+01
174	  0.043874480	-7.221000E+00	  0.043874480	1.278770E+02	  0.043874480	2.349800E+01	  0.043874480	1.993300E+01
175	  0.044070289	-7.217000E+00	  0.044070289	1.276790E+02	  0.044070289	2.352000E+01	  0.044070289	2.001800E+01
176	  0.044266094	-7.217000E+00	  0.044266094	1.274510E+02	  0.044266094	2.355900E+01	  0.044266094	2.011100E+01
177	  0.044461899	-7.222000E+00	  0.044461899	1.272700E+02	  0.044461899	2.360000E+01	  0.044461899	2.018000E+01
178	  0.044657703	-7.222000E+00	  0.044657703	1.270800E+02	  0.044657703	2.363300E+01	  0.044657703	2.025800E+01
179	  0.044853516	-7.227000E+00	  0.044853516	1.268370E+02	  0.044853516	2.368600E+01	  0.044853516	2.035200E+01
180	  0.045049321	-7.229000E+00	  0.045049321	1.265970E+02	  0.045049321	2.373300E+01	  0.045049321	2.044900E+01
181	  0.045245126	-7.235000E+00	  0.045245126	1.263640E+02	  0.045245126	2.378900E+01	  0.045245126	2.053800E+01
182	  0.045440931	-7.233000E+00	  0.045440931	1.261320E+02	  0.045440931	2.382300E+01	  0.045440931	2.063500E+01
183	  0.045636740	-7.241000E+00	  0.045636740	1.259260E+02	  0.045636740	2.388000E+01	  0.045636740	2.071100E+01
184	  0.045832545	-7.236000E+00	  0.045832545	1.256840E+02	  0.045832545	2.390800E+01	  0.045832545	2.081700E+01
185	  0.046028350	-7.237000E+00	  0.046028350	1.254350E+02	  0.046028350	2.395600E+01	  0.046028350	2.091700E+01
186	  0.046224155	-7.237000E+00	  0.046224155	1.252340E+02	  0.046224155	2.398900E+01	  0.046224155	2.100200E+01
187	  0.046419963	-7.235000E+00	  0.046419963	1.249620E+02	  0.046419963	2.403300E+01	  0.046419963	2.111500E+01
188	  0.046615768	-7.235000E+00	  0.046615768	1.247060E+02	  0.046615768	2.407800E+01	  0.046615768	2.122100E+01
189	  0.046811573	-7.231000E+00	  0.046811573	1.244310E+02	  0.046811573	2.411600E+01	  0.046811573	2.134100E+01
190	  0.047007378	-7.222000E+00	  0.047007378	1.242060E+02	  0.047007378	2.413200E+01	  0.047007378	2.144500E+01
191	  0.047203191	-7.220000E+00	  0.047203191	1.239970E+02	  0.047203191	2.416400E+01	  0.047203191	2.153400E+01
192	  0.047398996	-7.218000E+00	  0.047398996	1.237280E+02	  0.047398996	2.421000E+01	  0.047398996	2.164700E+01
193	  0.047594801	-7.214000E+00	  0.047594801	1.235470E+02	  0.047594801	2.423100E+01	  0.047594801	2.172700E+01
194	  0.047790606	-7.216000E+00	  0.047790606	1.233590E+02	  0.047790606	2.427200E+01	  0.047790606	2.180300E+01
195	  0.047986414	-7.211000E+00	  0.047986414	1.231730E+02	  0.047986414	2.429300E+01	  0.047986414	2.188700E+01
196	  0.048182219	-7.213000E+00	  0.048182219	1.229740E+02	  0.048182219	2.433500E+01	  0.048182219	2.196700E+01
197	  0.048378024	-7.216000E+00	  0.048378024	1.227460E+02	  0.048378024	2.438400E+01	  0.048378024	2.205900E+01
198	  0.048573833	-7.223000E+00	  0.048573833	1.225320E+02	  0.048573833	2.444600E+01	  0.048573833	2.213900E+01
199	  0.048769638	-7.225000E+00	  0.048769638	1.223400E+02	  0.048769638	2.448800E+01	  0.048769638	2.221700E+01
200	  0.048965443	-7.227000E+00	  0.048965443	1.220900E+02	  0.048965443	2.454100E+01	  0.048965443	2.231900E+01
201	  0.049161248	-7.232000E+00	  0.049161248	1.218560E+02	  0.049161248	2.459800E+01	  0.049161248	2.241100E+01
202	  0.049357057	-7.236000E+00	  0.049357057	1.215890E+02	  0.049357057	2.466000E+01	  0.049357057	2.251800E+01
203	  0.049552862	-7.238000E+00	  0.049552862	1.213730E+02	  0.049552862	2.470800E+01	  0.049552862	2.260600E+01
204	  0.049748670	-7.235000E+00	  0.049748670	1.210990E+02	  0.049748670	2.475400E+01	  0.049748670	2.272400E+01
205	  0.049944475	-7.235000E+00	  0.049944475	1.208690E+02	  0.049944475	2.479900E+01	  0.049944475	2.282100E+01
206	  0.050140284	-7.230000E+00	  0.050140284	1.205690E+02	  0.050140284	2.484600E+01	  0.050140284	2.295300E+01
207	  0.050336089	-7.226000E+00	  0.050336089	1.203480E+02	  0.050336089	2.487900E+01	  0.050336089	2.305100E+01
208	  0.050531894	-7.219000E+00	  0.050531894	1.201250E+02	  0.050531894	2.490200E+01	  0.050531894	2.315500E+01
209	  0.050727699	-7.212000E+00	  0.050727699	1.199050E+02	  0.050727699	2.492800E+01	  0.050727699	2.325700E+01
210	  0.050923508	-7.208000E+00	  0.050923508	1.196350E+02	  0.050923508	2.497100E+01	  0.050923508	2.337700E+01
211	  0.051119313	-7.210000E+00	  0.051119313	1.194470E+02	  0.051119313	2.501700E+01	  0.051119313	2.345300E+01
212	  0.051315118	-7.207000E+00	  0.051315118	1.192870E+02	  0.051315118	2.504100E+01	  0.051315118	2.352500E+01
213	  0.051510923	-7.211000E+00	  0.051510923	1.190450E+02	  0.051510923	2.510100E+01	  0.051510923	2.362200E+01
214	  0.051706731	-7.208000E+00	  0.051706731	1.188420E+02	  0.051706731	2.513600E+01	  0.051706731	2.371200E+01
215	  0.051902536	-7.213000E+00	  0.051902536	1.186230E+02	  0.051902536	2.519400E+01	  0.051902536	2.379800E+01
216	  0.052098341	-7.216000E+00	  0.052098341	1.184120E+02	  0.052098341	2.524800E+01	  0.052098341	2.388300E+01
217	  0.052294150	-7.216000E+00	  0.052294150	1.181760E+02	  0.052294150	2.529600E+01	  0.052294150	2.398500E+01
218	  0.052489959	-7.216000E+00	  0.052489959	1.179630E+02	  0.052489959	2.534100E+01	  0.052489959	2.407500E+01
219	  0.052685764	-7.220000E+00	  0.052685764	1.177350E+02	  0.052685764	2.540200E+01	  0.052685764	2.416600E+01
220	  0.052881569	-7.221000E+00	  0.052881569	1.175160E+02	  0.052881569	2.545300E+01	  0.052881569	2.425800E+01
221	  0.053077377	-7.216000E+00	  0.053077377	1.173080E+02	  0.053077377	2.548500E+01	  0.053077377	2.435300E+01
222	  0.053273182	-7.219000E+00	  0.053273182	1.170470E+02	  0.053273182	2.554900E+01	  0.053273182	2.446000E+01
223	  0.053468987	-7.223000E+00	  0.053468987	1.168100E+02	  0.053468987	2.561100E+01	  0.053468987	2.455600E+01
224	  0.053664792	-7.218000E+00	  0.053664792	1.165470E+02	  0.053664792	2.565500E+01	  0.053664792	2.467600E+01
225	  0.053860601	-7.215000E+00	  0.053860601	1.162950E+02	  0.053860601	2.570300E+01	  0.053860601	2.478800E+01
226	  0.054056406	-7.210000E+00	  0.054056406	1.160620E+02	  0.054056406	2.574100E+01	  0.054056406	2.489500E+01
227	  0.054252211	-7.207000E+00	  0.054252211	1.158020E+02	  0.054252211	2.579100E+01	  0.054252211	2.501100E+01
228	  0.054448016	-7.208000E+00	  0.054448016	1.155890E+02	  0.054448016	2.584000E+01	  0.054448016	2.510200E+01
229	  0.054643828	-7.205000E+00	  0.054643828	1.153950E+02	  0.054643828	2.587700E+01	  0.054643828	2.518900E+01
230	  0.054839633	-7.199000E+00	  0.054839633	1.151700E+02	  0.054839633	2.591100E+01	  0.054839633	2.529500E+01
231	  0.055035438	-7.199000E+00	  0.055035438	1.149830E+02	  0.055035438	2.595300E+01	  0.055035438	2.537600E+01
232	  0.055231243	-7.198000E+00	  0.055231243	1.147540E+02	  0.055231243	2.600400E+01	  0.055231243	2.547600E+01
233	  0.055427052	-7.199000E+00	  0.055427052	1.145460E+02	  0.055427052	2.605700E+01	  0.055427052	2.556300E+01
234	  0.055622857	-7.199000E+00	  0.055622857	1.143520E+02	  0.055622857	2.610100E+01	  0.055622857	2.564800E+01
235	  0.055818662	-7.206000E+00	  0.055818662	1.141420E+02	  0.055818662	2.617100E+01	  0.055818662	2.572700E+01
236	  0.056014467	-7.210000E+00	  0.056014467	1.139260E+02	  0.056014467	2.623300E+01	  0.056014467	2.581500E+01
237	  0.056210276	-7.212000E+00	  0.056210276	1.137190E+02	  0.056210276	2.628800E+01	  0.056210276	2.590100E+01
238	  0.056406081	-7.210000E+00	  0.056406081	1.134900E+02	  0.056406081	2.633500E+01	  0.056406081	2.600400E+01
239	  0.056601886	-7.210000E+00	  0.056601886	1.132320E+02	  0.056601886	2.639600E+01	  0.056601886	2.611600E+01
240	  0.056797691	-7.210000E+00	  0.056797691	1.129840E+02	  0.056797691	2.645800E+01	  0.056797691	2.622300E+01
241	  0.056993503	-7.212000E+00	  0.056993503	1.127450E+02	  0.056993503	2.652000E+01	  0.056993503	2.632400E+01
242	  0.057189308	-7.209000E+00	  0.057189308	1.124970E+02	  0.057189308	2.657400E+01	  0.057189308	2.643600E+01
243	  0.057385113	-7.206000E+00	  0.057385113	1.122630E+02	  0.057385113	2.662200E+01	  0.057385113	2.654300E+01
244	  0.057580918	-7.202000E+00	  0.057580918	1.120060E+02	  0.057580918	2.667300E+01	  0.057580918	2.666300E+01
245	  0.057776727	-7.203000E+00	  0.057776727	1.117710E+02	  0.057776727	2.673500E+01	  0.057776727	2.676300E+01
246	  0.057972532	-7.202000E+00	  0.057972532	1.114990E+02	  0.057972532	2.680000E+01	  0.057972532	2.688300E+01
247	  0.058168337	-7.198000E+00	  0.058168337	1.113350E+02	  0.058168337	2.683100E+01	  0.058168337	2.696100E+01
248	  0.058364145	-7.196000E+00	  0.058364145	1.111330E+02	  0.058364145	2.687500E+01	  0.058364145	2.705400E+01
249	  0.058559950	-7.197000E+00	  0.058559950	1.109110E+02	  0.058559950	2.693500E+01	  0.058559950	2.714900E+01
250	  0.058755755	-7.194000E+00	  0.058755755	1.106740E+02	  0.058755755	2.698800E+01	  0.058755755	2.725700E+01
251	  0.058951560	-7.193000E+00	  0.058951560	1.104520E+02	  0.058951560	2.704300E+01	  0.058951560	2.735600E+01
252	  0.059147369	-7.194000E+00	  0.059147369	1.102620E+02	  0.059147369	2.709400E+01	  0.059147369	2.743900E+01
253	  0.059343174	-7.198000E+00	  0.059343174	1.100350E+02	  0.059343174	2.716400E+01	  0.059343174	2.753300E+01
254	  0.059538983	-7.200000E+00	  0.059538983	1.098500E+02	  0.059538983	2.721900E+01	  0.059538983	2.761000E+01
255	  0.059734788	-7.201000E+00	  0.059734788	1.096260E+02	  0.059734788	2.728100E+01	  0.059734788	2.770700E+01
256	  0.059930597	-7.198000E+00	  0.059930597	1.094160E+02	  0.059930597	2.732700E+01	  0.059930597	2.780400E+01
257	  0.060126401	-7.199000E+00	  0.060126401	1.091720E+02	  0.060126401	2.739500E+01	  0.060126401	2.791000E+01
258	  0.060322206	-7.197000E+00	  0.060322206	1.089430E+02	  0.060322206	2.745100E+01	  0.060322206	2.801500E+01
259	  0.060518011	-7.198000E+00	  0.060518011	1.086950E+02	  0.060518011	2.752000E+01	  0.060518011	2.812300E+01
260	  0.060713820	-7.198000E+00	  0.060713820	1.084430E+02	  0.060713820	2.758900E+01	  0.060713820	2.823400E+01
261	  0.060909625	-7.202000E+00	  0.060909625	1.081850E+02	  0.060909625	2.767000E+01	  0.060909625	2.834100E+01
262	  0.061105430	-7.196000E+00	  0.061105430	1.079430E+02	  0.061105430	2.771900E+01	  0.061105430	2.846000E+01
263	  0.061301235	-7.189000E+00	  0.061301235	1.076740E+02	  0.061301235	2.777300E+01	  0.061301235	2.859200E+01
264	  0.061497044	-7.192000E+00	  0.061497044	1.074700E+02	  0.061497044	2.783800E+01	  0.061497044	2.867700E+01
265	  0.061692849	-7.187000E+00	  0.061692849	1.072400E+02	  0.061692849	2.788900E+01	  0.061692849	2.878800E+01
266	  0.061888654	-7.188000E+00	  0.061888654	1.070470E+02	  0.061888654	2.794500E+01	  0.061888654	2.887300E+01
267	  0.062084462	-7.184000E+00	  0.062084462	1.068400E+02	  0.062084462	2.799200E+01	  0.062084462	2.897200E+01
268	  0.062280271	-7.177000E+00	  0.062280271	1.066150E+02	  0.062280271	2.803600E+01	  0.062280271	2.908600E+01
269	  0.062476076	-7.176000E+00	  0.062476076	1.064600E+02	  0.062476076	2.807600E+01	  0.062476076	2.915800E+01
270	  0.062671877	-7.172000E+00	  0.062671877	1.062430E+02	  0.062671877	2.812800E+01	  0.062671877	2.926100E+01
271	  0.062867686	-7.168000E+00	  0.062867686	1.060560E+02	  0.062867686	2.817000E+01	  0.062867686	2.935200E+01
272	  0.063063495	-7.174000E+00	  0.063063495	1.058610E+02	  0.063063495	2.824300E+01	  0.063063495	2.943000E+01
273	  0.063259304	-7.170000E+00	  0.063259304	1.056010E+02	  0.063259304	2.830900E+01	  0.063259304	2.955200E+01
274	  0.063455105	-7.178000E+00	  0.063455105	1.054540E+02	  0.063455105	2.837500E+01	  0.063455105	2.960300E+01
275	  0.063650914	-7.179000E+00	  0.063650914	1.051940E+02	  0.063650914	2.845400E+01	  0.063650914	2.971800E+01
276	  0.063846722	-7.184000E+00	  0.063846722	1.049570E+02	  0.063846722	2.853900E+01	  0.063846722	2.981500E+01
277	  0.064042524	-7.176000E+00	  0.064042524	1.047040E+02	  0.064042524	2.859000E+01	  0.064042524	2.994500E+01
278	  0.064238332	-7.186000E+00	  0.064238332	1.045160E+02	  0.064238332	2.867500E+01	  0.064238332	3.001000E+01
279	  0.064434141	-7.174000E+00	  0.064434141	1.042630E+02	  0.064434141	2.871800E+01	  0.064434141	3.014700E+01
280	  0.064629942	-7.182000E+00	  0.064629942	1.039900E+02	  0.064629942	2.882300E+01	  0.064629942	3.025500E+01
281	  0.064825751	-7.176000E+00	  0.064825751	1.037540E+02	  0.064825751	2.887700E+01	  0.064825751	3.037400E+01
282	  0.065021552	-7.176000E+00	  0.065021552	1.035640E+02	  0.065021552	2.893400E+01	  0.065021552	3.046000E+01
283	  0.065217361	-7.173000E+00	  0.065217361	1.033150E+02	  0.065217361	2.900400E+01	  0.065217361	3.057800E+01
284	  0.065413170	-7.170000E+00	  0.065413170	1.030650E+02	  0.065413170	2.907300E+01	  0.065413170	3.069700E+01
285	  0.065608978	-7.170000E+00	  0.065608978	1.028730E+02	  0.065608978	2.913300E+01	  0.065608978	3.078400E+01
286	  0.065804780	-7.169000E+00	  0.065804780	1.026310E+02	  0.065804780	2.920700E+01	  0.065804780	3.089500E+01
287	  0.066000588	-7.170000E+00	  0.066000588	1.024340E+02	  0.066000588	2.927200E+01	  0.066000588	3.098300E+01
288	  0.066196397	-7.166000E+00	  0.066196397	1.022350E+02	  0.066196397	2.932200E+01	  0.066196397	3.108200E+01
289	  0.066392198	-7.166000E+00	  0.066392198	1.019920E+02	  0.066392198	2.940100E+01	  0.066392198	3.119200E+01
290	  0.066588007	-7.171000E+00	  0.066588007	1.017990E+02	  0.066588007	2.947500E+01	  0.066588007	3.127100E+01
291	  0.066783816	-7.165000E+00	  0.066783816	1.016220E+02	  0.066783816	2.951600E+01	  0.066783816	3.136300E+01
292	  0.066979617	-7.162000E+00	  0.066979617	1.013710E+02	  0.066979617	2.958800E+01	  0.066979617	3.148400E+01
293	  0.067175426	-7.163000E+00	  0.067175426	1.011390E+02	  0.067175426	2.966600E+01	  0.067175426	3.158800E+01
294	  0.067371234	-7.169000E+00	  0.067371234	1.009080E+02	  0.067371234	2.975900E+01	  0.067371234	3.168200E+01
295	  0.067567036	-7.169000E+00	  0.067567036	1.007000E+02	  0.067567036	2.983000E+01	  0.067567036	3.177500E+01
296	  0.067762844	-7.166000E+00	  0.067762844	1.004820E+02	  0.067762844	2.989100E+01	  0.067762844	3.188400E+01
297	  0.067958646	-7.167000E+00	  0.067958646	1.002100E+02	  0.067958646	2.998700E+01	  0.067958646	3.200400E+01
298	  0.068154462	-7.165000E+00	  0.068154462	1.000010E+02	  0.068154462	3.005000E+01	  0.068154462	3.210500E+01
299	  0.068350263	-7.162000E+00	  0.068350263	9.972300E+01	  0.068350263	3.013600E+01	  0.068350263	3.223900E+01
300	  0.068546072	-7.161000E+00	  0.068546072	9.950600E+01	  0.068546072	3.020700E+01	  0.068546072	3.234100E+01
301	  0.068741873	-7.159000E+00	  0.068741873	9.930600E+01	  0.068741873	3.026800E+01	  0.068741873	3.243700E+01
302	  0.068937682	-7.158000E+00	  0.068937682	9.905300E+01	  0.068937682	3.035100E+01	  0.068937682	3.255800E+01
303	  0.069133483	-7.152000E+00	  0.069133483	9.885800E+01	  0.069133483	3.040100E+01	  0.069133483	3.266000E+01
304	  0.069329299	-7.156000E+00	  0.069329299	9.863800E+01	  0.069329299	3.049000E+01	  0.069329299	3.275200E+01
305	  0.069525100	-7.145000E+00	  0.069525100	9.840600E+01	  0.069525100	3.053700E+01	  0.069525100	3.288500E+01
306	  0.069720909	-7.152000E+00	  0.069720909	9.820900E+01	  0.069720909	3.062900E+01	  0.069720909	3.295900E+01
307	  0.069916710	-7.143000E+00	  0.069916710	9.801700E+01	  0.069916710	3.066800E+01	  0.069916710	3.307000E+01
308	  0.070112519	-7.148000E+00	  0.070112519	9.778300E+01	  0.070112519	3.076700E+01	  0.070112519	3.316600E+01
309	  0.070308320	-7.145000E+00	  0.070308320	9.758700E+01	  0.070308320	3.082700E+01	  0.070308320	3.326500E+01
310	  0.070504129	-7.150000E+00	  0.070504129	9.738200E+01	  0.070504129	3.091500E+01	  0.070504129	3.334800E+01
311	  0.070699938	-7.152000E+00	  0.070699938	9.718400E+01	  0.070699938	3.099500E+01	  0.070699938	3.343400E+01
312	  0.070895746	-7.146000E+00	  0.070895746	9.693600E+01	  0.070895746	3.106500E+01	  0.070895746	3.356400E+01
313	  0.071091555	-7.152000E+00	  0.071091555	9.675400E+01	  0.071091555	3.114900E+01	  0.071091555	3.363400E+01
314	  0.071287356	-7.159000E+00	  0.071287356	9.648900E+01	  0.071287356	3.126800E+01	  0.071287356	3.374100E+01
315	  0.071483165	-7.149000E+00	  0.071483165	9.626000E+01	  0.071483165	3.132400E+01	  0.071483165	3.387000E+01
316	  0.071678966	-7.155000E+00	  0.071678966	9.607100E+01	  0.071678966	3.141100E+01	  0.071678966	3.394500E+01
317	  0.071874775	-7.152000E+00	  0.071874775	9.579600E+01	  0.071874775	3.150500E+01	  0.071874775	3.408000E+01
318	  0.072070576	-7.155000E+00	  0.072070576	9.556400E+01	  0.072070576	3.160200E+01	  0.072070576	3.417900E+01
319	  0.072266392	-7.156000E+00	  0.072266392	9.531900E+01	  0.072266392	3.169800E+01	  0.072266392	3.429100E+01
320	  0.072462194	-7.154000E+00	  0.072462194	9.511000E+01	  0.072462194	3.176900E+01	  0.072462194	3.439600E+01
321	  0.072658002	-7.151000E+00	  0.072658002	9.487500E+01	  0.072658002	3.185000E+01	  0.072658002	3.451300E+01
322	  0.072853811	-7.148000E+00	  0.072853811	9.465600E+01	  0.072853811	3.192600E+01	  0.072853811	3.462200E+01
323	  0.073049612	-7.150000E+00	  0.073049612	9.441100E+01	  0.073049612	3.202600E+01	  0.073049612	3.473200E+01
324	  0.073245421	-7.144000E+00	  0.073245421	9.420600E+01	  0.073245421	3.208800E+01	  0.073245421	3.484300E+01
325	  0.073441222	-7.143000E+00	  0.073441222	9.403200E+01	  0.073441222	3.215400E+01	  0.073441222	3.492600E+01
326	  0.073637031	-7.140000E+00	  0.073637031	9.377000E+01	  0.073637031	3.224600E+01	  0.073637031	3.505800E+01
327	  0.073832840	-7.137000E+00	  0.073832840	9.356200E+01	  0.073832840	3.232100E+01	  0.073832840	3.516200E+01
328	  0.074028648	-7.140000E+00	  0.074028648	9.336900E+01	  0.074028648	3.240700E+01	  0.074028648	3.524500E+01
329	  0.074224450	-7.135000E+00	  0.074224450	9.312500E+01	  0.074224450	3.248900E+01	  0.074224450	3.537200E+01
330	  0.074420258	-7.146000E+00	  0.074420258	9.293700E+01	  0.074420258	3.259700E+01	  0.074420258	3.543400E+01
331	  0.074616060	-7.143000E+00	  0.074616060	9.268700E+01	  0.074616060	3.268900E+01	  0.074616060	3.555900E+01
332	  0.074811868	-7.140000E+00	  0.074811868	9.247900E+01	  0.074811868	3.276700E+01	  0.074811868	3.566300E+01
333	  0.075007670	-7.145000E+00	  0.075007670	9.224900E+01	  0.075007670	3.287400E+01	  0.075007670	3.576000E+01
334	  0.075203478	-7.136000E+00	  0.075203478	9.201700E+01	  0.075203478	3.294300E+01	  0.075203478	3.589200E+01
335	  0.075399294	-7.142000E+00	  0.075399294	9.179200E+01	  0.075399294	3.305300E+01	  0.075399294	3.598400E+01
336	  0.075595096	-7.143000E+00	  0.075595096	9.151500E+01	  0.075595096	3.317100E+01	  0.075595096	3.611200E+01
337	  0.075790904	-7.138000E+00	  0.075790904	9.130200E+01	  0.075790904	3.324500E+01	  0.075790904	3.622600E+01
338	  0.075986706	-7.137000E+00	  0.075986706	9.108100E+01	  0.075986706	3.333600E+01	  0.075986706	3.633200E+01
339	  0.076182514	-7.138000E+00	  0.076182514	9.085600E+01	  0.076182514	3.343300E+01	  0.076182514	3.643700E+01
340	  0.076378316	-7.133000E+00	  0.076378316	9.062400E+01	  0.076378316	3.351800E+01	  0.076378316	3.656000E+01
341	  0.076574124	-7.129000E+00	  0.076574124	9.041300E+01	  0.076574124	3.359600E+01	  0.076574124	3.667200E+01
342	  0.076769926	-7.130000E+00	  0.076769926	9.020400E+01	  0.076769926	3.368900E+01	  0.076769926	3.676800E+01
343	  0.076965742	-7.124000E+00	  0.076965742	8.999500E+01	  0.076965742	3.376300E+01	  0.076965742	3.688200E+01
344	  0.077161543	-7.122000E+00	  0.077161543	8.977900E+01	  0.077161543	3.385000E+01	  0.077161543	3.699100E+01
345	  0.077357352	-7.122000E+00	  0.077357352	8.954800E+01	  0.077357352	3.395000E+01	  0.077357352	3.710100E+01
346	  0.077553153	-7.125000E+00	  0.077553153	8.935000E+01	  0.077553153	3.404800E+01	  0.077553153	3.718700E+01
347	  0.077748962	-7.120000E+00	  0.077748962	8.916000E+01	  0.077748962	3.411700E+01	  0.077748962	3.729100E+01
348	  0.077944770	-7.121000E+00	  0.077944770	8.894200E+01	  0.077944770	3.421500E+01	  0.077944770	3.739300E+01
349	  0.078140572	-7.129000E+00	  0.078140572	8.873400E+01	  0.078140572	3.433300E+01	  0.078140572	3.746900E+01
350	  0.078336388	-7.131000E+00	  0.078336388	8.852100E+01	  0.078336388	3.443700E+01	  0.078336388	3.756300E+01
351	  0.078532189	-7.124000E+00	  0.078532189	8.827300E+01	  0.078532189	3.452600E+01	  0.078532189	3.770300E+01
352	  0.078727998	-7.133000E+00	  0.078727998	8.805700E+01	  0.078727998	3.465300E+01	  0.078727998	3.777900E+01
353	  0.078923799	-7.130000E+00	  0.078923799	8.780000E+01	  0.078923799	3.476100E+01	  0.078923799	3.791100E+01
354	  0.079119608	-7.135000E+00	  0.079119608	8.757700E+01	  0.079119608	3.488100E+01	  0.079119608	3.800100E+01
355	  0.079315409	-7.134000E+00	  0.079315409	8.734400E+01	  0.079315409	3.498700E+01	  0.079315409	3.811300E+01
356	  0.079511218	-7.140000E+00	  0.079511218	8.712000E+01	  0.079511218	3.510700E+01	  0.079511218	3.820400E+01
357	  0.079707019	-7.132000E+00	  0.079707019	8.686700E+01	  0.079707019	3.520200E+01	  0.079707019	3.834900E+01
358	  0.079902835	-7.133000E+00	  0.079902835	8.663700E+01	  0.079902835	3.531400E+01	  0.079902835	3.845400E+01
359	  0.080098644	-7.128000E+00	  0.080098644	8.639300E+01	  0.080098644	3.541500E+01	  0.080098644	3.858700E+01
360	  0.080294445	-7.127000E+00	  0.080294445	8.617500E+01	  0.080294445	3.551500E+01	  0.080294445	3.869500E+01
361	  0.080490254	-7.120000E+00	  0.080490254	8.596800E+01	  0.080490254	3.559200E+01	  0.080490254	3.881600E+01
362	  0.080686055	-7.125000E+00	  0.080686055	8.571800E+01	  0.080686055	3.573100E+01	  0.080686055	3.891800E+01
363	  0.080881864	-7.120000E+00	  0.080881864	8.555200E+01	  0.080881864	3.579400E+01	  0.080881864	3.901500E+01
364	  0.081077665	-7.116000E+00	  0.081077665	8.530900E+01	  0.081077665	3.590000E+01	  0.081077665	3.914400E+01
365	  0.081273474	-7.122000E+00	  0.081273474	8.508300E+01	  0.081273474	3.603300E+01	  0.081273474	3.923000E+01
366	  0.081469283	-7.117000E+00	  0.081469283	8.485200E+01	  0.081469283	3.613100E+01	  0.081469283	3.935700E+01
367	  0.081665091	-7.118000E+00	  0.081665091	8.466000E+01	  0.081665091	3.622800E+01	  0.081665091	3.944800E+01
368	  0.081860892	-7.110000E+00	  0.081860892	8.442700E+01	  0.081860892	3.632000E+01	  0.081860892	3.958500E+01
369	  0.082056701	-7.114000E+00	  0.082056701	8.421300E+01	  0.082056701	3.644000E+01	  0.082056701	3.967500E+01
370	  0.082252502	-7.117000E+00	  0.082252502	8.394500E+01	  0.082252502	3.658500E+01	  0.082252502	3.979300E+01
371	  0.082448311	-7.117000E+00	  0.082448311	8.374800E+01	  0.082448311	3.668500E+01	  0.082448311	3.988900E+01
372	  0.082644112	-7.116000E+00	  0.082644112	8.352900E+01	  0.082644112	3.679500E+01	  0.082644112	3.999600E+01
373	  0.082839929	-7.115000E+00	  0.082839929	8.331500E+01	  0.082839929	3.690200E+01	  0.082839929	4.010200E+01
374	  0.083035737	-7.117000E+00	  0.083035737	8.303800E+01	  0.083035737	3.705300E+01	  0.083035737	4.022800E+01
375	  0.083231539	-7.114000E+00	  0.083231539	8.284100E+01	  0.083231539	3.714500E+01	  0.083231539	4.033200E+01
376	  0.083427347	-7.111000E+00	  0.083427347	8.261900E+01	  0.083427347	3.725400E+01	  0.083427347	4.044800E+01
377	  0.083623149	-7.110000E+00	  0.083623149	8.238200E+01	  0.083623149	3.737500E+01	  0.083623149	4.056600E+01
378	  0.083818957	-7.109000E+00	  0.083818957	8.215600E+01	  0.083818957	3.749000E+01	  0.083818957	4.067900E+01
379	  0.084014758	-7.103000E+00	  0.084014758	8.194300E+01	  0.084014758	3.758600E+01	  0.084014758	4.080200E+01
380	  0.084210567	-7.104000E+00	  0.084210567	8.171000E+01	  0.084210567	3.771300E+01	  0.084210567	4.091100E+01
381	  0.084406376	-7.100000E+00	  0.084406376	8.153000E+01	  0.084406376	3.779700E+01	  0.084406376	4.101200E+01
382	  0.084602185	-7.099000E+00	  0.084602185	8.133000E+01	  0.084602185	3.790200E+01	  0.084602185	4.111200E+01
383	  0.084797986	-7.098000E+00	  0.084797986	8.108700E+01	  0.084797986	3.803500E+01	  0.084797986	4.123000E+01
384	  0.084993795	-7.107000E+00	  0.084993795	8.088100E+01	  0.084993795	3.817300E+01	  0.084993795	4.129900E+01
385	  0.085189603	-7.098000E+00	  0.085189603	8.066500E+01	  0.085189603	3.826500E+01	  0.085189603	4.143500E+01
386	  0.085385405	-7.101000E+00	  0.085385405	8.047400E+01	  0.085385405	3.838200E+01	  0.085385405	4.151400E+01
387	  0.085581213	-7.105000E+00	  0.085581213	8.021900E+01	  0.085581213	3.853500E+01	  0.085581213	4.162200E+01
388	  0.085777014	-7.104000E+00	  0.085777014	8.002500E+01	  0.085777014	3.864200E+01	  0.085777014	4.171800E+01
389	  0.085972831	-7.104000E+00	  0.085972831	7.979800E+01	  0.085972831	3.876800E+01	  0.085972831	4.182900E+01
390	  0.086168632	-7.110000E+00	  0.086168632	7.958700E+01	  0.086168632	3.891000E+01	  0.086168632	4.190500E+01
391	  0.086364441	-7.115000E+00	  0.086364441	7.939100E+01	  0.086364441	3.903500E+01	  0.086364441	4.198200E+01
392	  0.086560242	-7.110000E+00	  0.086560242	7.908800E+01	  0.086560242	3.919300E+01	  0.086560242	4.214700E+01
393	  0.086756051	-7.108000E+00	  0.086756051	7.889400E+01	  0.086756051	3.930000E+01	  0.086756051	4.224500E+01
394	  0.086951852	-7.105000E+00	  0.086951852	7.865500E+01	  0.086951852	3.942900E+01	  0.086951852	4.237200E+01
395	  0.087147661	-7.110000E+00	  0.087147661	7.841300E+01	  0.087147661	3.958600E+01	  0.087147661	4.246900E+01
396	  0.087343477	-7.102000E+00	  0.087343477	7.816600E+01	  0.087343477	3.970700E+01	  0.087343477	4.261700E+01
397	  0.087539278	-7.097000E+00	  0.087539278	7.795300E+01	  0.087539278	3.981600E+01	  0.087539278	4.274000E+01
398	  0.087735087	-7.099000E+00	  0.087735087	7.773600E+01	  0.087735087	3.995200E+01	  0.087735087	4.283500E+01
399	  0.087930888	-7.095000E+00	  0.087930888	7.754600E+01	  0.087930888	4.005400E+01	  0.087930888	4.294200E+01
400	  0.088126697	-7.091000E+00	  0.088126697	7.730700E+01	  0.088126697	4.018600E+01	  0.088126697	4.306900E+01
401	  0.088322498	-7.089000E+00	  0.088322498	7.710800E+01	  0.088322498	4.030100E+01	  0.088322498	4.317200E+01
402	  0.088518307	-7.089000E+00	  0.088518307	7.690200E+01	  0.088518307	4.042500E+01	  0.088518307	4.327300E+01
403	  0.088714108	-7.089000E+00	  0.088714108	7.667800E+01	  0.088714108	4.056100E+01	  0.088714108	4.338100E+01
404	  0.088909924	-7.096000E+00	  0.088909924	7.645400E+01	  0.088909924	4.072100E+01	  0.088909924	4.346000E+01
405	  0.089105725	-7.086000E+00	  0.089105725	7.622100E+01	  0.089105725	4.083700E+01	  0.089105725	4.360800E+01
406	  0.089301534	-7.090000E+00	  0.089301534	7.601100E+01	  0.089301534	4.097800E+01	  0.089301534	4.369500E+01
407	  0.089497335	-7.085000E+00	  0.089497335	7.580100E+01	  0.089497335	4.109400E+01	  0.089497335	4.381600E+01
408	  0.089693144	-7.090000E+00	  0.089693144	7.561100E+01	  0.089693144	4.122900E+01	  0.089693144	4.388600E+01
409	  0.089888945	-7.085000E+00	  0.089888945	7.534200E+01	  0.089888945	4.138600E+01	  0.089888945	4.403200E+01
410	  0.090084754	-7.089000E+00	  0.090084754	7.510100E+01	  0.090084754	4.155300E+01	  0.090084754	4.412900E+01
411	  0.090280563	-7.088000E+00	  0.090280563	7.490600E+01	  0.090280563	4.167300E+01	  0.090280563	4.422800E+01
412	  0.090476371	-7.088000E+00	  0.090476371	7.467000E+01	  0.090476371	4.182600E+01	  0.090476371	4.433900E+01
413	  0.090672180	-7.088000E+00	  0.090672180	7.447300E+01	  0.090672180	4.195300E+01	  0.090672180	4.443300E+01
414	  0.090867981	-7.085000E+00	  0.090867981	7.423100E+01	  0.090867981	4.210300E+01	  0.090867981	4.455900E+01
415	  0.091063790	-7.080000E+00	  0.091063790	7.404900E+01	  0.091063790	4.220600E+01	  0.091063790	4.466800E+01
416	  0.091259591	-7.076000E+00	  0.091259591	7.380000E+01	  0.091259591	4.235600E+01	  0.091259591	4.480600E+01
417	  0.091455400	-7.076000E+00	  0.091455400	7.361200E+01	  0.091455400	4.248400E+01	  0.091455400	4.489200E+01
418	  0.091651201	-7.071000E+00	  0.091651201	7.339500E+01	  0.091651201	4.261200E+01	  0.091651201	4.501800E+01
419	  0.091847017	-7.073000E+00	  0.091847017	7.315900E+01	  0.091847017	4.277700E+01	  0.091847017	4.512000E+01
420	  0.092042819	-7.067000E+00	  0.092042819	7.296800E+01	  0.092042819	4.288700E+01	  0.092042819	4.523800E+01
421	  0.092238627	-7.073000E+00	  0.092238627	7.276800E+01	  0.092238627	4.304100E+01	  0.092238627	4.530500E+01
422	  0.092434436	-7.073000E+00	  0.092434436	7.256500E+01	  0.092434436	4.318100E+01	  0.092434436	4.539800E+01
423	  0.092630237	-7.072000E+00	  0.092630237	7.235500E+01	  0.092630237	4.332200E+01	  0.092630237	4.550200E+01
424	  0.092826046	-7.074000E+00	  0.092826046	7.212600E+01	  0.092826046	4.348600E+01	  0.092826046	4.560100E+01
425	  0.093021847	-7.075000E+00	  0.093021847	7.191400E+01	  0.093021847	4.363600E+01	  0.093021847	4.569500E+01
426	  0.093217656	-7.076000E+00	  0.093217656	7.167400E+01	  0.093217656	4.380500E+01	  0.093217656	4.580600E+01
427	  0.093413465	-7.079000E+00	  0.093413465	7.146500E+01	  0.093413465	4.396200E+01	  0.093413465	4.588800E+01
428	  0.093609273	-7.079000E+00	  0.093609273	7.125300E+01	  0.093609273	4.411000E+01	  0.093609273	4.598900E+01
429	  0.093805075	-7.081000E+00	  0.093805075	7.100800E+01	  0.093805075	4.429200E+01	  0.093805075	4.609200E+01
430	  0.094000883	-7.078000E+00	  0.094000883	7.079700E+01	  0.094000883	4.443200E+01	  0.094000883	4.620500E+01
431	  0.094196685	-7.076000E+00	  0.094196685	7.055200E+01	  0.094196685	4.460600E+01	  0.094196685	4.632500E+01
432	  0.094392493	-7.076000E+00	  0.094392493	7.033500E+01	  0.094392493	4.476000E+01	  0.094392493	4.642900E+01
433	  0.094588295	-7.073000E+00	  0.094588295	7.010000E+01	  0.094588295	4.492100E+01	  0.094588295	4.655200E+01
434	  0.094784103	-7.074000E+00	  0.094784103	6.990900E+01	  0.094784103	4.506400E+01	  0.094784103	4.663500E+01
435	  0.094979919	-7.069000E+00	  0.094979919	6.970500E+01	  0.094979919	4.520200E+01	  0.094979919	4.675000E+01
436	  0.095175721	-7.069000E+00	  0.095175721	6.946900E+01	  0.095175721	4.537300E+01	  0.095175721	4.686300E+01
437	  0.095371529	-7.060000E+00	  0.095371529	6.925600E+01	  0.095371529	4.550600E+01	  0.095371529	4.700400E+01
438	  0.095567331	-7.066000E+00	  0.095567331	6.903500E+01	  0.095567331	4.569100E+01	  0.095567331	4.707300E+01
439	  0.095763139	-7.066000E+00	  0.095763139	6.879700E+01	  0.095763139	4.586800E+01	  0.095763139	4.718600E+01
440	  0.095958941	-7.062000E+00	  0.095958941	6.859200E+01	  0.095958941	4.601400E+01	  0.095958941	4.729600E+01
441	  0.096154749	-7.066000E+00	  0.096154749	6.838900E+01	  0.096154749	4.618000E+01	  0.096154749	4.736800E+01
442	  0.096350558	-7.063000E+00	  0.096350558	6.817700E+01	  0.096350558	4.633300E+01	  0.096350558	4.748000E+01
443	  0.096546367	-7.063000E+00	  0.096546367	6.797700E+01	  0.096546367	4.648600E+01	  0.096546367	4.757400E+01
444	  0.096742168	-7.068000E+00	  0.096742168	6.773600E+01	  0.096742168	4.668900E+01	  0.096742168	4.765600E+01
445	  0.096937977	-7.067000E+00	  0.096937977	6.750600E+01	  0.096937977	4.686300E+01	  0.096937977	4.776700E+01
446	  0.097133778	-7.067000E+00	  0.097133778	6.729400E+01	  0.097133778	4.703100E+01	  0.097133778	4.786000E+01
447	  0.097329587	-7.058000E+00	  0.097329587	6.705600E+01	  0.097329587	4.719300E+01	  0.097329587	4.801300E+01
448	  0.097525395	-7.061000E+00	  0.097525395	6.683900E+01	  0.097525395	4.737200E+01	  0.097525395	4.809600E+01
449	  0.097721197	-7.056000E+00	  0.097721197	6.661800E+01	  0.097721197	4.753400E+01	  0.097721197	4.822200E+01
450	  0.097917013	-7.053000E+00	  0.097917013	6.639600E+01	  0.097917013	4.770300E+01	  0.097917013	4.833700E+01
451	  0.098112814	-7.059000E+00	  0.098112814	6.620300E+01	  0.098112814	4.787700E+01	  0.098112814	4.839100E+01
452	  0.098308623	-7.053000E+00	  0.098308623	6.595900E+01	  0.098308623	4.805600E+01	  0.098308623	4.853500E+01
453	  0.098504424	-7.057000E+00	  0.098504424	6.575000E+01	  0.098504424	4.823800E+01	  0.098504424	4.860600E+01
454	  0.098700233	-7.051000E+00	  0.098700233	6.554000E+01	  0.098700233	4.839500E+01	  0.098700233	4.872700E+01
455	  0.098896034	-7.050000E+00	  0.098896034	6.531800E+01	  0.098896034	4.857300E+01	  0.098896034	4.883400E+01
456	  0.099091843	-7.052000E+00	  0.099091843	6.513700E+01	  0.099091843	4.873000E+01	  0.099091843	4.890100E+01
457	  0.099287644	-7.047000E+00	  0.099287644	6.491300E+01	  0.099287644	4.890300E+01	  0.099287644	4.902500E+01
458	  0.099483460	-7.045000E+00	  0.099483460	6.470100E+01	  0.099483460	4.907600E+01	  0.099483460	4.913000E+01
459	  0.099679269	-7.044000E+00	  0.099679269	6.447700E+01	  0.099679269	4.926000E+01	  0.099679269	4.923500E+01
460	  0.099875070	-7.048000E+00	  0.099875070	6.423100E+01	  0.099875070	4.948100E+01	  0.099875070	4.932000E+01
461	  0.100070879	-7.048000E+00	  0.100070879	6.400300E+01	  0.100070879	4.967700E+01	  0.100070879	4.941600E+01
462	  0.100266680	-7.041000E+00	  0.100266680	6.386400E+01	  0.100266680	4.977600E+01	  0.100266680	4.951700E+01
463	  0.100462489	-7.048000E+00	  0.100462489	6.362600E+01	  0.100462489	5.000200E+01	  0.100462489	4.957700E+01
464	  0.100658290	-7.044000E+00	  0.100658290	6.338100E+01	  0.100658290	5.020200E+01	  0.100658290	4.970800E+01
465	  0.100854106	-7.044000E+00	  0.100854106	6.321400E+01	  0.100854106	5.034700E+01	  0.100854106	4.978100E+01
466	  0.101049908	-7.053000E+00	  0.101049908	6.301600E+01	  0.101049908	5.054700E+01	  0.101049908	4.981100E+01
467	  0.101245716	-7.044000E+00	  0.101245716	6.279900E+01	  0.101245716	5.071400E+01	  0.101245716	4.995400E+01
468	  0.101441517	-7.050000E+00	  0.101441517	6.255500E+01	  0.101441517	5.094800E+01	  0.101441517	5.002000E+01
469	  0.101637326	-7.046000E+00	  0.101637326	6.234100E+01	  0.101637326	5.112600E+01	  0.101637326	5.013400E+01
470	  0.101833127	-7.055000E+00	  0.101833127	6.212300E+01	  0.101833127	5.134600E+01	  0.101833127	5.017600E+01
471	  0.102028936	-7.047000E+00	  0.102028936	6.190100E+01	  0.102028936	5.152400E+01	  0.102028936	5.031500E+01
472	  0.102224737	-7.038000E+00	  0.102224737	6.167000E+01	  0.102224737	5.170900E+01	  0.102224737	5.046400E+01
473	  0.102420554	-7.043000E+00	  0.102420554	6.148500E+01	  0.102420554	5.189400E+01	  0.102420554	5.050700E+01
474	  0.102616362	-7.044000E+00	  0.102616362	6.123100E+01	  0.102616362	5.212700E+01	  0.102616362	5.061000E+01
475	  0.102812164	-7.039000E+00	  0.102812164	6.104300E+01	  0.102812164	5.228800E+01	  0.102812164	5.071600E+01
476	  0.103007972	-7.040000E+00	  0.103007972	6.079100E+01	  0.103007972	5.252500E+01	  0.103007972	5.081200E+01
477	  0.103203773	-7.038000E+00	  0.103203773	6.063900E+01	  0.103203773	5.266200E+01	  0.103203773	5.088400E+01
478	  0.103399582	-7.042000E+00	  0.103399582	6.037500E+01	  0.103399582	5.292100E+01	  0.103399582	5.096500E+01
479	  0.103595383	-7.044000E+00	  0.103595383	6.023000E+01	  0.103595383	5.306200E+01	  0.103595383	5.101200E+01
480	  0.103791192	-7.049000E+00	  0.103791192	6.001200E+01	  0.103791192	5.328100E+01	  0.103791192	5.106900E+01
481	  0.103987001	-7.038000E+00	  0.103987001	5.975700E+01	  0.103987001	5.349500E+01	  0.103987001	5.124100E+01
482	  0.104182810	-7.048000E+00	  0.104182810	5.953700E+01	  0.104182810	5.373300E+01	  0.104182810	5.126000E+01
483	  0.104378611	-7.040000E+00	  0.104378611	5.926100E+01	  0.104378611	5.397800E+01	  0.104378611	5.141900E+01
484	  0.104574420	-7.044000E+00	  0.104574420	5.908600E+01	  0.104574420	5.415800E+01	  0.104574420	5.146500E+01
485	  0.104770228	-7.031000E+00	  0.104770228	5.887400E+01	  0.104770228	5.433300E+01	  0.104770228	5.162700E+01
486	  0.104966030	-7.038000E+00	  0.104966030	5.869700E+01	  0.104966030	5.452500E+01	  0.104966030	5.164800E+01
487	  0.105161838	-7.041000E+00	  0.105161838	5.840600E+01	  0.105161838	5.481800E+01	  0.105161838	5.174100E+01
488	  0.105357639	-7.041000E+00	  0.105357639	5.819300E+01	  0.105357639	5.503100E+01	  0.105357639	5.181900E+01
489	  0.105553456	-7.032000E+00	  0.105553456	5.799300E+01	  0.105553456	5.520800E+01	  0.105553456	5.195500E+01
490	  0.105749257	-7.038000E+00	  0.105749257	5.782300E+01	  0.105749257	5.539300E+01	  0.105749257	5.198200E+01
491	  0.105945066	-7.039000E+00	  0.105945066	5.760000E+01	  0.105945066	5.561900E+01	  0.105945066	5.205800E+01
492	  0.106140867	-7.036000E+00	  0.106140867	5.736100E+01	  0.106140867	5.585700E+01	  0.106140867	5.216200E+01
493	  0.106336676	-7.031000E+00	  0.106336676	5.715100E+01	  0.106336676	5.605800E+01	  0.106336676	5.227600E+01
494	  0.106532477	-7.035000E+00	  0.106532477	5.690100E+01	  0.106532477	5.632300E+01	  0.106532477	5.233800E+01
495	  0.106728286	-7.032000E+00	  0.106728286	5.668800E+01	  0.106728286	5.653500E+01	  0.106728286	5.243700E+01
496	  0.106924094	-7.035000E+00	  0.106924094	5.648500E+01	  0.106924094	5.675400E+01	  0.106924094	5.248800E+01
497	  0.107119903	-7.040000E+00	  0.107119903	5.622600E+01	  0.107119903	5.703500E+01	  0.107119903	5.254600E+01
498	  0.107315712	-7.037000E+00	  0.107315712	5.604900E+01	  0.107315712	5.721400E+01	  0.107315712	5.262500E+01
499	  0.107511513	-7.029000E+00	  0.107511513	5.585200E+01	  0.107511513	5.740400E+01	  0.107511513	5.274900E+01
500	  0.107707322	-7.027000E+00	  0.107707322	5.557800E+01	  0.107707322	5.768900E+01	  0.107707322	5.286100E+01
501	  0.107903123	-7.022000E+00	  0.107903123	5.538500E+01	  0.107903123	5.788500E+01	  0.107903123	5.296000E+01
