! Anritsu VNA Master:             	Model: MS2036C/10/77
! SN:             	1601066
! /bd0/18may26.balun/4b.47.txt
! Existing Calibration Information:
! TYPE:             	Current Settings	Active Cal Settings
! TIME:             	05/26/2018 04:35:35 PM	05/26/2018 04:28:16 PM
! INTERNAL TEMP:    	56.0 C	56.3 C
! # POINTS:         	500	500
! START FREQ:       	20.000 MHz	20.000 MHz
! STOP FREQ:        	120.000 MHz	120.000 MHz
! SOURCE POWER:     	High	High
! IFBW:             	50 Hz	50 Hz
! AVG FACTOR:       	  1 	  1 
! REF PLANE 1:      	0 mm	0 mm
! REF PLANE 2:      	0 mm	0 mm
! CAL TYPE:         	Full S11	Full S11
! CAL METHOD:       	SOLT	SOLT
! CAL LINE TYPE:    	Coax	Coax
! DUT PORT 1:       	K-Conn(M)	K-Conn(M)
! DUT PORT 2:       	K-Conn(M)	K-Conn(M)
! CAL STATUS:       	OK: Accuracy High	--
! PROP-V:       	0.700
! CABLE LOSS:       	0.000 dB/m
! REF IMPEDANCE:       	50.0
! Trace Specific Parameters:	TR1	TR2	TR3	TR4
! TRACE.#.Y (GRAPH TYPE)	LOG MAG	PHASE	REAL IMPEDANCE	IMAGINARY IMPEDANCE
! TRACE.#.X 	FREQ.GHZ	FREQ.GHZ	FREQ.GHZ	FREQ.GHZ
! S-PARAMETER	S11	S11	S11	S11
! SMOOTH/APERTURE %	0	0	0	0
! WINDOW	NSL	NSL	NSL	NSL
! GATING	OFF	OFF	OFF	OFF
! FGTD	OFF	OFF	OFF	OFF
Marker Information per Trace:	TR1	TR2	TR3	TR4
!MK1	--	--	--	--
!MK2	--	--	--	--
!MK3	--	--	--	--
!MK4	--	--	--	--
!MK5	--	--	--	--
!MK6	--	--	--	--
!MK7	--	--	--	--
!MK8	--	--	--	--
PNT	TR1.FREQ.GHZ	TR1.LOG MAG.dB	TR2.FREQ.GHZ	TR2.PHASE.deg	TR3.FREQ.GHZ	TR3.REAL IMPEDANCE.ohm	TR4.FREQ.GHZ	TR4.IMAGINARY IMPEDANCE.ohm
1	  0.020000000	-2.000000E-02	  0.020000000	-5.582400E+01	  0.020000000	2.680000E-01	  0.020000000	-9.438300E+01
2	  0.020200402	-1.700000E-02	  0.020200402	-5.636300E+01	  0.020200402	2.240000E-01	  0.020200402	-9.332100E+01
3	  0.020400802	-1.500000E-02	  0.020400802	-5.689900E+01	  0.020400802	1.960000E-01	  0.020400802	-9.228000E+01
4	  0.020601204	-1.600000E-02	  0.020601204	-5.742700E+01	  0.020601204	1.990000E-01	  0.020601204	-9.127500E+01
5	  0.020801604	-1.800000E-02	  0.020801604	-5.797500E+01	  0.020801604	2.230000E-01	  0.020801604	-9.024700E+01
6	  0.021002004	-1.700000E-02	  0.021002004	-5.853200E+01	  0.021002004	2.090000E-01	  0.021002004	-8.922100E+01
7	  0.021202406	-1.700000E-02	  0.021202406	-5.910400E+01	  0.021202406	2.080000E-01	  0.021202406	-8.818600E+01
8	  0.021402806	-2.400000E-02	  0.021402806	-5.965100E+01	  0.021402806	2.790000E-01	  0.021402806	-8.721200E+01
9	  0.021603208	-2.500000E-02	  0.021603208	-6.019600E+01	  0.021603208	2.860000E-01	  0.021603208	-8.625900E+01
10	  0.021803608	-3.100000E-02	  0.021803608	-6.072500E+01	  0.021803608	3.520000E-01	  0.021803608	-8.534800E+01
11	  0.022004008	-3.500000E-02	  0.022004008	-6.126500E+01	  0.022004008	3.910000E-01	  0.022004008	-8.443300E+01
12	  0.022204408	-3.600000E-02	  0.022204408	-6.181400E+01	  0.022204408	4.020000E-01	  0.022204408	-8.351900E+01
13	  0.022404809	-3.900000E-02	  0.022404809	-6.240200E+01	  0.022404809	4.240000E-01	  0.022404809	-8.255300E+01
14	  0.022605211	-4.100000E-02	  0.022605211	-6.296900E+01	  0.022605211	4.400000E-01	  0.022605211	-8.163900E+01
15	  0.022805611	-4.100000E-02	  0.022805611	-6.354700E+01	  0.022805611	4.300000E-01	  0.022805611	-8.072300E+01
16	  0.023006011	-3.300000E-02	  0.023006011	-6.410200E+01	  0.023006011	3.430000E-01	  0.023006011	-7.985600E+01
17	  0.023206413	-2.200000E-02	  0.023206413	-6.468300E+01	  0.023206413	2.220000E-01	  0.023206413	-7.896400E+01
18	  0.023406813	-1.600000E-02	  0.023406813	-6.524800E+01	  0.023406813	1.630000E-01	  0.023406813	-7.811000E+01
19	  0.023607215	-1.400000E-02	  0.023607215	-6.581200E+01	  0.023607215	1.440000E-01	  0.023607215	-7.726900E+01
20	  0.023807615	-1.200000E-02	  0.023807615	-6.632000E+01	  0.023807615	1.170000E-01	  0.023807615	-7.652300E+01
21	  0.024008015	-1.600000E-02	  0.024008015	-6.682900E+01	  0.024008015	1.550000E-01	  0.024008015	-7.578500E+01
22	  0.024208417	-2.100000E-02	  0.024208417	-6.729100E+01	  0.024208417	1.960000E-01	  0.024208417	-7.512500E+01
23	  0.024408817	-2.800000E-02	  0.024408817	-6.775700E+01	  0.024408817	2.600000E-01	  0.024408817	-7.446600E+01
24	  0.024609219	-3.200000E-02	  0.024609219	-6.824700E+01	  0.024609219	2.940000E-01	  0.024609219	-7.378300E+01
25	  0.024809619	-3.600000E-02	  0.024809619	-6.877600E+01	  0.024809619	3.280000E-01	  0.024809619	-7.305400E+01
26	  0.025010020	-3.900000E-02	  0.025010020	-6.931500E+01	  0.025010020	3.490000E-01	  0.025010020	-7.232100E+01
27	  0.025210422	-4.000000E-02	  0.025210422	-6.986500E+01	  0.025210422	3.550000E-01	  0.025210422	-7.158400E+01
28	  0.025410822	-4.300000E-02	  0.025410822	-7.043600E+01	  0.025410822	3.770000E-01	  0.025410822	-7.082900E+01
29	  0.025611224	-4.600000E-02	  0.025611224	-7.099700E+01	  0.025611224	3.920000E-01	  0.025611224	-7.009800E+01
30	  0.025811624	-4.500000E-02	  0.025811624	-7.155400E+01	  0.025811624	3.860000E-01	  0.025811624	-6.938200E+01
31	  0.026012026	-4.700000E-02	  0.026012026	-7.210500E+01	  0.026012026	3.900000E-01	  0.026012026	-6.868400E+01
32	  0.026212426	-4.200000E-02	  0.026212426	-7.265500E+01	  0.026212426	3.490000E-01	  0.026212426	-6.799600E+01
33	  0.026412826	-4.000000E-02	  0.026412826	-7.319900E+01	  0.026412826	3.290000E-01	  0.026412826	-6.732400E+01
34	  0.026613226	-4.300000E-02	  0.026613226	-7.368800E+01	  0.026613226	3.440000E-01	  0.026613226	-6.672800E+01
35	  0.026813626	-4.800000E-02	  0.026813626	-7.420400E+01	  0.026813626	3.800000E-01	  0.026813626	-6.610400E+01
36	  0.027014028	-5.200000E-02	  0.027014028	-7.468700E+01	  0.027014028	4.080000E-01	  0.027014028	-6.552900E+01
37	  0.027214428	-6.100000E-02	  0.027214428	-7.518100E+01	  0.027214428	4.760000E-01	  0.027214428	-6.494500E+01
38	  0.027414829	-7.100000E-02	  0.027414829	-7.573000E+01	  0.027414829	5.460000E-01	  0.027414829	-6.430500E+01
39	  0.027615231	-7.800000E-02	  0.027615231	-7.631600E+01	  0.027615231	5.950000E-01	  0.027615231	-6.363000E+01
40	  0.027815631	-8.300000E-02	  0.027815631	-7.692400E+01	  0.027815631	6.220000E-01	  0.027815631	-6.294000E+01
41	  0.028016033	-8.300000E-02	  0.028016033	-7.753900E+01	  0.028016033	6.100000E-01	  0.028016033	-6.225000E+01
42	  0.028216433	-7.600000E-02	  0.028216433	-7.816200E+01	  0.028216433	5.530000E-01	  0.028216433	-6.156200E+01
43	  0.028416833	-6.900000E-02	  0.028416833	-7.879400E+01	  0.028416833	4.960000E-01	  0.028416833	-6.087400E+01
44	  0.028617235	-5.900000E-02	  0.028617235	-7.938400E+01	  0.028617235	4.180000E-01	  0.028617235	-6.023900E+01
45	  0.028817635	-4.900000E-02	  0.028817635	-7.992200E+01	  0.028817635	3.450000E-01	  0.028817635	-5.966800E+01
46	  0.029018037	-3.800000E-02	  0.029018037	-8.044100E+01	  0.029018037	2.670000E-01	  0.029018037	-5.912300E+01
47	  0.029218437	-2.800000E-02	  0.029218437	-8.088700E+01	  0.029218437	1.950000E-01	  0.029218437	-5.865800E+01
48	  0.029418837	-2.200000E-02	  0.029418837	-8.130500E+01	  0.029418837	1.510000E-01	  0.029418837	-5.822700E+01
49	  0.029619239	-1.800000E-02	  0.029619239	-8.171600E+01	  0.029619239	1.210000E-01	  0.029619239	-5.780600E+01
50	  0.029819639	-1.700000E-02	  0.029819639	-8.215200E+01	  0.029819639	1.160000E-01	  0.029819639	-5.736300E+01
51	  0.030020041	-2.200000E-02	  0.030020041	-8.261100E+01	  0.030020041	1.490000E-01	  0.030020041	-5.690100E+01
52	  0.030220442	-3.100000E-02	  0.030220442	-8.310500E+01	  0.030220442	2.040000E-01	  0.030220442	-5.640900E+01
53	  0.030420844	-4.100000E-02	  0.030420844	-8.361300E+01	  0.030420844	2.670000E-01	  0.030420844	-5.590700E+01
54	  0.030621244	-5.100000E-02	  0.030621244	-8.414900E+01	  0.030621244	3.300000E-01	  0.030621244	-5.538400E+01
55	  0.030821644	-5.400000E-02	  0.030821644	-8.469500E+01	  0.030821644	3.420000E-01	  0.030821644	-5.485600E+01
56	  0.031022044	-5.600000E-02	  0.031022044	-8.525800E+01	  0.031022044	3.560000E-01	  0.031022044	-5.431700E+01
57	  0.031222444	-5.200000E-02	  0.031222444	-8.579000E+01	  0.031222444	3.260000E-01	  0.031222444	-5.381400E+01
58	  0.031422846	-5.400000E-02	  0.031422846	-8.633800E+01	  0.031422846	3.340000E-01	  0.031422846	-5.330100E+01
59	  0.031623244	-5.600000E-02	  0.031623244	-8.687000E+01	  0.031623244	3.450000E-01	  0.031623244	-5.280700E+01
60	  0.031823646	-5.900000E-02	  0.031823646	-8.738700E+01	  0.031823646	3.570000E-01	  0.031823646	-5.233200E+01
61	  0.032024048	-5.300000E-02	  0.032024048	-8.789900E+01	  0.032024048	3.190000E-01	  0.032024048	-5.186600E+01
62	  0.032224450	-5.700000E-02	  0.032224450	-8.835400E+01	  0.032224450	3.390000E-01	  0.032224450	-5.145500E+01
63	  0.032424849	-6.300000E-02	  0.032424849	-8.882100E+01	  0.032424849	3.750000E-01	  0.032424849	-5.103700E+01
64	  0.032625251	-7.300000E-02	  0.032625251	-8.932100E+01	  0.032625251	4.290000E-01	  0.032625251	-5.059300E+01
65	  0.032825653	-8.600000E-02	  0.032825653	-8.983800E+01	  0.032825653	5.000000E-01	  0.032825653	-5.013800E+01
66	  0.033026051	-9.200000E-02	  0.033026051	-9.038100E+01	  0.033026051	5.270000E-01	  0.033026051	-4.966500E+01
67	  0.033226453	-9.700000E-02	  0.033226453	-9.094700E+01	  0.033226453	5.510000E-01	  0.033226453	-4.917600E+01
68	  0.033426855	-1.050000E-01	  0.033426855	-9.153000E+01	  0.033426855	5.890000E-01	  0.033426855	-4.867800E+01
69	  0.033627257	-1.080000E-01	  0.033627257	-9.213400E+01	  0.033627257	6.020000E-01	  0.033627257	-4.816700E+01
70	  0.033827655	-1.090000E-01	  0.033827655	-9.272700E+01	  0.033827655	6.000000E-01	  0.033827655	-4.767100E+01
71	  0.034028057	-1.050000E-01	  0.034028057	-9.330400E+01	  0.034028057	5.740000E-01	  0.034028057	-4.719200E+01
72	  0.034228459	-9.800000E-02	  0.034228459	-9.388600E+01	  0.034228459	5.300000E-01	  0.034228459	-4.671500E+01
73	  0.034428857	-8.800000E-02	  0.034428857	-9.441100E+01	  0.034428857	4.720000E-01	  0.034428857	-4.628900E+01
74	  0.034629259	-7.400000E-02	  0.034629259	-9.491000E+01	  0.034629259	3.970000E-01	  0.034629259	-4.588600E+01
75	  0.034829661	-6.500000E-02	  0.034829661	-9.539700E+01	  0.034829661	3.420000E-01	  0.034829661	-4.549700E+01
76	  0.035030060	-5.700000E-02	  0.035030060	-9.586300E+01	  0.035030060	3.000000E-01	  0.035030060	-4.512700E+01
77	  0.035230462	-5.300000E-02	  0.035230462	-9.628200E+01	  0.035230462	2.800000E-01	  0.035230462	-4.479600E+01
78	  0.035430863	-5.000000E-02	  0.035430863	-9.672500E+01	  0.035430863	2.590000E-01	  0.035430863	-4.444900E+01
79	  0.035631265	-5.500000E-02	  0.035631265	-9.717500E+01	  0.035631265	2.820000E-01	  0.035631265	-4.409900E+01
80	  0.035831664	-6.400000E-02	  0.035831664	-9.763600E+01	  0.035831664	3.300000E-01	  0.035831664	-4.374200E+01
81	  0.036032066	-6.900000E-02	  0.036032066	-9.814200E+01	  0.036032066	3.510000E-01	  0.036032066	-4.335300E+01
82	  0.036232468	-8.000000E-02	  0.036232468	-9.868500E+01	  0.036232468	4.000000E-01	  0.036232468	-4.294000E+01
83	  0.036432866	-8.600000E-02	  0.036432866	-9.923700E+01	  0.036432866	4.300000E-01	  0.036432866	-4.252300E+01
84	  0.036633268	-8.800000E-02	  0.036633268	-9.981000E+01	  0.036633268	4.330000E-01	  0.036633268	-4.209400E+01
85	  0.036833670	-9.200000E-02	  0.036833670	-1.003460E+02	  0.036833670	4.530000E-01	  0.036833670	-4.169600E+01
86	  0.037034072	-9.000000E-02	  0.037034072	-1.009190E+02	  0.037034072	4.380000E-01	  0.037034072	-4.127300E+01
87	  0.037234470	-8.200000E-02	  0.037234470	-1.014410E+02	  0.037234470	3.940000E-01	  0.037234470	-4.089200E+01
88	  0.037434869	-7.100000E-02	  0.037434869	-1.019070E+02	  0.037434869	3.400000E-01	  0.037434869	-4.055400E+01
89	  0.037635271	-6.700000E-02	  0.037635271	-1.023600E+02	  0.037635271	3.220000E-01	  0.037635271	-4.022800E+01
90	  0.037835669	-6.900000E-02	  0.037835669	-1.028130E+02	  0.037835669	3.250000E-01	  0.037835669	-3.990300E+01
91	  0.038036071	-7.600000E-02	  0.038036071	-1.032950E+02	  0.038036071	3.580000E-01	  0.038036071	-3.956000E+01
92	  0.038236473	-8.600000E-02	  0.038236473	-1.037860E+02	  0.038236473	4.000000E-01	  0.038236473	-3.921300E+01
93	  0.038436871	-9.200000E-02	  0.038436871	-1.042880E+02	  0.038436871	4.270000E-01	  0.038436871	-3.886000E+01
94	  0.038637273	-9.900000E-02	  0.038637273	-1.047940E+02	  0.038637273	4.540000E-01	  0.038637273	-3.850600E+01
95	  0.038837675	-1.080000E-01	  0.038837675	-1.053030E+02	  0.038837675	4.930000E-01	  0.038837675	-3.815400E+01
96	  0.039038073	-1.190000E-01	  0.039038073	-1.058560E+02	  0.039038073	5.390000E-01	  0.039038073	-3.777300E+01
97	  0.039238475	-1.250000E-01	  0.039238475	-1.063990E+02	  0.039238475	5.620000E-01	  0.039238475	-3.740100E+01
98	  0.039438877	-1.300000E-01	  0.039438877	-1.069530E+02	  0.039438877	5.820000E-01	  0.039438877	-3.702600E+01
99	  0.039639279	-1.250000E-01	  0.039639279	-1.074850E+02	  0.039639279	5.560000E-01	  0.039639279	-3.666800E+01
100	  0.039839678	-1.180000E-01	  0.039839678	-1.080120E+02	  0.039839678	5.180000E-01	  0.039839678	-3.631600E+01
101	  0.040040080	-1.100000E-01	  0.040040080	-1.085070E+02	  0.040040080	4.840000E-01	  0.040040080	-3.598700E+01
102	  0.040240481	-1.030000E-01	  0.040240481	-1.089840E+02	  0.040240481	4.470000E-01	  0.040240481	-3.567200E+01
103	  0.040440880	-9.600000E-02	  0.040440880	-1.094330E+02	  0.040440880	4.140000E-01	  0.040440880	-3.537800E+01
104	  0.040641282	-9.300000E-02	  0.040641282	-1.099150E+02	  0.040641282	4.010000E-01	  0.040641282	-3.506300E+01
105	  0.040841684	-9.300000E-02	  0.040841684	-1.103560E+02	  0.040841684	3.970000E-01	  0.040841684	-3.477700E+01
106	  0.041042086	-9.500000E-02	  0.041042086	-1.108230E+02	  0.041042086	4.040000E-01	  0.041042086	-3.447600E+01
107	  0.041242484	-9.900000E-02	  0.041242484	-1.112730E+02	  0.041242484	4.220000E-01	  0.041242484	-3.418700E+01
108	  0.041442886	-1.110000E-01	  0.041442886	-1.117390E+02	  0.041442886	4.690000E-01	  0.041442886	-3.388800E+01
109	  0.041643288	-1.200000E-01	  0.041643288	-1.122530E+02	  0.041643288	5.020000E-01	  0.041643288	-3.356200E+01
110	  0.041843686	-1.270000E-01	  0.041843686	-1.127800E+02	  0.041843686	5.290000E-01	  0.041843686	-3.322900E+01
111	  0.042044088	-1.270000E-01	  0.042044088	-1.133300E+02	  0.042044088	5.250000E-01	  0.042044088	-3.288400E+01
112	  0.042244490	-1.230000E-01	  0.042244490	-1.138580E+02	  0.042244490	5.050000E-01	  0.042244490	-3.255500E+01
113	  0.042444889	-1.160000E-01	  0.042444889	-1.143760E+02	  0.042444889	4.730000E-01	  0.042444889	-3.223500E+01
114	  0.042645290	-1.050000E-01	  0.042645290	-1.148500E+02	  0.042645290	4.280000E-01	  0.042645290	-3.194300E+01
115	  0.042845692	-9.800000E-02	  0.042845692	-1.153080E+02	  0.042845692	3.950000E-01	  0.042845692	-3.166300E+01
116	  0.043046094	-9.700000E-02	  0.043046094	-1.157510E+02	  0.043046094	3.890000E-01	  0.043046094	-3.139200E+01
117	  0.043246493	-1.000000E-01	  0.043246493	-1.161970E+02	  0.043246493	3.990000E-01	  0.043246493	-3.112200E+01
118	  0.043446895	-1.020000E-01	  0.043446895	-1.166610E+02	  0.043446895	4.070000E-01	  0.043446895	-3.084200E+01
119	  0.043647297	-1.080000E-01	  0.043647297	-1.170940E+02	  0.043647297	4.300000E-01	  0.043647297	-3.058100E+01
120	  0.043847695	-1.130000E-01	  0.043847695	-1.175490E+02	  0.043847695	4.470000E-01	  0.043847695	-3.030900E+01
121	  0.044048097	-1.220000E-01	  0.044048097	-1.180030E+02	  0.044048097	4.800000E-01	  0.044048097	-3.003800E+01
122	  0.044248499	-1.290000E-01	  0.044248499	-1.184780E+02	  0.044248499	5.050000E-01	  0.044248499	-2.975700E+01
123	  0.044448901	-1.360000E-01	  0.044448901	-1.189840E+02	  0.044448901	5.310000E-01	  0.044448901	-2.945900E+01
124	  0.044649299	-1.400000E-01	  0.044649299	-1.194880E+02	  0.044649299	5.420000E-01	  0.044649299	-2.916300E+01
125	  0.044849701	-1.400000E-01	  0.044849701	-1.199840E+02	  0.044849701	5.390000E-01	  0.044849701	-2.887400E+01
126	  0.045050103	-1.420000E-01	  0.045050103	-1.204820E+02	  0.045050103	5.430000E-01	  0.045050103	-2.858400E+01
127	  0.045250501	-1.390000E-01	  0.045250501	-1.209560E+02	  0.045250501	5.310000E-01	  0.045250501	-2.831100E+01
128	  0.045450903	-1.380000E-01	  0.045450903	-1.214260E+02	  0.045450903	5.230000E-01	  0.045450903	-2.804100E+01
129	  0.045651305	-1.400000E-01	  0.045651305	-1.219290E+02	  0.045651305	5.280000E-01	  0.045651305	-2.775300E+01
130	  0.045851704	-1.360000E-01	  0.045851704	-1.224310E+02	  0.045851704	5.110000E-01	  0.045851704	-2.746700E+01
131	  0.046052106	-1.360000E-01	  0.046052106	-1.229210E+02	  0.046052106	5.100000E-01	  0.046052106	-2.719000E+01
132	  0.046252504	-1.360000E-01	  0.046252504	-1.234050E+02	  0.046252504	5.050000E-01	  0.046252504	-2.691700E+01
133	  0.046452906	-1.390000E-01	  0.046452906	-1.238510E+02	  0.046452906	5.170000E-01	  0.046452906	-2.666600E+01
134	  0.046653304	-1.440000E-01	  0.046653304	-1.243070E+02	  0.046653304	5.330000E-01	  0.046653304	-2.641100E+01
135	  0.046853706	-1.570000E-01	  0.046853706	-1.248130E+02	  0.046853706	5.770000E-01	  0.046853706	-2.612900E+01
136	  0.047054108	-1.620000E-01	  0.047054108	-1.253520E+02	  0.047054108	5.900000E-01	  0.047054108	-2.583000E+01
137	  0.047254506	-1.680000E-01	  0.047254506	-1.259030E+02	  0.047254506	6.100000E-01	  0.047254506	-2.552600E+01
138	  0.047454908	-1.640000E-01	  0.047454908	-1.264520E+02	  0.047454908	5.940000E-01	  0.047454908	-2.522500E+01
139	  0.047655310	-1.570000E-01	  0.047655310	-1.269900E+02	  0.047655310	5.640000E-01	  0.047655310	-2.493100E+01
140	  0.047855709	-1.490000E-01	  0.047855709	-1.274990E+02	  0.047855709	5.360000E-01	  0.047855709	-2.465500E+01
141	  0.048056111	-1.420000E-01	  0.048056111	-1.279960E+02	  0.048056111	5.070000E-01	  0.048056111	-2.438600E+01
142	  0.048256513	-1.390000E-01	  0.048256513	-1.284650E+02	  0.048256513	4.950000E-01	  0.048256513	-2.413300E+01
143	  0.048456915	-1.360000E-01	  0.048456915	-1.289340E+02	  0.048456915	4.810000E-01	  0.048456915	-2.388200E+01
144	  0.048657313	-1.350000E-01	  0.048657313	-1.293820E+02	  0.048657313	4.780000E-01	  0.048657313	-2.364200E+01
145	  0.048857715	-1.370000E-01	  0.048857715	-1.298220E+02	  0.048857715	4.810000E-01	  0.048857715	-2.340800E+01
146	  0.049058117	-1.410000E-01	  0.049058117	-1.302680E+02	  0.049058117	4.950000E-01	  0.049058117	-2.317100E+01
147	  0.049258515	-1.460000E-01	  0.049258515	-1.306990E+02	  0.049258515	5.110000E-01	  0.049258515	-2.294200E+01
148	  0.049458917	-1.530000E-01	  0.049458917	-1.311660E+02	  0.049458917	5.340000E-01	  0.049458917	-2.269600E+01
149	  0.049659319	-1.560000E-01	  0.049659319	-1.316440E+02	  0.049659319	5.410000E-01	  0.049659319	-2.244500E+01
150	  0.049859721	-1.560000E-01	  0.049859721	-1.321080E+02	  0.049859721	5.370000E-01	  0.049859721	-2.220200E+01
151	  0.050060119	-1.550000E-01	  0.050060119	-1.325530E+02	  0.050060119	5.330000E-01	  0.050060119	-2.197000E+01
152	  0.050260521	-1.570000E-01	  0.050260521	-1.330040E+02	  0.050260521	5.370000E-01	  0.050260521	-2.173500E+01
153	  0.050460923	-1.570000E-01	  0.050460923	-1.334450E+02	  0.050460923	5.370000E-01	  0.050460923	-2.150800E+01
154	  0.050661322	-1.600000E-01	  0.050661322	-1.339010E+02	  0.050661322	5.430000E-01	  0.050661322	-2.127200E+01
155	  0.050861724	-1.610000E-01	  0.050861724	-1.343900E+02	  0.050861724	5.450000E-01	  0.050861724	-2.102000E+01
156	  0.051062126	-1.590000E-01	  0.051062126	-1.348700E+02	  0.051062126	5.380000E-01	  0.051062126	-2.077500E+01
157	  0.051262524	-1.580000E-01	  0.051262524	-1.353240E+02	  0.051262524	5.330000E-01	  0.051262524	-2.054300E+01
158	  0.051462926	-1.590000E-01	  0.051462926	-1.357880E+02	  0.051462926	5.330000E-01	  0.051462926	-2.030600E+01
159	  0.051663328	-1.620000E-01	  0.051663328	-1.362130E+02	  0.051663328	5.410000E-01	  0.051663328	-2.009000E+01
160	  0.051863730	-1.670000E-01	  0.051863730	-1.366700E+02	  0.051863730	5.590000E-01	  0.051863730	-1.985900E+01
161	  0.052064128	-1.750000E-01	  0.052064128	-1.371230E+02	  0.052064128	5.840000E-01	  0.052064128	-1.963100E+01
162	  0.052264530	-1.830000E-01	  0.052264530	-1.376150E+02	  0.052264530	6.070000E-01	  0.052264530	-1.938300E+01
163	  0.052464932	-1.860000E-01	  0.052464932	-1.381280E+02	  0.052464932	6.130000E-01	  0.052464932	-1.912600E+01
164	  0.052665330	-1.850000E-01	  0.052665330	-1.386400E+02	  0.052665330	6.100000E-01	  0.052665330	-1.887000E+01
165	  0.052865732	-1.840000E-01	  0.052865732	-1.391680E+02	  0.052865732	6.040000E-01	  0.052865732	-1.860800E+01
166	  0.053066134	-1.770000E-01	  0.053066134	-1.396480E+02	  0.053066134	5.800000E-01	  0.053066134	-1.837000E+01
167	  0.053266536	-1.740000E-01	  0.053266536	-1.401240E+02	  0.053266536	5.680000E-01	  0.053266536	-1.813400E+01
168	  0.053466935	-1.720000E-01	  0.053466935	-1.405990E+02	  0.053466935	5.590000E-01	  0.053466935	-1.790100E+01
169	  0.053667337	-1.690000E-01	  0.053667337	-1.410560E+02	  0.053667337	5.500000E-01	  0.053667337	-1.767600E+01
170	  0.053867739	-1.670000E-01	  0.053867739	-1.414970E+02	  0.053867739	5.410000E-01	  0.053867739	-1.746000E+01
171	  0.054068137	-1.680000E-01	  0.054068137	-1.419170E+02	  0.054068137	5.420000E-01	  0.054068137	-1.725400E+01
172	  0.054268539	-1.720000E-01	  0.054268539	-1.423360E+02	  0.054268539	5.550000E-01	  0.054268539	-1.705000E+01
173	  0.054468941	-1.770000E-01	  0.054468941	-1.427670E+02	  0.054468941	5.680000E-01	  0.054468941	-1.684000E+01
174	  0.054669339	-1.790000E-01	  0.054669339	-1.432140E+02	  0.054669339	5.720000E-01	  0.054669339	-1.662300E+01
175	  0.054869737	-1.810000E-01	  0.054869737	-1.436470E+02	  0.054869737	5.790000E-01	  0.054869737	-1.641400E+01
176	  0.055070139	-1.810000E-01	  0.055070139	-1.440830E+02	  0.055070139	5.760000E-01	  0.055070139	-1.620300E+01
177	  0.055270538	-1.790000E-01	  0.055270538	-1.445050E+02	  0.055270538	5.680000E-01	  0.055270538	-1.600000E+01
178	  0.055470940	-1.820000E-01	  0.055470940	-1.449200E+02	  0.055470940	5.760000E-01	  0.055470940	-1.580100E+01
179	  0.055671342	-1.860000E-01	  0.055671342	-1.453530E+02	  0.055671342	5.900000E-01	  0.055671342	-1.559300E+01
180	  0.055871744	-1.880000E-01	  0.055871744	-1.457770E+02	  0.055871744	5.930000E-01	  0.055871744	-1.539000E+01
181	  0.056072142	-1.920000E-01	  0.056072142	-1.462550E+02	  0.056072142	6.050000E-01	  0.056072142	-1.516200E+01
182	  0.056272544	-1.910000E-01	  0.056272544	-1.467030E+02	  0.056272544	5.990000E-01	  0.056272544	-1.494900E+01
183	  0.056472946	-1.920000E-01	  0.056472946	-1.471740E+02	  0.056472946	6.030000E-01	  0.056472946	-1.472600E+01
184	  0.056673344	-1.920000E-01	  0.056673344	-1.475980E+02	  0.056673344	5.990000E-01	  0.056673344	-1.452500E+01
185	  0.056873746	-1.940000E-01	  0.056873746	-1.480370E+02	  0.056873746	6.060000E-01	  0.056873746	-1.431700E+01
186	  0.057074148	-1.960000E-01	  0.057074148	-1.484890E+02	  0.057074148	6.110000E-01	  0.057074148	-1.410400E+01
187	  0.057274550	-2.020000E-01	  0.057274550	-1.489300E+02	  0.057274550	6.280000E-01	  0.057274550	-1.389600E+01
188	  0.057474948	-2.070000E-01	  0.057474948	-1.493960E+02	  0.057474948	6.410000E-01	  0.057474948	-1.367800E+01
189	  0.057675350	-2.130000E-01	  0.057675350	-1.498670E+02	  0.057675350	6.590000E-01	  0.057675350	-1.345700E+01
190	  0.057875752	-2.130000E-01	  0.057875752	-1.503550E+02	  0.057875752	6.580000E-01	  0.057875752	-1.322900E+01
191	  0.058076151	-2.130000E-01	  0.058076151	-1.508380E+02	  0.058076151	6.550000E-01	  0.058076151	-1.300300E+01
192	  0.058276553	-2.120000E-01	  0.058276553	-1.513160E+02	  0.058276553	6.500000E-01	  0.058276553	-1.278100E+01
193	  0.058476955	-2.060000E-01	  0.058476955	-1.517910E+02	  0.058476955	6.320000E-01	  0.058476955	-1.256100E+01
194	  0.058677353	-2.050000E-01	  0.058677353	-1.522460E+02	  0.058677353	6.260000E-01	  0.058677353	-1.235000E+01
195	  0.058877755	-2.000000E-01	  0.058877755	-1.526980E+02	  0.058877755	6.110000E-01	  0.058877755	-1.214100E+01
196	  0.059078157	-1.970000E-01	  0.059078157	-1.531120E+02	  0.059078157	5.990000E-01	  0.059078157	-1.195000E+01
197	  0.059278559	-1.990000E-01	  0.059278559	-1.535450E+02	  0.059278559	6.070000E-01	  0.059278559	-1.175000E+01
198	  0.059478957	-2.000000E-01	  0.059478957	-1.539610E+02	  0.059478957	6.090000E-01	  0.059478957	-1.155900E+01
199	  0.059679359	-2.020000E-01	  0.059679359	-1.543800E+02	  0.059679359	6.130000E-01	  0.059679359	-1.136700E+01
200	  0.059879761	-2.060000E-01	  0.059879761	-1.547990E+02	  0.059879761	6.230000E-01	  0.059879761	-1.117400E+01
201	  0.060080159	-2.050000E-01	  0.060080159	-1.552280E+02	  0.060080159	6.200000E-01	  0.060080159	-1.097800E+01
202	  0.060280561	-2.040000E-01	  0.060280561	-1.556430E+02	  0.060280561	6.150000E-01	  0.060280561	-1.078900E+01
203	  0.060480963	-2.030000E-01	  0.060480963	-1.560480E+02	  0.060480963	6.120000E-01	  0.060480963	-1.060400E+01
204	  0.060681365	-2.080000E-01	  0.060681365	-1.564570E+02	  0.060681365	6.260000E-01	  0.060681365	-1.041700E+01
205	  0.060881764	-2.090000E-01	  0.060881764	-1.568830E+02	  0.060881764	6.290000E-01	  0.060881764	-1.022400E+01
206	  0.061082166	-2.150000E-01	  0.061082166	-1.573030E+02	  0.061082166	6.450000E-01	  0.061082166	-1.003300E+01
207	  0.061282568	-2.170000E-01	  0.061282568	-1.577570E+02	  0.061282568	6.510000E-01	  0.061282568	-9.827000E+00
208	  0.061482966	-2.190000E-01	  0.061482966	-1.582070E+02	  0.061482966	6.530000E-01	  0.061482966	-9.623000E+00
209	  0.061683368	-2.190000E-01	  0.061683368	-1.586490E+02	  0.061683368	6.540000E-01	  0.061683368	-9.423000E+00
210	  0.061883770	-2.200000E-01	  0.061883770	-1.590970E+02	  0.061883770	6.560000E-01	  0.061883770	-9.221000E+00
211	  0.062084168	-2.240000E-01	  0.062084168	-1.595490E+02	  0.062084168	6.670000E-01	  0.062084168	-9.017000E+00
212	  0.062284570	-2.270000E-01	  0.062284570	-1.599990E+02	  0.062284570	6.730000E-01	  0.062284570	-8.814000E+00
213	  0.062484972	-2.250000E-01	  0.062484972	-1.604240E+02	  0.062484972	6.690000E-01	  0.062484972	-8.623000E+00
214	  0.062685370	-2.270000E-01	  0.062685370	-1.608750E+02	  0.062685370	6.730000E-01	  0.062685370	-8.421000E+00
215	  0.062885776	-2.360000E-01	  0.062885776	-1.613350E+02	  0.062885776	6.980000E-01	  0.062885776	-8.215000E+00
216	  0.063086174	-2.380000E-01	  0.063086174	-1.617980E+02	  0.063086174	7.020000E-01	  0.063086174	-8.007000E+00
217	  0.063286573	-2.360000E-01	  0.063286573	-1.622720E+02	  0.063286573	6.970000E-01	  0.063286573	-7.795000E+00
218	  0.063486971	-2.370000E-01	  0.063486971	-1.627500E+02	  0.063486971	6.970000E-01	  0.063486971	-7.582000E+00
219	  0.063687377	-2.320000E-01	  0.063687377	-1.632000E+02	  0.063687377	6.830000E-01	  0.063687377	-7.381000E+00
220	  0.063887775	-2.290000E-01	  0.063887775	-1.636530E+02	  0.063887775	6.740000E-01	  0.063887775	-7.180000E+00
221	  0.064088173	-2.260000E-01	  0.064088173	-1.640420E+02	  0.064088173	6.640000E-01	  0.064088173	-7.007000E+00
222	  0.064288579	-2.230000E-01	  0.064288579	-1.644970E+02	  0.064288579	6.560000E-01	  0.064288579	-6.804000E+00
223	  0.064488977	-2.250000E-01	  0.064488977	-1.648970E+02	  0.064488977	6.610000E-01	  0.064488977	-6.627000E+00
224	  0.064689375	-2.220000E-01	  0.064689375	-1.653150E+02	  0.064689375	6.510000E-01	  0.064689375	-6.441000E+00
225	  0.064889781	-2.240000E-01	  0.064889781	-1.657120E+02	  0.064889781	6.570000E-01	  0.064889781	-6.265000E+00
226	  0.065090179	-2.250000E-01	  0.065090179	-1.661080E+02	  0.065090179	6.570000E-01	  0.065090179	-6.090000E+00
227	  0.065290578	-2.250000E-01	  0.065290578	-1.665080E+02	  0.065290578	6.560000E-01	  0.065290578	-5.913000E+00
228	  0.065490983	-2.230000E-01	  0.065490983	-1.668770E+02	  0.065490983	6.530000E-01	  0.065490983	-5.750000E+00
229	  0.065691382	-2.250000E-01	  0.065691382	-1.672580E+02	  0.065691382	6.580000E-01	  0.065691382	-5.581000E+00
230	  0.065891780	-2.280000E-01	  0.065891780	-1.676370E+02	  0.065891780	6.650000E-01	  0.065891780	-5.414000E+00
231	  0.066092186	-2.280000E-01	  0.066092186	-1.680570E+02	  0.066092186	6.650000E-01	  0.066092186	-5.228000E+00
232	  0.066292584	-2.320000E-01	  0.066292584	-1.684490E+02	  0.066292584	6.740000E-01	  0.066292584	-5.055000E+00
233	  0.066492982	-2.350000E-01	  0.066492982	-1.688610E+02	  0.066492982	6.850000E-01	  0.066492982	-4.874000E+00
234	  0.066693388	-2.370000E-01	  0.066693388	-1.692680E+02	  0.066693388	6.900000E-01	  0.066693388	-4.695000E+00
235	  0.066893786	-2.390000E-01	  0.066893786	-1.697060E+02	  0.066893786	6.940000E-01	  0.066893786	-4.502000E+00
236	  0.067094192	-2.460000E-01	  0.067094192	-1.701480E+02	  0.067094192	7.130000E-01	  0.067094192	-4.308000E+00
237	  0.067294590	-2.460000E-01	  0.067294590	-1.705900E+02	  0.067294590	7.140000E-01	  0.067294590	-4.114000E+00
238	  0.067494988	-2.500000E-01	  0.067494988	-1.710200E+02	  0.067494988	7.260000E-01	  0.067494988	-3.925000E+00
239	  0.067695394	-2.520000E-01	  0.067695394	-1.714730E+02	  0.067695394	7.310000E-01	  0.067695394	-3.726000E+00
240	  0.067895792	-2.510000E-01	  0.067895792	-1.719020E+02	  0.067895792	7.280000E-01	  0.067895792	-3.538000E+00
241	  0.068096191	-2.560000E-01	  0.068096191	-1.723520E+02	  0.068096191	7.410000E-01	  0.068096191	-3.341000E+00
242	  0.068296596	-2.600000E-01	  0.068296596	-1.728090E+02	  0.068296596	7.520000E-01	  0.068296596	-3.140000E+00
243	  0.068496995	-2.600000E-01	  0.068496995	-1.732730E+02	  0.068496995	7.520000E-01	  0.068496995	-2.937000E+00
244	  0.068697393	-2.610000E-01	  0.068697393	-1.737410E+02	  0.068697393	7.540000E-01	  0.068697393	-2.732000E+00
245	  0.068897791	-2.570000E-01	  0.068897791	-1.741830E+02	  0.068897791	7.430000E-01	  0.068897791	-2.539000E+00
246	  0.069098189	-2.520000E-01	  0.069098189	-1.746110E+02	  0.069098189	7.280000E-01	  0.069098189	-2.352000E+00
247	  0.069298595	-2.490000E-01	  0.069298595	-1.750330E+02	  0.069298595	7.200000E-01	  0.069298595	-2.167000E+00
248	  0.069498993	-2.510000E-01	  0.069498993	-1.754430E+02	  0.069498993	7.230000E-01	  0.069498993	-1.988000E+00
249	  0.069699399	-2.500000E-01	  0.069699399	-1.758750E+02	  0.069699399	7.210000E-01	  0.069699399	-1.799000E+00
250	  0.069899797	-2.490000E-01	  0.069899797	-1.762920E+02	  0.069899797	7.180000E-01	  0.069899797	-1.618000E+00
251	  0.070100196	-2.510000E-01	  0.070100196	-1.766510E+02	  0.070100196	7.230000E-01	  0.070100196	-1.461000E+00
252	  0.070300601	-2.480000E-01	  0.070300601	-1.770500E+02	  0.070300601	7.160000E-01	  0.070300601	-1.286000E+00
253	  0.070501000	-2.460000E-01	  0.070501000	-1.774260E+02	  0.070501000	7.090000E-01	  0.070501000	-1.122000E+00
254	  0.070701398	-2.470000E-01	  0.070701398	-1.777710E+02	  0.070701398	7.120000E-01	  0.070701398	-9.720000E-01
255	  0.070901804	-2.490000E-01	  0.070901804	-1.781370E+02	  0.070901804	7.170000E-01	  0.070901804	-8.120000E-01
256	  0.071102202	-2.490000E-01	  0.071102202	-1.785130E+02	  0.071102202	7.180000E-01	  0.071102202	-6.480000E-01
257	  0.071302600	-2.510000E-01	  0.071302600	-1.789020E+02	  0.071302600	7.240000E-01	  0.071302600	-4.780000E-01
258	  0.071503006	-2.520000E-01	  0.071503006	-1.792880E+02	  0.071503006	7.280000E-01	  0.071503006	-3.100000E-01
259	  0.071703404	-2.570000E-01	  0.071703404	-1.796650E+02	  0.071703404	7.400000E-01	  0.071703404	-1.450000E-01
260	  0.071903802	-2.590000E-01	  0.071903802	1.799390E+02	  0.071903802	7.470000E-01	  0.071903802	2.600000E-02
261	  0.072104208	-2.620000E-01	  0.072104208	1.795250E+02	  0.072104208	7.560000E-01	  0.072104208	2.070000E-01
262	  0.072304606	-2.660000E-01	  0.072304606	1.791210E+02	  0.072304606	7.680000E-01	  0.072304606	3.830000E-01
263	  0.072505005	-2.700000E-01	  0.072505005	1.786920E+02	  0.072505005	7.780000E-01	  0.072505005	5.700000E-01
264	  0.072705410	-2.710000E-01	  0.072705410	1.782840E+02	  0.072705410	7.810000E-01	  0.072705410	7.480000E-01
265	  0.072905809	-2.720000E-01	  0.072905809	1.778420E+02	  0.072905809	7.850000E-01	  0.072905809	9.410000E-01
266	  0.073106214	-2.750000E-01	  0.073106214	1.774340E+02	  0.073106214	7.940000E-01	  0.073106214	1.119000E+00
267	  0.073306613	-2.780000E-01	  0.073306613	1.769970E+02	  0.073306613	8.030000E-01	  0.073306613	1.309000E+00
268	  0.073507011	-2.820000E-01	  0.073507011	1.765320E+02	  0.073507011	8.130000E-01	  0.073507011	1.513000E+00
269	  0.073707417	-2.830000E-01	  0.073707417	1.760890E+02	  0.073707417	8.150000E-01	  0.073707417	1.706000E+00
270	  0.073907815	-2.830000E-01	  0.073907815	1.756480E+02	  0.073907815	8.150000E-01	  0.073907815	1.899000E+00
271	  0.074108213	-2.780000E-01	  0.074108213	1.752320E+02	  0.074108213	8.020000E-01	  0.074108213	2.081000E+00
272	  0.074308619	-2.790000E-01	  0.074308619	1.748130E+02	  0.074308619	8.040000E-01	  0.074308619	2.264000E+00
273	  0.074509017	-2.760000E-01	  0.074509017	1.743830E+02	  0.074509017	7.970000E-01	  0.074509017	2.452000E+00
274	  0.074709415	-2.760000E-01	  0.074709415	1.739750E+02	  0.074709415	7.970000E-01	  0.074709415	2.630000E+00
275	  0.074909821	-2.760000E-01	  0.074909821	1.735680E+02	  0.074909821	7.990000E-01	  0.074909821	2.808000E+00
276	  0.075110219	-2.780000E-01	  0.075110219	1.731620E+02	  0.075110219	8.040000E-01	  0.075110219	2.986000E+00
277	  0.075310618	-2.760000E-01	  0.075310618	1.727680E+02	  0.075310618	7.990000E-01	  0.075310618	3.158000E+00
278	  0.075511023	-2.770000E-01	  0.075511023	1.723990E+02	  0.075511023	8.020000E-01	  0.075511023	3.320000E+00
279	  0.075711422	-2.750000E-01	  0.075711422	1.720140E+02	  0.075711422	7.960000E-01	  0.075711422	3.489000E+00
280	  0.075911827	-2.760000E-01	  0.075911827	1.716620E+02	  0.075911827	8.000000E-01	  0.075911827	3.643000E+00
281	  0.076112226	-2.760000E-01	  0.076112226	1.712790E+02	  0.076112226	7.990000E-01	  0.076112226	3.811000E+00
282	  0.076312624	-2.760000E-01	  0.076312624	1.708910E+02	  0.076312624	8.000000E-01	  0.076312624	3.981000E+00
283	  0.076513030	-2.780000E-01	  0.076513030	1.705270E+02	  0.076513030	8.070000E-01	  0.076513030	4.141000E+00
284	  0.076713428	-2.770000E-01	  0.076713428	1.701590E+02	  0.076713428	8.040000E-01	  0.076713428	4.303000E+00
285	  0.076913826	-2.770000E-01	  0.076913826	1.697670E+02	  0.076913826	8.060000E-01	  0.076913826	4.475000E+00
286	  0.077114232	-2.800000E-01	  0.077114232	1.693990E+02	  0.077114232	8.140000E-01	  0.077114232	4.637000E+00
287	  0.077314630	-2.840000E-01	  0.077314630	1.689920E+02	  0.077314630	8.260000E-01	  0.077314630	4.816000E+00
288	  0.077515028	-2.860000E-01	  0.077515028	1.686040E+02	  0.077515028	8.310000E-01	  0.077515028	4.987000E+00
289	  0.077715434	-2.880000E-01	  0.077715434	1.681790E+02	  0.077715434	8.400000E-01	  0.077715434	5.174000E+00
290	  0.077915832	-2.920000E-01	  0.077915832	1.677980E+02	  0.077915832	8.520000E-01	  0.077915832	5.342000E+00
291	  0.078116231	-2.940000E-01	  0.078116231	1.674020E+02	  0.078116231	8.570000E-01	  0.078116231	5.517000E+00
292	  0.078316636	-2.950000E-01	  0.078316636	1.669860E+02	  0.078316636	8.610000E-01	  0.078316636	5.701000E+00
293	  0.078517035	-3.000000E-01	  0.078517035	1.665540E+02	  0.078517035	8.760000E-01	  0.078517035	5.892000E+00
294	  0.078717433	-2.990000E-01	  0.078717433	1.661210E+02	  0.078717433	8.760000E-01	  0.078717433	6.083000E+00
295	  0.078917839	-3.010000E-01	  0.078917839	1.657030E+02	  0.078917839	8.800000E-01	  0.078917839	6.268000E+00
296	  0.079118237	-2.980000E-01	  0.079118237	1.652980E+02	  0.079118237	8.730000E-01	  0.079118237	6.448000E+00
297	  0.079318643	-2.970000E-01	  0.079318643	1.648970E+02	  0.079318643	8.720000E-01	  0.079318643	6.625000E+00
298	  0.079519041	-2.940000E-01	  0.079519041	1.645030E+02	  0.079519041	8.620000E-01	  0.079519041	6.801000E+00
299	  0.079719439	-2.960000E-01	  0.079719439	1.641230E+02	  0.079719439	8.690000E-01	  0.079719439	6.970000E+00
300	  0.079919845	-2.960000E-01	  0.079919845	1.637210E+02	  0.079919845	8.690000E-01	  0.079919845	7.148000E+00
301	  0.080120243	-2.960000E-01	  0.080120243	1.633150E+02	  0.080120243	8.730000E-01	  0.080120243	7.329000E+00
302	  0.080320641	-2.950000E-01	  0.080320641	1.629280E+02	  0.080320641	8.700000E-01	  0.080320641	7.502000E+00
303	  0.080521047	-2.970000E-01	  0.080521047	1.625500E+02	  0.080521047	8.750000E-01	  0.080521047	7.670000E+00
304	  0.080721445	-2.970000E-01	  0.080721445	1.621830E+02	  0.080721445	8.770000E-01	  0.080721445	7.834000E+00
305	  0.080921844	-3.010000E-01	  0.080921844	1.618270E+02	  0.080921844	8.890000E-01	  0.080921844	7.993000E+00
306	  0.081122249	-2.970000E-01	  0.081122249	1.614790E+02	  0.081122249	8.800000E-01	  0.081122249	8.149000E+00
307	  0.081322648	-2.980000E-01	  0.081322648	1.611230E+02	  0.081322648	8.830000E-01	  0.081322648	8.309000E+00
308	  0.081523046	-2.980000E-01	  0.081523046	1.607540E+02	  0.081523046	8.830000E-01	  0.081523046	8.474000E+00
309	  0.081723452	-2.980000E-01	  0.081723452	1.603610E+02	  0.081723452	8.840000E-01	  0.081723452	8.651000E+00
310	  0.081923850	-3.020000E-01	  0.081923850	1.600000E+02	  0.081923850	8.960000E-01	  0.081923850	8.813000E+00
311	  0.082124248	-3.010000E-01	  0.082124248	1.596250E+02	  0.082124248	8.950000E-01	  0.082124248	8.982000E+00
312	  0.082324654	-3.060000E-01	  0.082324654	1.592560E+02	  0.082324654	9.120000E-01	  0.082324654	9.148000E+00
313	  0.082525052	-3.040000E-01	  0.082525052	1.588710E+02	  0.082525052	9.060000E-01	  0.082525052	9.321000E+00
314	  0.082725458	-3.060000E-01	  0.082725458	1.584760E+02	  0.082725458	9.120000E-01	  0.082725458	9.500000E+00
315	  0.082925856	-3.070000E-01	  0.082925856	1.581130E+02	  0.082925856	9.180000E-01	  0.082925856	9.664000E+00
316	  0.083126254	-3.110000E-01	  0.083126254	1.577410E+02	  0.083126254	9.320000E-01	  0.083126254	9.832000E+00
317	  0.083326660	-3.130000E-01	  0.083326660	1.573600E+02	  0.083326660	9.380000E-01	  0.083326660	1.000500E+01
318	  0.083527058	-3.140000E-01	  0.083527058	1.569630E+02	  0.083527058	9.420000E-01	  0.083527058	1.018500E+01
319	  0.083727457	-3.200000E-01	  0.083727457	1.565540E+02	  0.083727457	9.620000E-01	  0.083727457	1.037100E+01
320	  0.083927862	-3.200000E-01	  0.083927862	1.561260E+02	  0.083927862	9.640000E-01	  0.083927862	1.056600E+01
321	  0.084128261	-3.180000E-01	  0.084128261	1.557060E+02	  0.084128261	9.590000E-01	  0.084128261	1.075700E+01
322	  0.084328659	-3.170000E-01	  0.084328659	1.553100E+02	  0.084328659	9.560000E-01	  0.084328659	1.093800E+01
323	  0.084529065	-3.150000E-01	  0.084529065	1.549480E+02	  0.084529065	9.530000E-01	  0.084529065	1.110400E+01
324	  0.084729463	-3.110000E-01	  0.084729463	1.545530E+02	  0.084729463	9.430000E-01	  0.084729463	1.128500E+01
325	  0.084929861	-3.120000E-01	  0.084929861	1.541730E+02	  0.084929861	9.450000E-01	  0.084929861	1.145900E+01
326	  0.085130267	-3.110000E-01	  0.085130267	1.537870E+02	  0.085130267	9.450000E-01	  0.085130267	1.163700E+01
327	  0.085330658	-3.110000E-01	  0.085330658	1.534200E+02	  0.085330658	9.450000E-01	  0.085330658	1.180500E+01
328	  0.085531056	-3.110000E-01	  0.085531056	1.530400E+02	  0.085531056	9.470000E-01	  0.085531056	1.198100E+01
329	  0.085731462	-3.140000E-01	  0.085731462	1.526710E+02	  0.085731462	9.590000E-01	  0.085731462	1.215100E+01
330	  0.085931860	-3.130000E-01	  0.085931860	1.523360E+02	  0.085931860	9.580000E-01	  0.085931860	1.230600E+01
331	  0.086132258	-3.140000E-01	  0.086132258	1.519920E+02	  0.086132258	9.610000E-01	  0.086132258	1.246500E+01
332	  0.086332664	-3.140000E-01	  0.086332664	1.516430E+02	  0.086332664	9.630000E-01	  0.086332664	1.262700E+01
333	  0.086533062	-3.130000E-01	  0.086533062	1.512750E+02	  0.086533062	9.600000E-01	  0.086533062	1.279800E+01
334	  0.086733460	-3.110000E-01	  0.086733460	1.509210E+02	  0.086733460	9.580000E-01	  0.086733460	1.296300E+01
335	  0.086933866	-3.110000E-01	  0.086933866	1.505380E+02	  0.086933866	9.590000E-01	  0.086933866	1.314100E+01
336	  0.087134264	-3.190000E-01	  0.087134264	1.501900E+02	  0.087134264	9.840000E-01	  0.087134264	1.330300E+01
337	  0.087334670	-3.170000E-01	  0.087334670	1.498300E+02	  0.087334670	9.800000E-01	  0.087334670	1.347100E+01
338	  0.087535068	-3.180000E-01	  0.087535068	1.494480E+02	  0.087535068	9.830000E-01	  0.087535068	1.365000E+01
339	  0.087735467	-3.200000E-01	  0.087735467	1.490610E+02	  0.087735467	9.940000E-01	  0.087735467	1.383200E+01
340	  0.087935872	-3.190000E-01	  0.087935872	1.486860E+02	  0.087935872	9.920000E-01	  0.087935872	1.400800E+01
341	  0.088136271	-3.190000E-01	  0.088136271	1.483040E+02	  0.088136271	9.940000E-01	  0.088136271	1.418800E+01
342	  0.088336669	-3.220000E-01	  0.088336669	1.479450E+02	  0.088336669	1.005000E+00	  0.088336669	1.435700E+01
343	  0.088537075	-3.240000E-01	  0.088537075	1.475980E+02	  0.088537075	1.013000E+00	  0.088537075	1.452100E+01
344	  0.088737473	-3.280000E-01	  0.088737473	1.471950E+02	  0.088737473	1.027000E+00	  0.088737473	1.471200E+01
345	  0.088937871	-3.310000E-01	  0.088937871	1.468150E+02	  0.088937871	1.039000E+00	  0.088937871	1.489200E+01
346	  0.089138277	-3.310000E-01	  0.089138277	1.463960E+02	  0.089138277	1.041000E+00	  0.089138277	1.509100E+01
347	  0.089338675	-3.320000E-01	  0.089338675	1.460010E+02	  0.089338675	1.044000E+00	  0.089338675	1.527900E+01
348	  0.089539073	-3.260000E-01	  0.089539073	1.456110E+02	  0.089539073	1.031000E+00	  0.089539073	1.546500E+01
349	  0.089739479	-3.290000E-01	  0.089739479	1.452600E+02	  0.089739479	1.040000E+00	  0.089739479	1.563300E+01
350	  0.089939877	-3.270000E-01	  0.089939877	1.448730E+02	  0.089939877	1.037000E+00	  0.089939877	1.581900E+01
351	  0.090140276	-3.280000E-01	  0.090140276	1.445060E+02	  0.090140276	1.040000E+00	  0.090140276	1.599500E+01
352	  0.090340681	-3.270000E-01	  0.090340681	1.441460E+02	  0.090340681	1.041000E+00	  0.090340681	1.616800E+01
353	  0.090541080	-3.210000E-01	  0.090541080	1.437770E+02	  0.090541080	1.023000E+00	  0.090541080	1.634700E+01
354	  0.090741485	-3.240000E-01	  0.090741485	1.434220E+02	  0.090741485	1.037000E+00	  0.090741485	1.651800E+01
355	  0.090941884	-3.200000E-01	  0.090941884	1.430890E+02	  0.090941884	1.025000E+00	  0.090941884	1.668000E+01
356	  0.091142282	-3.250000E-01	  0.091142282	1.427670E+02	  0.091142282	1.043000E+00	  0.091142282	1.683500E+01
357	  0.091342688	-3.240000E-01	  0.091342688	1.424180E+02	  0.091342688	1.042000E+00	  0.091342688	1.700500E+01
358	  0.091543086	-3.270000E-01	  0.091543086	1.420920E+02	  0.091543086	1.053000E+00	  0.091543086	1.716400E+01
359	  0.091743484	-3.250000E-01	  0.091743484	1.417410E+02	  0.091743484	1.049000E+00	  0.091743484	1.733500E+01
360	  0.091943890	-3.270000E-01	  0.091943890	1.413760E+02	  0.091943890	1.058000E+00	  0.091943890	1.751400E+01
361	  0.092144288	-3.290000E-01	  0.092144288	1.410350E+02	  0.092144288	1.066000E+00	  0.092144288	1.768100E+01
362	  0.092344686	-3.300000E-01	  0.092344686	1.406780E+02	  0.092344686	1.073000E+00	  0.092344686	1.785600E+01
363	  0.092545092	-3.340000E-01	  0.092545092	1.403210E+02	  0.092545092	1.088000E+00	  0.092545092	1.803200E+01
364	  0.092745490	-3.340000E-01	  0.092745490	1.399430E+02	  0.092745490	1.090000E+00	  0.092745490	1.821800E+01
365	  0.092945889	-3.370000E-01	  0.092945889	1.395880E+02	  0.092945889	1.104000E+00	  0.092945889	1.839400E+01
366	  0.093146294	-3.340000E-01	  0.093146294	1.392080E+02	  0.093146294	1.096000E+00	  0.093146294	1.858200E+01
367	  0.093346693	-3.350000E-01	  0.093346693	1.388310E+02	  0.093346693	1.102000E+00	  0.093346693	1.877000E+01
368	  0.093547091	-3.370000E-01	  0.093547091	1.384710E+02	  0.093547091	1.111000E+00	  0.093547091	1.894900E+01
369	  0.093747497	-3.400000E-01	  0.093747497	1.381160E+02	  0.093747497	1.122000E+00	  0.093747497	1.912600E+01
370	  0.093947895	-3.420000E-01	  0.093947895	1.377270E+02	  0.093947895	1.134000E+00	  0.093947895	1.932100E+01
371	  0.094148301	-3.440000E-01	  0.094148301	1.373350E+02	  0.094148301	1.141000E+00	  0.094148301	1.951700E+01
372	  0.094348699	-3.420000E-01	  0.094348699	1.369400E+02	  0.094348699	1.139000E+00	  0.094348699	1.971600E+01
373	  0.094549097	-3.430000E-01	  0.094549097	1.365570E+02	  0.094549097	1.146000E+00	  0.094549097	1.990900E+01
374	  0.094749503	-3.400000E-01	  0.094749503	1.361670E+02	  0.094749503	1.139000E+00	  0.094749503	2.010700E+01
375	  0.094949901	-3.430000E-01	  0.094949901	1.357890E+02	  0.094949901	1.152000E+00	  0.094949901	2.029900E+01
376	  0.095150299	-3.410000E-01	  0.095150299	1.354320E+02	  0.095150299	1.146000E+00	  0.095150299	2.048000E+01
377	  0.095350705	-3.370000E-01	  0.095350705	1.350890E+02	  0.095350705	1.136000E+00	  0.095350705	2.065600E+01
378	  0.095551103	-3.360000E-01	  0.095551103	1.346920E+02	  0.095551103	1.137000E+00	  0.095551103	2.085800E+01
379	  0.095751502	-3.300000E-01	  0.095751502	1.343670E+02	  0.095751502	1.120000E+00	  0.095751502	2.102500E+01
380	  0.095951907	-3.300000E-01	  0.095951907	1.340290E+02	  0.095951907	1.122000E+00	  0.095951907	2.119900E+01
381	  0.096152306	-3.290000E-01	  0.096152306	1.337060E+02	  0.096152306	1.121000E+00	  0.096152306	2.136600E+01
382	  0.096352704	-3.310000E-01	  0.096352704	1.333880E+02	  0.096352704	1.131000E+00	  0.096352704	2.153000E+01
383	  0.096553110	-3.330000E-01	  0.096553110	1.330780E+02	  0.096553110	1.138000E+00	  0.096553110	2.169000E+01
384	  0.096753508	-3.340000E-01	  0.096753508	1.327590E+02	  0.096753508	1.146000E+00	  0.096753508	2.185500E+01
385	  0.096953906	-3.340000E-01	  0.096953906	1.324140E+02	  0.096953906	1.149000E+00	  0.096953906	2.203500E+01
386	  0.097154312	-3.350000E-01	  0.097154312	1.320970E+02	  0.097154312	1.154000E+00	  0.097154312	2.220000E+01
387	  0.097354710	-3.340000E-01	  0.097354710	1.317430E+02	  0.097354710	1.156000E+00	  0.097354710	2.238500E+01
388	  0.097555116	-3.400000E-01	  0.097555116	1.314220E+02	  0.097555116	1.179000E+00	  0.097555116	2.255300E+01
389	  0.097755514	-3.420000E-01	  0.097755514	1.310680E+02	  0.097755514	1.190000E+00	  0.097755514	2.273900E+01
390	  0.097955912	-3.450000E-01	  0.097955912	1.307300E+02	  0.097955912	1.201000E+00	  0.097955912	2.291700E+01
391	  0.098156318	-3.430000E-01	  0.098156318	1.303750E+02	  0.098156318	1.198000E+00	  0.098156318	2.310500E+01
392	  0.098356716	-3.460000E-01	  0.098356716	1.300140E+02	  0.098356716	1.215000E+00	  0.098356716	2.329600E+01
393	  0.098557115	-3.470000E-01	  0.098557115	1.296510E+02	  0.098557115	1.219000E+00	  0.098557115	2.348900E+01
394	  0.098757520	-3.490000E-01	  0.098757520	1.292980E+02	  0.098757520	1.231000E+00	  0.098757520	2.367700E+01
395	  0.098957919	-3.520000E-01	  0.098957919	1.289170E+02	  0.098957919	1.245000E+00	  0.098957919	2.388000E+01
396	  0.099158317	-3.550000E-01	  0.099158317	1.285480E+02	  0.099158317	1.260000E+00	  0.099158317	2.407800E+01
397	  0.099358723	-3.560000E-01	  0.099358723	1.281770E+02	  0.099358723	1.268000E+00	  0.099358723	2.427800E+01
398	  0.099559121	-3.540000E-01	  0.099559121	1.277830E+02	  0.099559121	1.266000E+00	  0.099559121	2.449000E+01
399	  0.099759519	-3.530000E-01	  0.099759519	1.274260E+02	  0.099759519	1.264000E+00	  0.099759519	2.468400E+01
400	  0.099959925	-3.590000E-01	  0.099959925	1.270760E+02	  0.099959925	1.289000E+00	  0.099959925	2.487400E+01
401	  0.100160323	-3.560000E-01	  0.100160323	1.266830E+02	  0.100160323	1.284000E+00	  0.100160323	2.508800E+01
402	  0.100360721	-3.550000E-01	  0.100360721	1.263640E+02	  0.100360721	1.285000E+00	  0.100360721	2.526300E+01
403	  0.100561127	-3.530000E-01	  0.100561127	1.259460E+02	  0.100561127	1.281000E+00	  0.100561127	2.549200E+01
404	  0.100761525	-3.490000E-01	  0.100761525	1.256140E+02	  0.100761525	1.269000E+00	  0.100761525	2.567500E+01
405	  0.100961931	-3.420000E-01	  0.100961931	1.252390E+02	  0.100961931	1.248000E+00	  0.100961931	2.588300E+01
406	  0.101162329	-3.410000E-01	  0.101162329	1.249170E+02	  0.101162329	1.249000E+00	  0.101162329	2.606100E+01
407	  0.101362728	-3.410000E-01	  0.101362728	1.245910E+02	  0.101362728	1.254000E+00	  0.101362728	2.624200E+01
408	  0.101563133	-3.400000E-01	  0.101563133	1.243080E+02	  0.101563133	1.253000E+00	  0.101563133	2.639900E+01
409	  0.101763532	-3.440000E-01	  0.101763532	1.239900E+02	  0.101763532	1.272000E+00	  0.101763532	2.657700E+01
410	  0.101963930	-3.390000E-01	  0.101963930	1.236930E+02	  0.101963930	1.255000E+00	  0.101963930	2.674300E+01
411	  0.102164336	-3.410000E-01	  0.102164336	1.233850E+02	  0.102164336	1.269000E+00	  0.102164336	2.691600E+01
412	  0.102364734	-3.370000E-01	  0.102364734	1.230390E+02	  0.102364734	1.257000E+00	  0.102364734	2.711200E+01
413	  0.102565132	-3.420000E-01	  0.102565132	1.227250E+02	  0.102565132	1.279000E+00	  0.102565132	2.728900E+01
414	  0.102765530	-3.470000E-01	  0.102765530	1.223960E+02	  0.102765530	1.302000E+00	  0.102765530	2.747500E+01
415	  0.102965929	-3.500000E-01	  0.102965929	1.220650E+02	  0.102965929	1.317000E+00	  0.102965929	2.766300E+01
416	  0.103166327	-3.500000E-01	  0.103166327	1.217210E+02	  0.103166327	1.320000E+00	  0.103166327	2.785900E+01
417	  0.103366733	-3.480000E-01	  0.103366733	1.213990E+02	  0.103366733	1.317000E+00	  0.103366733	2.804400E+01
418	  0.103567131	-3.460000E-01	  0.103567131	1.210440E+02	  0.103567131	1.316000E+00	  0.103567131	2.824800E+01
419	  0.103767529	-3.510000E-01	  0.103767529	1.207020E+02	  0.103767529	1.340000E+00	  0.103767529	2.844500E+01
420	  0.103967935	-3.580000E-01	  0.103967935	1.203650E+02	  0.103967935	1.370000E+00	  0.103967935	2.863900E+01
421	  0.104168333	-3.570000E-01	  0.104168333	1.199780E+02	  0.104168333	1.370000E+00	  0.104168333	2.886300E+01
422	  0.104368731	-3.570000E-01	  0.104368731	1.196220E+02	  0.104368731	1.377000E+00	  0.104368731	2.907100E+01
423	  0.104569137	-3.560000E-01	  0.104569137	1.192750E+02	  0.104569137	1.379000E+00	  0.104569137	2.927400E+01
424	  0.104769535	-3.590000E-01	  0.104769535	1.188710E+02	  0.104769535	1.396000E+00	  0.104769535	2.951000E+01
425	  0.104969934	-3.520000E-01	  0.104969934	1.185440E+02	  0.104969934	1.373000E+00	  0.104969934	2.970400E+01
426	  0.105170339	-3.610000E-01	  0.105170339	1.181820E+02	  0.105170339	1.411000E+00	  0.105170339	2.991600E+01
427	  0.105370738	-3.570000E-01	  0.105370738	1.178420E+02	  0.105370738	1.401000E+00	  0.105370738	3.011900E+01
428	  0.105571143	-3.660000E-01	  0.105571143	1.174570E+02	  0.105571143	1.442000E+00	  0.105571143	3.034700E+01
429	  0.105771542	-3.600000E-01	  0.105771542	1.171350E+02	  0.105771542	1.424000E+00	  0.105771542	3.054000E+01
430	  0.105971940	-3.600000E-01	  0.105971940	1.167900E+02	  0.105971940	1.431000E+00	  0.105971940	3.074700E+01
431	  0.106172346	-3.540000E-01	  0.106172346	1.164260E+02	  0.106172346	1.413000E+00	  0.106172346	3.096700E+01
432	  0.106372744	-3.520000E-01	  0.106372744	1.160840E+02	  0.106372744	1.410000E+00	  0.106372744	3.117400E+01
433	  0.106573142	-3.530000E-01	  0.106573142	1.157380E+02	  0.106573142	1.417000E+00	  0.106573142	3.138300E+01
434	  0.106773548	-3.500000E-01	  0.106773548	1.154690E+02	  0.106773548	1.409000E+00	  0.106773548	3.154800E+01
435	  0.106973946	-3.500000E-01	  0.106973946	1.151720E+02	  0.106973946	1.416000E+00	  0.106973946	3.172900E+01
436	  0.107174344	-3.490000E-01	  0.107174344	1.148580E+02	  0.107174344	1.417000E+00	  0.107174344	3.192200E+01
437	  0.107374750	-3.440000E-01	  0.107374750	1.145640E+02	  0.107374750	1.401000E+00	  0.107374750	3.210300E+01
438	  0.107575148	-3.480000E-01	  0.107575148	1.142720E+02	  0.107575148	1.421000E+00	  0.107575148	3.228300E+01
439	  0.107775547	-3.460000E-01	  0.107775547	1.139600E+02	  0.107775547	1.416000E+00	  0.107775547	3.247600E+01
440	  0.107975952	-3.500000E-01	  0.107975952	1.136390E+02	  0.107975952	1.437000E+00	  0.107975952	3.267500E+01
441	  0.108176351	-3.500000E-01	  0.108176351	1.132990E+02	  0.108176351	1.443000E+00	  0.108176351	3.288700E+01
442	  0.108376749	-3.540000E-01	  0.108376749	1.129890E+02	  0.108376749	1.465000E+00	  0.108376749	3.308000E+01
443	  0.108577155	-3.540000E-01	  0.108577155	1.126590E+02	  0.108577155	1.473000E+00	  0.108577155	3.328800E+01
444	  0.108777553	-3.480000E-01	  0.108777553	1.123240E+02	  0.108777553	1.451000E+00	  0.108777553	3.350000E+01
445	  0.108977959	-3.550000E-01	  0.108977959	1.119890E+02	  0.108977959	1.489000E+00	  0.108977959	3.371100E+01
446	  0.109178357	-3.620000E-01	  0.109178357	1.116150E+02	  0.109178357	1.523000E+00	  0.109178357	3.394800E+01
447	  0.109378755	-3.620000E-01	  0.109378755	1.113030E+02	  0.109378755	1.530000E+00	  0.109378755	3.414700E+01
448	  0.109579161	-3.620000E-01	  0.109579161	1.109180E+02	  0.109579161	1.538000E+00	  0.109579161	3.439400E+01
449	  0.109779559	-3.620000E-01	  0.109779559	1.105740E+02	  0.109779559	1.544000E+00	  0.109779559	3.461600E+01
450	  0.109979957	-3.590000E-01	  0.109979957	1.102380E+02	  0.109979957	1.538000E+00	  0.109979957	3.483300E+01
451	  0.110180363	-3.590000E-01	  0.110180363	1.098720E+02	  0.110180363	1.544000E+00	  0.110180363	3.507100E+01
452	  0.110380761	-3.620000E-01	  0.110380761	1.095050E+02	  0.110380761	1.561000E+00	  0.110380761	3.531000E+01
453	  0.110581160	-3.660000E-01	  0.110581160	1.091890E+02	  0.110581160	1.587000E+00	  0.110581160	3.551600E+01
454	  0.110781565	-3.600000E-01	  0.110781565	1.088150E+02	  0.110781565	1.569000E+00	  0.110781565	3.576300E+01
455	  0.110981964	-3.620000E-01	  0.110981964	1.084510E+02	  0.110981964	1.585000E+00	  0.110981964	3.600300E+01
456	  0.111182362	-3.630000E-01	  0.111182362	1.081210E+02	  0.111182362	1.597000E+00	  0.111182362	3.622100E+01
457	  0.111382768	-3.580000E-01	  0.111382768	1.077730E+02	  0.111382768	1.582000E+00	  0.111382768	3.645400E+01
458	  0.111583166	-3.570000E-01	  0.111583166	1.074590E+02	  0.111583166	1.582000E+00	  0.111583166	3.666400E+01
459	  0.111783572	-3.570000E-01	  0.111783572	1.071250E+02	  0.111783572	1.591000E+00	  0.111783572	3.688900E+01
460	  0.111983970	-3.540000E-01	  0.111983970	1.068330E+02	  0.111983970	1.581000E+00	  0.111983970	3.708600E+01
461	  0.112184368	-3.570000E-01	  0.112184368	1.065020E+02	  0.112184368	1.600000E+00	  0.112184368	3.731000E+01
462	  0.112384774	-3.530000E-01	  0.112384774	1.062070E+02	  0.112384774	1.592000E+00	  0.112384774	3.751100E+01
463	  0.112585172	-3.530000E-01	  0.112585172	1.058930E+02	  0.112585172	1.596000E+00	  0.112585172	3.772600E+01
464	  0.112785570	-3.510000E-01	  0.112785570	1.055850E+02	  0.112785570	1.595000E+00	  0.112785570	3.793700E+01
465	  0.112985976	-3.520000E-01	  0.112985976	1.052960E+02	  0.112985976	1.602000E+00	  0.112985976	3.813600E+01
466	  0.113186374	-3.540000E-01	  0.113186374	1.049570E+02	  0.113186374	1.620000E+00	  0.113186374	3.837000E+01
467	  0.113386773	-3.530000E-01	  0.113386773	1.046380E+02	  0.113386773	1.623000E+00	  0.113386773	3.859100E+01
468	  0.113587178	-3.560000E-01	  0.113587178	1.043380E+02	  0.113587178	1.644000E+00	  0.113587178	3.880000E+01
469	  0.113787577	-3.550000E-01	  0.113787577	1.040110E+02	  0.113787577	1.647000E+00	  0.113787577	3.903000E+01
470	  0.113987975	-3.580000E-01	  0.113987975	1.036700E+02	  0.113987975	1.670000E+00	  0.113987975	3.926900E+01
471	  0.114188381	-3.590000E-01	  0.114188381	1.033450E+02	  0.114188381	1.678000E+00	  0.114188381	3.949800E+01
472	  0.114388779	-3.630000E-01	  0.114388779	1.030420E+02	  0.114388779	1.706000E+00	  0.114388779	3.971300E+01
473	  0.114589177	-3.640000E-01	  0.114589177	1.026820E+02	  0.114589177	1.717000E+00	  0.114589177	3.996900E+01
474	  0.114789583	-3.640000E-01	  0.114789583	1.023620E+02	  0.114789583	1.727000E+00	  0.114789583	4.019800E+01
475	  0.114989981	-3.590000E-01	  0.114989981	1.020140E+02	  0.114989981	1.714000E+00	  0.114989981	4.044900E+01
476	  0.115190387	-3.580000E-01	  0.115190387	1.016550E+02	  0.115190387	1.715000E+00	  0.115190387	4.070900E+01
477	  0.115390785	-3.610000E-01	  0.115390785	1.013010E+02	  0.115390785	1.738000E+00	  0.115390785	4.096600E+01
478	  0.115591183	-3.580000E-01	  0.115591183	1.010100E+02	  0.115591183	1.733000E+00	  0.115591183	4.117900E+01
479	  0.115791589	-3.600000E-01	  0.115791589	1.006810E+02	  0.115791589	1.748000E+00	  0.115791589	4.142000E+01
480	  0.115991987	-3.600000E-01	  0.115991987	1.003590E+02	  0.115991987	1.757000E+00	  0.115991987	4.165800E+01
481	  0.116192386	-3.640000E-01	  0.116192386	1.000280E+02	  0.116192386	1.787000E+00	  0.116192386	4.190200E+01
482	  0.116392791	-3.650000E-01	  0.116392791	9.970200E+01	  0.116392791	1.797000E+00	  0.116392791	4.214400E+01
483	  0.116593190	-3.530000E-01	  0.116593190	9.935100E+01	  0.116593190	1.747000E+00	  0.116593190	4.240900E+01
484	  0.116793588	-3.500000E-01	  0.116793588	9.905700E+01	  0.116793588	1.744000E+00	  0.116793588	4.263000E+01
485	  0.116993994	-3.550000E-01	  0.116993994	9.876100E+01	  0.116993994	1.772000E+00	  0.116993994	4.285300E+01
486	  0.117194392	-3.580000E-01	  0.117194392	9.846500E+01	  0.117194392	1.799000E+00	  0.117194392	4.307600E+01
487	  0.117394790	-3.590000E-01	  0.117394790	9.817500E+01	  0.117394790	1.810000E+00	  0.117394790	4.329700E+01
488	  0.117595196	-3.560000E-01	  0.117595196	9.787400E+01	  0.117595196	1.803000E+00	  0.117595196	4.352700E+01
489	  0.117795594	-3.540000E-01	  0.117795594	9.756800E+01	  0.117795594	1.800000E+00	  0.117795594	4.376300E+01
490	  0.117995992	-3.520000E-01	  0.117995992	9.727500E+01	  0.117995992	1.800000E+00	  0.117995992	4.399000E+01
491	  0.118196398	-3.540000E-01	  0.118196398	9.695900E+01	  0.118196398	1.819000E+00	  0.118196398	4.423400E+01
492	  0.118396796	-3.590000E-01	  0.118396796	9.663500E+01	  0.118396796	1.854000E+00	  0.118396796	4.448600E+01
493	  0.118597202	-3.580000E-01	  0.118597202	9.635300E+01	  0.118597202	1.858000E+00	  0.118597202	4.470700E+01
494	  0.118797600	-3.580000E-01	  0.118797600	9.604200E+01	  0.118797600	1.866000E+00	  0.118797600	4.495100E+01
495	  0.118997999	-3.580000E-01	  0.118997999	9.572700E+01	  0.118997999	1.876000E+00	  0.118997999	4.520100E+01
496	  0.119198404	-3.640000E-01	  0.119198404	9.541900E+01	  0.119198404	1.916000E+00	  0.119198404	4.544400E+01
497	  0.119398803	-3.650000E-01	  0.119398803	9.506800E+01	  0.119398803	1.931000E+00	  0.119398803	4.572400E+01
498	  0.119599201	-3.670000E-01	  0.119599201	9.474400E+01	  0.119599201	1.952000E+00	  0.119599201	4.598400E+01
499	  0.119799607	-3.670000E-01	  0.119799607	9.441600E+01	  0.119799607	1.963000E+00	  0.119799607	4.624800E+01
500	  0.120000005	-3.600000E-01	  0.120000005	9.406400E+01	  0.120000005	1.938000E+00	  0.120000005	4.653500E+01
