! Anritsu VNA Master:             	Model: MS2036C/10/77
! SN:             	1601066
! /bd0/18may26.balun/4b.66.txt
! Existing Calibration Information:
! TYPE:             	Current Settings	Active Cal Settings
! TIME:             	05/26/2018 04:38:42 PM	05/26/2018 04:28:16 PM
! INTERNAL TEMP:    	55.8 C	56.3 C
! # POINTS:         	500	500
! START FREQ:       	20.000 MHz	20.000 MHz
! STOP FREQ:        	120.000 MHz	120.000 MHz
! SOURCE POWER:     	High	High
! IFBW:             	50 Hz	50 Hz
! AVG FACTOR:       	  1 	  1 
! REF PLANE 1:      	0 mm	0 mm
! REF PLANE 2:      	0 mm	0 mm
! CAL TYPE:         	Full S11	Full S11
! CAL METHOD:       	SOLT	SOLT
! CAL LINE TYPE:    	Coax	Coax
! DUT PORT 1:       	K-Conn(M)	K-Conn(M)
! DUT PORT 2:       	K-Conn(M)	K-Conn(M)
! CAL STATUS:       	OK: Accuracy High	--
! PROP-V:       	0.700
! CABLE LOSS:       	0.000 dB/m
! REF IMPEDANCE:       	50.0
! Trace Specific Parameters:	TR1	TR2	TR3	TR4
! TRACE.#.Y (GRAPH TYPE)	LOG MAG	PHASE	REAL IMPEDANCE	IMAGINARY IMPEDANCE
! TRACE.#.X 	FREQ.GHZ	FREQ.GHZ	FREQ.GHZ	FREQ.GHZ
! S-PARAMETER	S11	S11	S11	S11
! SMOOTH/APERTURE %	0	0	0	0
! WINDOW	NSL	NSL	NSL	NSL
! GATING	OFF	OFF	OFF	OFF
! FGTD	OFF	OFF	OFF	OFF
Marker Information per Trace:	TR1	TR2	TR3	TR4
!MK1	--	--	--	--
!MK2	--	--	--	--
!MK3	--	--	--	--
!MK4	--	--	--	--
!MK5	--	--	--	--
!MK6	--	--	--	--
!MK7	--	--	--	--
!MK8	--	--	--	--
PNT	TR1.FREQ.GHZ	TR1.LOG MAG.dB	TR2.FREQ.GHZ	TR2.PHASE.deg	TR3.FREQ.GHZ	TR3.REAL IMPEDANCE.ohm	TR4.FREQ.GHZ	TR4.IMAGINARY IMPEDANCE.ohm
1	  0.020000000	-2.500000E-02	  0.020000000	-6.809000E+01	  0.020000000	2.360000E-01	  0.020000000	-7.400100E+01
2	  0.020200402	-2.300000E-02	  0.020200402	-6.873200E+01	  0.020200402	2.120000E-01	  0.020200402	-7.311400E+01
3	  0.020400802	-2.000000E-02	  0.020400802	-6.937700E+01	  0.020400802	1.860000E-01	  0.020400802	-7.223900E+01
4	  0.020601204	-2.100000E-02	  0.020601204	-7.000200E+01	  0.020601204	1.910000E-01	  0.020601204	-7.140400E+01
5	  0.020801604	-2.100000E-02	  0.020801604	-7.065700E+01	  0.020801604	1.830000E-01	  0.020801604	-7.054200E+01
6	  0.021002004	-2.000000E-02	  0.021002004	-7.130600E+01	  0.021002004	1.760000E-01	  0.021002004	-6.970100E+01
7	  0.021202406	-2.300000E-02	  0.021202406	-7.196900E+01	  0.021202406	1.920000E-01	  0.021202406	-6.885600E+01
8	  0.021402806	-3.000000E-02	  0.021402806	-7.260700E+01	  0.021402806	2.510000E-01	  0.021402806	-6.805600E+01
9	  0.021603208	-3.300000E-02	  0.021603208	-7.323800E+01	  0.021603208	2.690000E-01	  0.021603208	-6.727600E+01
10	  0.021803608	-3.900000E-02	  0.021803608	-7.387500E+01	  0.021803608	3.180000E-01	  0.021803608	-6.650100E+01
11	  0.022004008	-4.400000E-02	  0.022004008	-7.450500E+01	  0.022004008	3.490000E-01	  0.022004008	-6.574600E+01
12	  0.022204408	-4.600000E-02	  0.022204408	-7.514600E+01	  0.022204408	3.600000E-01	  0.022204408	-6.498700E+01
13	  0.022404809	-4.700000E-02	  0.022404809	-7.582200E+01	  0.022404809	3.610000E-01	  0.022404809	-6.420000E+01
14	  0.022605211	-4.800000E-02	  0.022605211	-7.646200E+01	  0.022605211	3.650000E-01	  0.022605211	-6.346500E+01
15	  0.022805611	-4.700000E-02	  0.022805611	-7.712500E+01	  0.022805611	3.500000E-01	  0.022805611	-6.271600E+01
16	  0.023006011	-3.800000E-02	  0.023006011	-7.777100E+01	  0.023006011	2.820000E-01	  0.023006011	-6.199600E+01
17	  0.023206413	-2.700000E-02	  0.023206413	-7.843500E+01	  0.023206413	1.980000E-01	  0.023206413	-6.126600E+01
18	  0.023406813	-2.200000E-02	  0.023406813	-7.907000E+01	  0.023406813	1.580000E-01	  0.023406813	-6.057800E+01
19	  0.023607215	-2.000000E-02	  0.023607215	-7.970300E+01	  0.023607215	1.430000E-01	  0.023607215	-5.990100E+01
20	  0.023807615	-1.900000E-02	  0.023807615	-8.028500E+01	  0.023807615	1.370000E-01	  0.023807615	-5.928600E+01
21	  0.024008015	-2.700000E-02	  0.024008015	-8.087800E+01	  0.024008015	1.840000E-01	  0.024008015	-5.866700E+01
22	  0.024208417	-3.200000E-02	  0.024208417	-8.142500E+01	  0.024208417	2.200000E-01	  0.024208417	-5.810400E+01
23	  0.024408817	-3.900000E-02	  0.024408817	-8.198800E+01	  0.024408817	2.630000E-01	  0.024408817	-5.752900E+01
24	  0.024609219	-4.400000E-02	  0.024609219	-8.257000E+01	  0.024609219	2.920000E-01	  0.024609219	-5.694200E+01
25	  0.024809619	-4.700000E-02	  0.024809619	-8.319600E+01	  0.024809619	3.100000E-01	  0.024809619	-5.631800E+01
26	  0.025010020	-5.100000E-02	  0.025010020	-8.382500E+01	  0.025010020	3.330000E-01	  0.025010020	-5.570000E+01
27	  0.025210422	-5.400000E-02	  0.025210422	-8.445500E+01	  0.025210422	3.490000E-01	  0.025210422	-5.508700E+01
28	  0.025410822	-5.700000E-02	  0.025410822	-8.512400E+01	  0.025410822	3.590000E-01	  0.025410822	-5.444500E+01
29	  0.025611224	-5.700000E-02	  0.025611224	-8.577400E+01	  0.025611224	3.560000E-01	  0.025611224	-5.382900E+01
30	  0.025811624	-5.300000E-02	  0.025811624	-8.641600E+01	  0.025811624	3.280000E-01	  0.025811624	-5.322800E+01
31	  0.026012026	-5.100000E-02	  0.026012026	-8.702300E+01	  0.026012026	3.100000E-01	  0.026012026	-5.266600E+01
32	  0.026212426	-4.700000E-02	  0.026212426	-8.761200E+01	  0.026212426	2.880000E-01	  0.026212426	-5.212700E+01
33	  0.026412826	-5.000000E-02	  0.026412826	-8.822200E+01	  0.026412826	2.970000E-01	  0.026412826	-5.157400E+01
34	  0.026613226	-5.500000E-02	  0.026613226	-8.878000E+01	  0.026613226	3.260000E-01	  0.026613226	-5.107400E+01
35	  0.026813626	-6.000000E-02	  0.026813626	-8.937300E+01	  0.026813626	3.520000E-01	  0.026813626	-5.054800E+01
36	  0.027014028	-6.800000E-02	  0.027014028	-8.992600E+01	  0.027014028	3.960000E-01	  0.027014028	-5.006200E+01
37	  0.027214428	-8.000000E-02	  0.027214428	-9.049500E+01	  0.027214428	4.590000E-01	  0.027214428	-4.956700E+01
38	  0.027414829	-9.000000E-02	  0.027414829	-9.112600E+01	  0.027414829	5.090000E-01	  0.027414829	-4.902300E+01
39	  0.027615231	-9.500000E-02	  0.027615231	-9.179300E+01	  0.027615231	5.340000E-01	  0.027615231	-4.845500E+01
40	  0.027815631	-9.800000E-02	  0.027815631	-9.246900E+01	  0.027815631	5.450000E-01	  0.027815631	-4.788700E+01
41	  0.028016033	-9.600000E-02	  0.028016033	-9.315500E+01	  0.028016033	5.260000E-01	  0.028016033	-4.731600E+01
42	  0.028216433	-8.700000E-02	  0.028216433	-9.383200E+01	  0.028216433	4.730000E-01	  0.028216433	-4.676000E+01
43	  0.028416833	-7.900000E-02	  0.028416833	-9.451800E+01	  0.028416833	4.260000E-01	  0.028416833	-4.620200E+01
44	  0.028617235	-7.100000E-02	  0.028617235	-9.514800E+01	  0.028617235	3.750000E-01	  0.028617235	-4.569600E+01
45	  0.028817635	-6.100000E-02	  0.028817635	-9.574600E+01	  0.028817635	3.220000E-01	  0.028817635	-4.521900E+01
46	  0.029018037	-5.300000E-02	  0.029018037	-9.631200E+01	  0.029018037	2.770000E-01	  0.029018037	-4.477300E+01
47	  0.029218437	-4.500000E-02	  0.029218437	-9.683600E+01	  0.029218437	2.330000E-01	  0.029218437	-4.436200E+01
48	  0.029418837	-4.100000E-02	  0.029418837	-9.733700E+01	  0.029418837	2.120000E-01	  0.029418837	-4.397400E+01
49	  0.029619239	-3.800000E-02	  0.029619239	-9.782900E+01	  0.029619239	1.950000E-01	  0.029619239	-4.359400E+01
50	  0.029819639	-3.900000E-02	  0.029819639	-9.834900E+01	  0.029819639	1.980000E-01	  0.029819639	-4.319700E+01
51	  0.030020041	-4.500000E-02	  0.030020041	-9.889700E+01	  0.030020041	2.270000E-01	  0.030020041	-4.278100E+01
52	  0.030220442	-5.500000E-02	  0.030220442	-9.946200E+01	  0.030220442	2.740000E-01	  0.030220442	-4.235500E+01
53	  0.030420844	-6.600000E-02	  0.030420844	-1.000580E+02	  0.030420844	3.270000E-01	  0.030420844	-4.191000E+01
54	  0.030621244	-7.500000E-02	  0.030621244	-1.006970E+02	  0.030621244	3.670000E-01	  0.030621244	-4.143700E+01
55	  0.030821644	-7.500000E-02	  0.030821644	-1.013480E+02	  0.030821644	3.640000E-01	  0.030821644	-4.096000E+01
56	  0.031022044	-7.500000E-02	  0.031022044	-1.019700E+02	  0.031022044	3.580000E-01	  0.031022044	-4.050900E+01
57	  0.031222444	-6.600000E-02	  0.031222444	-1.025820E+02	  0.031222444	3.140000E-01	  0.031222444	-4.006800E+01
58	  0.031422846	-6.500000E-02	  0.031422846	-1.031760E+02	  0.031422846	3.050000E-01	  0.031422846	-3.964500E+01
59	  0.031623244	-6.600000E-02	  0.031623244	-1.037440E+02	  0.031623244	3.100000E-01	  0.031623244	-3.924200E+01
60	  0.031823646	-6.800000E-02	  0.031823646	-1.042990E+02	  0.031823646	3.150000E-01	  0.031823646	-3.885300E+01
61	  0.032024048	-6.800000E-02	  0.032024048	-1.048230E+02	  0.032024048	3.120000E-01	  0.032024048	-3.848700E+01
62	  0.032224450	-7.500000E-02	  0.032224450	-1.053280E+02	  0.032224450	3.450000E-01	  0.032224450	-3.813700E+01
63	  0.032424849	-8.600000E-02	  0.032424849	-1.058580E+02	  0.032424849	3.910000E-01	  0.032424849	-3.777200E+01
64	  0.032625251	-9.900000E-02	  0.032625251	-1.064270E+02	  0.032625251	4.460000E-01	  0.032625251	-3.738300E+01
65	  0.032825653	-1.110000E-01	  0.032825653	-1.070130E+02	  0.032825653	4.940000E-01	  0.032825653	-3.698600E+01
66	  0.033026051	-1.140000E-01	  0.033026051	-1.076410E+02	  0.033026051	5.030000E-01	  0.033026051	-3.656400E+01
67	  0.033226453	-1.170000E-01	  0.033226453	-1.082560E+02	  0.033226453	5.150000E-01	  0.033226453	-3.615300E+01
68	  0.033426855	-1.210000E-01	  0.033426855	-1.088830E+02	  0.033426855	5.300000E-01	  0.033426855	-3.573800E+01
69	  0.033627257	-1.220000E-01	  0.033627257	-1.095250E+02	  0.033627257	5.280000E-01	  0.033627257	-3.531700E+01
70	  0.033827655	-1.230000E-01	  0.033827655	-1.101580E+02	  0.033827655	5.270000E-01	  0.033827655	-3.490400E+01
71	  0.034028057	-1.200000E-01	  0.034028057	-1.107790E+02	  0.034028057	5.110000E-01	  0.034028057	-3.450300E+01
72	  0.034228459	-1.140000E-01	  0.034228459	-1.114030E+02	  0.034228459	4.820000E-01	  0.034228459	-3.410300E+01
73	  0.034428857	-1.070000E-01	  0.034428857	-1.119750E+02	  0.034428857	4.480000E-01	  0.034428857	-3.373900E+01
74	  0.034629259	-9.400000E-02	  0.034629259	-1.125230E+02	  0.034629259	3.940000E-01	  0.034629259	-3.339200E+01
75	  0.034829661	-8.600000E-02	  0.034829661	-1.130420E+02	  0.034829661	3.560000E-01	  0.034829661	-3.306600E+01
76	  0.035030060	-8.200000E-02	  0.035030060	-1.135690E+02	  0.035030060	3.390000E-01	  0.035030060	-3.273600E+01
77	  0.035230462	-7.900000E-02	  0.035230462	-1.140480E+02	  0.035230462	3.240000E-01	  0.035230462	-3.243900E+01
78	  0.035430863	-7.800000E-02	  0.035430863	-1.145670E+02	  0.035430863	3.180000E-01	  0.035430863	-3.211800E+01
79	  0.035631265	-8.400000E-02	  0.035631265	-1.150880E+02	  0.035631265	3.400000E-01	  0.035631265	-3.179800E+01
80	  0.035831664	-9.200000E-02	  0.035831664	-1.156200E+02	  0.035831664	3.700000E-01	  0.035831664	-3.147300E+01
81	  0.036032066	-9.800000E-02	  0.036032066	-1.161830E+02	  0.036032066	3.950000E-01	  0.036032066	-3.113000E+01
82	  0.036232468	-1.080000E-01	  0.036232468	-1.167830E+02	  0.036232468	4.300000E-01	  0.036232468	-3.076800E+01
83	  0.036432866	-1.140000E-01	  0.036432866	-1.173960E+02	  0.036432866	4.530000E-01	  0.036432866	-3.040000E+01
84	  0.036633268	-1.130000E-01	  0.036633268	-1.180320E+02	  0.036633268	4.460000E-01	  0.036633268	-3.002100E+01
85	  0.036833670	-1.120000E-01	  0.036833670	-1.186060E+02	  0.036833670	4.370000E-01	  0.036833670	-2.968200E+01
86	  0.037034072	-1.030000E-01	  0.037034072	-1.191950E+02	  0.037034072	4.000000E-01	  0.037034072	-2.933500E+01
87	  0.037234470	-9.100000E-02	  0.037234470	-1.196980E+02	  0.037234470	3.520000E-01	  0.037234470	-2.904200E+01
88	  0.037434869	-8.600000E-02	  0.037434869	-1.201630E+02	  0.037434869	3.320000E-01	  0.037434869	-2.877100E+01
89	  0.037635271	-8.900000E-02	  0.037635271	-1.206410E+02	  0.037635271	3.420000E-01	  0.037635271	-2.849400E+01
90	  0.037835669	-9.400000E-02	  0.037835669	-1.211330E+02	  0.037835669	3.600000E-01	  0.037835669	-2.821000E+01
91	  0.038036071	-1.040000E-01	  0.038036071	-1.216690E+02	  0.038036071	3.960000E-01	  0.038036071	-2.790300E+01
92	  0.038236473	-1.130000E-01	  0.038236473	-1.222130E+02	  0.038236473	4.250000E-01	  0.038236473	-2.759200E+01
93	  0.038436871	-1.190000E-01	  0.038436871	-1.227610E+02	  0.038436871	4.460000E-01	  0.038436871	-2.728000E+01
94	  0.038637273	-1.220000E-01	  0.038637273	-1.232960E+02	  0.038637273	4.560000E-01	  0.038637273	-2.697800E+01
95	  0.038837675	-1.310000E-01	  0.038837675	-1.238420E+02	  0.038837675	4.860000E-01	  0.038837675	-2.667100E+01
96	  0.039038073	-1.400000E-01	  0.039038073	-1.244240E+02	  0.039038073	5.150000E-01	  0.039038073	-2.634600E+01
97	  0.039238475	-1.440000E-01	  0.039238475	-1.250080E+02	  0.039238475	5.270000E-01	  0.039238475	-2.602100E+01
98	  0.039438877	-1.490000E-01	  0.039438877	-1.255740E+02	  0.039438877	5.420000E-01	  0.039438877	-2.570700E+01
99	  0.039639279	-1.450000E-01	  0.039639279	-1.261330E+02	  0.039639279	5.250000E-01	  0.039639279	-2.540000E+01
100	  0.039839678	-1.380000E-01	  0.039839678	-1.266730E+02	  0.039839678	4.970000E-01	  0.039839678	-2.510500E+01
101	  0.040040080	-1.330000E-01	  0.040040080	-1.271930E+02	  0.040040080	4.800000E-01	  0.040040080	-2.482100E+01
102	  0.040240481	-1.290000E-01	  0.040240481	-1.277170E+02	  0.040240481	4.640000E-01	  0.040240481	-2.453700E+01
103	  0.040440880	-1.250000E-01	  0.040440880	-1.282330E+02	  0.040440880	4.460000E-01	  0.040440880	-2.425900E+01
104	  0.040641282	-1.240000E-01	  0.040641282	-1.287710E+02	  0.040641282	4.400000E-01	  0.040641282	-2.396900E+01
105	  0.040841684	-1.240000E-01	  0.040841684	-1.292680E+02	  0.040841684	4.380000E-01	  0.040841684	-2.370300E+01
106	  0.041042086	-1.250000E-01	  0.041042086	-1.297840E+02	  0.041042086	4.400000E-01	  0.041042086	-2.342800E+01
107	  0.041242484	-1.320000E-01	  0.041242484	-1.302780E+02	  0.041242484	4.620000E-01	  0.041242484	-2.316600E+01
108	  0.041442886	-1.440000E-01	  0.041442886	-1.307930E+02	  0.041442886	5.040000E-01	  0.041442886	-2.289300E+01
109	  0.041643288	-1.520000E-01	  0.041643288	-1.313720E+02	  0.041643288	5.260000E-01	  0.041643288	-2.258800E+01
110	  0.041843686	-1.570000E-01	  0.041843686	-1.319430E+02	  0.041843686	5.420000E-01	  0.041843686	-2.228800E+01
111	  0.042044088	-1.530000E-01	  0.042044088	-1.325400E+02	  0.042044088	5.250000E-01	  0.042044088	-2.197700E+01
112	  0.042244490	-1.430000E-01	  0.042244490	-1.330950E+02	  0.042244490	4.900000E-01	  0.042244490	-2.168900E+01
113	  0.042444889	-1.330000E-01	  0.042444889	-1.335970E+02	  0.042444889	4.550000E-01	  0.042444889	-2.142900E+01
114	  0.042645290	-1.270000E-01	  0.042645290	-1.340770E+02	  0.042645290	4.320000E-01	  0.042645290	-2.118200E+01
115	  0.042845692	-1.260000E-01	  0.042845692	-1.345520E+02	  0.042845692	4.280000E-01	  0.042845692	-2.093800E+01
116	  0.043046094	-1.280000E-01	  0.043046094	-1.350240E+02	  0.043046094	4.320000E-01	  0.043046094	-2.069600E+01
117	  0.043246493	-1.320000E-01	  0.043246493	-1.355170E+02	  0.043246493	4.440000E-01	  0.043246493	-2.044500E+01
118	  0.043446895	-1.350000E-01	  0.043446895	-1.360130E+02	  0.043446895	4.520000E-01	  0.043446895	-2.019200E+01
119	  0.043647297	-1.390000E-01	  0.043647297	-1.364810E+02	  0.043647297	4.650000E-01	  0.043647297	-1.995500E+01
120	  0.043847695	-1.450000E-01	  0.043847695	-1.369670E+02	  0.043847695	4.840000E-01	  0.043847695	-1.971000E+01
121	  0.044048097	-1.540000E-01	  0.044048097	-1.374620E+02	  0.044048097	5.100000E-01	  0.044048097	-1.946000E+01
122	  0.044248499	-1.590000E-01	  0.044248499	-1.379870E+02	  0.044248499	5.250000E-01	  0.044248499	-1.919700E+01
123	  0.044448901	-1.650000E-01	  0.044448901	-1.385220E+02	  0.044448901	5.430000E-01	  0.044448901	-1.893000E+01
124	  0.044649299	-1.640000E-01	  0.044649299	-1.390510E+02	  0.044649299	5.390000E-01	  0.044649299	-1.866600E+01
125	  0.044849701	-1.640000E-01	  0.044849701	-1.395560E+02	  0.044849701	5.370000E-01	  0.044849701	-1.841600E+01
126	  0.045050103	-1.670000E-01	  0.045050103	-1.400620E+02	  0.045050103	5.440000E-01	  0.045050103	-1.816500E+01
127	  0.045250501	-1.670000E-01	  0.045250501	-1.405550E+02	  0.045250501	5.430000E-01	  0.045250501	-1.792200E+01
128	  0.045450903	-1.690000E-01	  0.045450903	-1.410690E+02	  0.045450903	5.490000E-01	  0.045450903	-1.767000E+01
129	  0.045651305	-1.710000E-01	  0.045651305	-1.416040E+02	  0.045651305	5.540000E-01	  0.045651305	-1.740700E+01
130	  0.045851704	-1.680000E-01	  0.045851704	-1.421370E+02	  0.045851704	5.420000E-01	  0.045851704	-1.714700E+01
131	  0.046052106	-1.660000E-01	  0.046052106	-1.426490E+02	  0.046052106	5.340000E-01	  0.046052106	-1.689800E+01
132	  0.046252504	-1.650000E-01	  0.046252504	-1.431530E+02	  0.046252504	5.280000E-01	  0.046252504	-1.665300E+01
133	  0.046452906	-1.710000E-01	  0.046452906	-1.436350E+02	  0.046452906	5.450000E-01	  0.046452906	-1.642000E+01
134	  0.046653304	-1.780000E-01	  0.046653304	-1.441130E+02	  0.046653304	5.660000E-01	  0.046653304	-1.618900E+01
135	  0.046853706	-1.860000E-01	  0.046853706	-1.446580E+02	  0.046853706	5.910000E-01	  0.046853706	-1.592700E+01
136	  0.047054108	-1.890000E-01	  0.047054108	-1.452080E+02	  0.047054108	6.000000E-01	  0.047054108	-1.566200E+01
137	  0.047254506	-1.880000E-01	  0.047254506	-1.457650E+02	  0.047254506	5.950000E-01	  0.047254506	-1.539600E+01
138	  0.047454908	-1.820000E-01	  0.047454908	-1.463070E+02	  0.047454908	5.720000E-01	  0.047454908	-1.513800E+01
139	  0.047655310	-1.750000E-01	  0.047655310	-1.468200E+02	  0.047655310	5.490000E-01	  0.047655310	-1.489400E+01
140	  0.047855709	-1.720000E-01	  0.047855709	-1.473060E+02	  0.047855709	5.400000E-01	  0.047855709	-1.466300E+01
141	  0.048056111	-1.690000E-01	  0.048056111	-1.477990E+02	  0.048056111	5.270000E-01	  0.048056111	-1.443000E+01
142	  0.048256513	-1.690000E-01	  0.048256513	-1.482830E+02	  0.048256513	5.260000E-01	  0.048256513	-1.420100E+01
143	  0.048456915	-1.680000E-01	  0.048456915	-1.487640E+02	  0.048456915	5.240000E-01	  0.048456915	-1.397500E+01
144	  0.048657313	-1.660000E-01	  0.048657313	-1.492180E+02	  0.048657313	5.160000E-01	  0.048657313	-1.376200E+01
145	  0.048857715	-1.700000E-01	  0.048857715	-1.496720E+02	  0.048857715	5.250000E-01	  0.048857715	-1.354900E+01
146	  0.049058117	-1.750000E-01	  0.049058117	-1.501410E+02	  0.049058117	5.420000E-01	  0.049058117	-1.332900E+01
147	  0.049258515	-1.800000E-01	  0.049258515	-1.506150E+02	  0.049258515	5.540000E-01	  0.049258515	-1.310800E+01
148	  0.049458917	-1.850000E-01	  0.049458917	-1.511010E+02	  0.049458917	5.680000E-01	  0.049458917	-1.288200E+01
149	  0.049659319	-1.860000E-01	  0.049659319	-1.515890E+02	  0.049659319	5.700000E-01	  0.049659319	-1.265500E+01
150	  0.049859721	-1.850000E-01	  0.049859721	-1.520680E+02	  0.049859721	5.650000E-01	  0.049859721	-1.243300E+01
151	  0.050060119	-1.850000E-01	  0.050060119	-1.525220E+02	  0.050060119	5.660000E-01	  0.050060119	-1.222300E+01
152	  0.050260521	-1.890000E-01	  0.050260521	-1.529860E+02	  0.050260521	5.750000E-01	  0.050260521	-1.200800E+01
153	  0.050460923	-1.900000E-01	  0.050460923	-1.534560E+02	  0.050460923	5.800000E-01	  0.050460923	-1.179200E+01
154	  0.050661322	-1.920000E-01	  0.050661322	-1.539370E+02	  0.050661322	5.850000E-01	  0.050661322	-1.157000E+01
155	  0.050861724	-1.920000E-01	  0.050861724	-1.544430E+02	  0.050861724	5.830000E-01	  0.050861724	-1.133800E+01
156	  0.051062126	-1.910000E-01	  0.051062126	-1.549400E+02	  0.051062126	5.760000E-01	  0.051062126	-1.111000E+01
157	  0.051262524	-1.890000E-01	  0.051262524	-1.554120E+02	  0.051262524	5.720000E-01	  0.051262524	-1.089400E+01
158	  0.051462926	-1.900000E-01	  0.051462926	-1.558840E+02	  0.051462926	5.740000E-01	  0.051462926	-1.067900E+01
159	  0.051663328	-1.940000E-01	  0.051663328	-1.563380E+02	  0.051663328	5.830000E-01	  0.051663328	-1.047200E+01
160	  0.051863730	-1.990000E-01	  0.051863730	-1.568130E+02	  0.051863730	5.980000E-01	  0.051863730	-1.025500E+01
161	  0.052064128	-2.040000E-01	  0.052064128	-1.572910E+02	  0.052064128	6.100000E-01	  0.052064128	-1.003800E+01
162	  0.052264530	-2.080000E-01	  0.052264530	-1.577910E+02	  0.052264530	6.220000E-01	  0.052264530	-9.811000E+00
163	  0.052464932	-2.070000E-01	  0.052464932	-1.582990E+02	  0.052464932	6.190000E-01	  0.052464932	-9.582000E+00
164	  0.052665330	-2.070000E-01	  0.052665330	-1.587910E+02	  0.052665330	6.180000E-01	  0.052665330	-9.359000E+00
165	  0.052865732	-2.030000E-01	  0.052865732	-1.592800E+02	  0.052865732	6.050000E-01	  0.052865732	-9.139000E+00
166	  0.053066134	-1.990000E-01	  0.053066134	-1.597370E+02	  0.053066134	5.920000E-01	  0.053066134	-8.933000E+00
167	  0.053266536	-1.990000E-01	  0.053266536	-1.601910E+02	  0.053266536	5.900000E-01	  0.053266536	-8.729000E+00
168	  0.053466935	-1.980000E-01	  0.053466935	-1.606590E+02	  0.053466935	5.870000E-01	  0.053466935	-8.518000E+00
169	  0.053667337	-1.960000E-01	  0.053667337	-1.611010E+02	  0.053667337	5.790000E-01	  0.053667337	-8.320000E+00
170	  0.053867739	-1.960000E-01	  0.053867739	-1.615450E+02	  0.053867739	5.790000E-01	  0.053867739	-8.121000E+00
171	  0.054068137	-1.990000E-01	  0.054068137	-1.619760E+02	  0.054068137	5.890000E-01	  0.054068137	-7.928000E+00
172	  0.054268539	-2.030000E-01	  0.054268539	-1.624020E+02	  0.054268539	5.990000E-01	  0.054268539	-7.738000E+00
173	  0.054468941	-2.070000E-01	  0.054468941	-1.628490E+02	  0.054468941	6.110000E-01	  0.054468941	-7.538000E+00
174	  0.054669339	-2.080000E-01	  0.054669339	-1.633020E+02	  0.054669339	6.120000E-01	  0.054669339	-7.336000E+00
175	  0.054869737	-2.090000E-01	  0.054869737	-1.637520E+02	  0.054869737	6.150000E-01	  0.054869737	-7.136000E+00
176	  0.055070139	-2.090000E-01	  0.055070139	-1.641870E+02	  0.055070139	6.130000E-01	  0.055070139	-6.942000E+00
177	  0.055270538	-2.080000E-01	  0.055270538	-1.646170E+02	  0.055270538	6.100000E-01	  0.055270538	-6.751000E+00
178	  0.055470940	-2.120000E-01	  0.055470940	-1.650540E+02	  0.055470940	6.210000E-01	  0.055470940	-6.557000E+00
179	  0.055671342	-2.170000E-01	  0.055671342	-1.654960E+02	  0.055671342	6.360000E-01	  0.055671342	-6.361000E+00
180	  0.055871744	-2.190000E-01	  0.055871744	-1.659440E+02	  0.055871744	6.410000E-01	  0.055871744	-6.162000E+00
181	  0.056072142	-2.200000E-01	  0.056072142	-1.664310E+02	  0.056072142	6.450000E-01	  0.056072142	-5.947000E+00
182	  0.056272544	-2.190000E-01	  0.056272544	-1.668930E+02	  0.056272544	6.390000E-01	  0.056272544	-5.742000E+00
183	  0.056472946	-2.210000E-01	  0.056472946	-1.673630E+02	  0.056472946	6.450000E-01	  0.056472946	-5.535000E+00
184	  0.056673344	-2.210000E-01	  0.056673344	-1.678190E+02	  0.056673344	6.430000E-01	  0.056673344	-5.333000E+00
185	  0.056873746	-2.240000E-01	  0.056873746	-1.682800E+02	  0.056873746	6.520000E-01	  0.056873746	-5.130000E+00
186	  0.057074148	-2.250000E-01	  0.057074148	-1.687400E+02	  0.057074148	6.560000E-01	  0.057074148	-4.927000E+00
187	  0.057274550	-2.290000E-01	  0.057274550	-1.692050E+02	  0.057274550	6.670000E-01	  0.057274550	-4.722000E+00
188	  0.057474948	-2.300000E-01	  0.057474948	-1.696550E+02	  0.057474948	6.690000E-01	  0.057474948	-4.525000E+00
189	  0.057675350	-2.330000E-01	  0.057675350	-1.701240E+02	  0.057675350	6.780000E-01	  0.057675350	-4.318000E+00
190	  0.057875752	-2.320000E-01	  0.057875752	-1.705880E+02	  0.057875752	6.720000E-01	  0.057875752	-4.115000E+00
191	  0.058076151	-2.310000E-01	  0.058076151	-1.710580E+02	  0.058076151	6.710000E-01	  0.058076151	-3.908000E+00
192	  0.058276553	-2.290000E-01	  0.058276553	-1.715140E+02	  0.058276553	6.640000E-01	  0.058276553	-3.708000E+00
193	  0.058476955	-2.270000E-01	  0.058476955	-1.719580E+02	  0.058476955	6.560000E-01	  0.058476955	-3.513000E+00
194	  0.058677353	-2.270000E-01	  0.058677353	-1.723940E+02	  0.058677353	6.570000E-01	  0.058677353	-3.322000E+00
195	  0.058877755	-2.240000E-01	  0.058877755	-1.728360E+02	  0.058877755	6.480000E-01	  0.058877755	-3.129000E+00
196	  0.059078157	-2.250000E-01	  0.059078157	-1.732500E+02	  0.059078157	6.510000E-01	  0.059078157	-2.947000E+00
197	  0.059278559	-2.300000E-01	  0.059278559	-1.736850E+02	  0.059278559	6.650000E-01	  0.059278559	-2.757000E+00
198	  0.059478957	-2.310000E-01	  0.059478957	-1.741210E+02	  0.059478957	6.680000E-01	  0.059478957	-2.566000E+00
199	  0.059679359	-2.310000E-01	  0.059679359	-1.745460E+02	  0.059679359	6.680000E-01	  0.059679359	-2.381000E+00
200	  0.059879761	-2.330000E-01	  0.059879761	-1.749690E+02	  0.059879761	6.740000E-01	  0.059879761	-2.196000E+00
201	  0.060080159	-2.340000E-01	  0.060080159	-1.753940E+02	  0.060080159	6.740000E-01	  0.060080159	-2.010000E+00
202	  0.060280561	-2.330000E-01	  0.060280561	-1.758170E+02	  0.060280561	6.740000E-01	  0.060280561	-1.825000E+00
203	  0.060480963	-2.340000E-01	  0.060480963	-1.762410E+02	  0.060480963	6.740000E-01	  0.060480963	-1.640000E+00
204	  0.060681365	-2.390000E-01	  0.060681365	-1.766630E+02	  0.060681365	6.890000E-01	  0.060681365	-1.455000E+00
205	  0.060881764	-2.410000E-01	  0.060881764	-1.771090E+02	  0.060881764	6.940000E-01	  0.060881764	-1.261000E+00
206	  0.061082166	-2.430000E-01	  0.061082166	-1.775490E+02	  0.061082166	7.020000E-01	  0.061082166	-1.069000E+00
207	  0.061282568	-2.450000E-01	  0.061282568	-1.779930E+02	  0.061282568	7.050000E-01	  0.061282568	-8.750000E-01
208	  0.061482966	-2.460000E-01	  0.061482966	-1.784590E+02	  0.061482966	7.090000E-01	  0.061482966	-6.720000E-01
209	  0.061683368	-2.460000E-01	  0.061683368	-1.788980E+02	  0.061683368	7.090000E-01	  0.061683368	-4.800000E-01
210	  0.061883770	-2.480000E-01	  0.061883770	-1.793550E+02	  0.061883770	7.140000E-01	  0.061883770	-2.810000E-01
211	  0.062084168	-2.490000E-01	  0.062084168	-1.798110E+02	  0.062084168	7.170000E-01	  0.062084168	-8.200000E-02
212	  0.062284570	-2.510000E-01	  0.062284570	1.797400E+02	  0.062284570	7.220000E-01	  0.062284570	1.130000E-01
213	  0.062484972	-2.490000E-01	  0.062484972	1.793070E+02	  0.062484972	7.180000E-01	  0.062484972	3.020000E-01
214	  0.062685370	-2.500000E-01	  0.062685370	1.788700E+02	  0.062685370	7.190000E-01	  0.062685370	4.920000E-01
215	  0.062885776	-2.530000E-01	  0.062885776	1.784290E+02	  0.062885776	7.280000E-01	  0.062885776	6.850000E-01
216	  0.063086174	-2.550000E-01	  0.063086174	1.779790E+02	  0.063086174	7.340000E-01	  0.063086174	8.810000E-01
217	  0.063286573	-2.510000E-01	  0.063286573	1.775450E+02	  0.063286573	7.230000E-01	  0.063286573	1.070000E+00
218	  0.063486971	-2.470000E-01	  0.063486971	1.771180E+02	  0.063486971	7.130000E-01	  0.063486971	1.257000E+00
219	  0.063687377	-2.450000E-01	  0.063687377	1.766930E+02	  0.063687377	7.050000E-01	  0.063687377	1.442000E+00
220	  0.063887775	-2.430000E-01	  0.063887775	1.762730E+02	  0.063887775	7.010000E-01	  0.063887775	1.626000E+00
221	  0.064088173	-2.450000E-01	  0.064088173	1.758860E+02	  0.064088173	7.070000E-01	  0.064088173	1.795000E+00
222	  0.064288579	-2.440000E-01	  0.064288579	1.754660E+02	  0.064288579	7.050000E-01	  0.064288579	1.978000E+00
223	  0.064488977	-2.480000E-01	  0.064488977	1.750530E+02	  0.064488977	7.170000E-01	  0.064488977	2.159000E+00
224	  0.064689375	-2.460000E-01	  0.064689375	1.746510E+02	  0.064689375	7.110000E-01	  0.064689375	2.334000E+00
225	  0.064889781	-2.470000E-01	  0.064889781	1.742510E+02	  0.064889781	7.140000E-01	  0.064889781	2.509000E+00
226	  0.065090179	-2.480000E-01	  0.065090179	1.738690E+02	  0.065090179	7.170000E-01	  0.065090179	2.676000E+00
227	  0.065290578	-2.490000E-01	  0.065290578	1.734660E+02	  0.065290578	7.210000E-01	  0.065290578	2.853000E+00
228	  0.065490983	-2.490000E-01	  0.065490983	1.730890E+02	  0.065490983	7.210000E-01	  0.065490983	3.018000E+00
229	  0.065691382	-2.520000E-01	  0.065691382	1.727000E+02	  0.065691382	7.300000E-01	  0.065691382	3.188000E+00
230	  0.065891780	-2.560000E-01	  0.065891780	1.722920E+02	  0.065891780	7.410000E-01	  0.065891780	3.367000E+00
231	  0.066092186	-2.530000E-01	  0.066092186	1.718770E+02	  0.066092186	7.320000E-01	  0.066092186	3.549000E+00
232	  0.066292584	-2.550000E-01	  0.066292584	1.714720E+02	  0.066292584	7.400000E-01	  0.066292584	3.726000E+00
233	  0.066492982	-2.590000E-01	  0.066492982	1.710530E+02	  0.066492982	7.510000E-01	  0.066492982	3.910000E+00
234	  0.066693388	-2.630000E-01	  0.066693388	1.706320E+02	  0.066693388	7.620000E-01	  0.066693388	4.095000E+00
235	  0.066893786	-2.600000E-01	  0.066893786	1.702080E+02	  0.066893786	7.560000E-01	  0.066893786	4.281000E+00
236	  0.067094192	-2.660000E-01	  0.067094192	1.697600E+02	  0.067094192	7.740000E-01	  0.067094192	4.478000E+00
237	  0.067294590	-2.670000E-01	  0.067294590	1.693370E+02	  0.067294590	7.760000E-01	  0.067294590	4.664000E+00
238	  0.067494988	-2.690000E-01	  0.067494988	1.689180E+02	  0.067494988	7.830000E-01	  0.067494988	4.849000E+00
239	  0.067695394	-2.710000E-01	  0.067695394	1.684800E+02	  0.067695394	7.900000E-01	  0.067695394	5.041000E+00
240	  0.067895792	-2.700000E-01	  0.067895792	1.680390E+02	  0.067895792	7.850000E-01	  0.067895792	5.236000E+00
241	  0.068096191	-2.700000E-01	  0.068096191	1.675970E+02	  0.068096191	7.880000E-01	  0.068096191	5.431000E+00
242	  0.068296596	-2.740000E-01	  0.068296596	1.671790E+02	  0.068296596	7.980000E-01	  0.068296596	5.616000E+00
243	  0.068496995	-2.710000E-01	  0.068496995	1.667560E+02	  0.068496995	7.910000E-01	  0.068496995	5.802000E+00
244	  0.068697393	-2.670000E-01	  0.068697393	1.663390E+02	  0.068697393	7.800000E-01	  0.068697393	5.987000E+00
245	  0.068897791	-2.650000E-01	  0.068897791	1.659490E+02	  0.068897791	7.770000E-01	  0.068897791	6.160000E+00
246	  0.069098189	-2.650000E-01	  0.069098189	1.655360E+02	  0.069098189	7.750000E-01	  0.069098189	6.343000E+00
247	  0.069298595	-2.630000E-01	  0.069298595	1.651610E+02	  0.069298595	7.710000E-01	  0.069298595	6.509000E+00
248	  0.069498993	-2.660000E-01	  0.069498993	1.647690E+02	  0.069498993	7.800000E-01	  0.069498993	6.683000E+00
249	  0.069699399	-2.680000E-01	  0.069699399	1.643430E+02	  0.069699399	7.860000E-01	  0.069699399	6.872000E+00
250	  0.069899797	-2.680000E-01	  0.069899797	1.639440E+02	  0.069899797	7.870000E-01	  0.069899797	7.049000E+00
251	  0.070100196	-2.690000E-01	  0.070100196	1.635810E+02	  0.070100196	7.930000E-01	  0.070100196	7.211000E+00
252	  0.070300601	-2.710000E-01	  0.070300601	1.631920E+02	  0.070300601	7.980000E-01	  0.070300601	7.384000E+00
253	  0.070501000	-2.670000E-01	  0.070501000	1.628090E+02	  0.070501000	7.880000E-01	  0.070501000	7.555000E+00
254	  0.070701398	-2.690000E-01	  0.070701398	1.624570E+02	  0.070701398	7.930000E-01	  0.070701398	7.712000E+00
255	  0.070901804	-2.720000E-01	  0.070901804	1.620710E+02	  0.070901804	8.030000E-01	  0.070901804	7.885000E+00
256	  0.071102202	-2.700000E-01	  0.071102202	1.617000E+02	  0.071102202	7.980000E-01	  0.071102202	8.051000E+00
257	  0.071302600	-2.690000E-01	  0.071302600	1.613050E+02	  0.071302600	7.950000E-01	  0.071302600	8.228000E+00
258	  0.071503006	-2.730000E-01	  0.071503006	1.609170E+02	  0.071503006	8.090000E-01	  0.071503006	8.402000E+00
259	  0.071703404	-2.730000E-01	  0.071703404	1.605250E+02	  0.071703404	8.110000E-01	  0.071703404	8.577000E+00
260	  0.071903802	-2.750000E-01	  0.071903802	1.601400E+02	  0.071903802	8.160000E-01	  0.071903802	8.751000E+00
261	  0.072104208	-2.810000E-01	  0.072104208	1.597240E+02	  0.072104208	8.340000E-01	  0.072104208	8.937000E+00
262	  0.072304606	-2.800000E-01	  0.072304606	1.593310E+02	  0.072304606	8.340000E-01	  0.072304606	9.115000E+00
263	  0.072505005	-2.820000E-01	  0.072505005	1.589220E+02	  0.072505005	8.410000E-01	  0.072505005	9.299000E+00
264	  0.072705410	-2.830000E-01	  0.072705410	1.585270E+02	  0.072705410	8.460000E-01	  0.072705410	9.477000E+00
265	  0.072905809	-2.870000E-01	  0.072905809	1.581120E+02	  0.072905809	8.580000E-01	  0.072905809	9.665000E+00
266	  0.073106214	-2.900000E-01	  0.073106214	1.577040E+02	  0.073106214	8.690000E-01	  0.073106214	9.849000E+00
267	  0.073306613	-2.920000E-01	  0.073306613	1.573040E+02	  0.073306613	8.740000E-01	  0.073306613	1.003100E+01
268	  0.073507011	-2.910000E-01	  0.073507011	1.568690E+02	  0.073507011	8.740000E-01	  0.073507011	1.022800E+01
269	  0.073707417	-2.860000E-01	  0.073707417	1.564300E+02	  0.073707417	8.600000E-01	  0.073707417	1.042800E+01
270	  0.073907815	-2.870000E-01	  0.073907815	1.560720E+02	  0.073907815	8.650000E-01	  0.073907815	1.059100E+01
271	  0.074108213	-2.830000E-01	  0.074108213	1.556900E+02	  0.074108213	8.530000E-01	  0.074108213	1.076500E+01
272	  0.074308619	-2.860000E-01	  0.074308619	1.553120E+02	  0.074308619	8.640000E-01	  0.074308619	1.093800E+01
273	  0.074509017	-2.830000E-01	  0.074509017	1.549330E+02	  0.074509017	8.570000E-01	  0.074509017	1.111200E+01
274	  0.074709415	-2.860000E-01	  0.074709415	1.545320E+02	  0.074709415	8.660000E-01	  0.074709415	1.129500E+01
275	  0.074909821	-2.880000E-01	  0.074909821	1.541300E+02	  0.074909821	8.730000E-01	  0.074909821	1.147900E+01
276	  0.075110219	-2.900000E-01	  0.075110219	1.537440E+02	  0.075110219	8.800000E-01	  0.075110219	1.165700E+01
277	  0.075310618	-2.890000E-01	  0.075310618	1.533710E+02	  0.075310618	8.810000E-01	  0.075310618	1.182900E+01
278	  0.075511023	-2.910000E-01	  0.075511023	1.530050E+02	  0.075511023	8.860000E-01	  0.075511023	1.199700E+01
279	  0.075711422	-2.930000E-01	  0.075711422	1.526450E+02	  0.075711422	8.940000E-01	  0.075711422	1.216400E+01
280	  0.075911827	-2.970000E-01	  0.075911827	1.522650E+02	  0.075911827	9.070000E-01	  0.075911827	1.233900E+01
281	  0.076112226	-2.930000E-01	  0.076112226	1.518670E+02	  0.076112226	8.980000E-01	  0.076112226	1.252300E+01
282	  0.076312624	-2.920000E-01	  0.076312624	1.514890E+02	  0.076312624	8.960000E-01	  0.076312624	1.269900E+01
283	  0.076513030	-2.910000E-01	  0.076513030	1.511210E+02	  0.076513030	8.930000E-01	  0.076513030	1.287000E+01
284	  0.076713428	-2.920000E-01	  0.076713428	1.507510E+02	  0.076713428	9.000000E-01	  0.076713428	1.304200E+01
285	  0.076913826	-2.920000E-01	  0.076913826	1.503380E+02	  0.076913826	9.020000E-01	  0.076913826	1.323500E+01
286	  0.077114232	-2.890000E-01	  0.077114232	1.499790E+02	  0.077114232	8.930000E-01	  0.077114232	1.340300E+01
287	  0.077314630	-2.920000E-01	  0.077314630	1.495810E+02	  0.077314630	9.030000E-01	  0.077314630	1.358900E+01
288	  0.077515028	-2.940000E-01	  0.077515028	1.492230E+02	  0.077515028	9.110000E-01	  0.077515028	1.375700E+01
289	  0.077715434	-2.930000E-01	  0.077715434	1.488340E+02	  0.077715434	9.090000E-01	  0.077715434	1.393900E+01
290	  0.077915832	-2.960000E-01	  0.077915832	1.484690E+02	  0.077915832	9.200000E-01	  0.077915832	1.411100E+01
291	  0.078116231	-3.000000E-01	  0.078116231	1.480980E+02	  0.078116231	9.340000E-01	  0.078116231	1.428600E+01
292	  0.078316636	-3.010000E-01	  0.078316636	1.476930E+02	  0.078316636	9.410000E-01	  0.078316636	1.447700E+01
293	  0.078517035	-3.030000E-01	  0.078517035	1.473060E+02	  0.078517035	9.490000E-01	  0.078517035	1.466000E+01
294	  0.078717433	-3.010000E-01	  0.078717433	1.469000E+02	  0.078717433	9.420000E-01	  0.078717433	1.485300E+01
295	  0.078917839	-2.990000E-01	  0.078917839	1.465060E+02	  0.078917839	9.410000E-01	  0.078917839	1.504000E+01
296	  0.079118237	-2.950000E-01	  0.079118237	1.461670E+02	  0.079118237	9.270000E-01	  0.079118237	1.520100E+01
297	  0.079318643	-2.950000E-01	  0.079318643	1.458050E+02	  0.079318643	9.290000E-01	  0.079318643	1.537400E+01
298	  0.079519041	-2.920000E-01	  0.079519041	1.454540E+02	  0.079519041	9.240000E-01	  0.079519041	1.554200E+01
299	  0.079719439	-2.960000E-01	  0.079719439	1.451040E+02	  0.079719439	9.370000E-01	  0.079719439	1.570900E+01
300	  0.079919845	-2.970000E-01	  0.079919845	1.447310E+02	  0.079919845	9.420000E-01	  0.079919845	1.588800E+01
301	  0.080120243	-3.000000E-01	  0.080120243	1.443460E+02	  0.080120243	9.530000E-01	  0.080120243	1.607300E+01
302	  0.080320641	-3.010000E-01	  0.080320641	1.439690E+02	  0.080320641	9.600000E-01	  0.080320641	1.625500E+01
303	  0.080521047	-3.050000E-01	  0.080521047	1.436150E+02	  0.080521047	9.720000E-01	  0.080521047	1.642600E+01
304	  0.080721445	-3.080000E-01	  0.080721445	1.432590E+02	  0.080721445	9.850000E-01	  0.080721445	1.659800E+01
305	  0.080921844	-3.140000E-01	  0.080921844	1.429060E+02	  0.080921844	1.006000E+00	  0.080921844	1.676800E+01
306	  0.081122249	-3.130000E-01	  0.081122249	1.425280E+02	  0.081122249	1.005000E+00	  0.081122249	1.695200E+01
307	  0.081322648	-3.110000E-01	  0.081322648	1.421640E+02	  0.081322648	1.002000E+00	  0.081322648	1.712900E+01
308	  0.081523046	-3.110000E-01	  0.081523046	1.417830E+02	  0.081523046	1.004000E+00	  0.081523046	1.731500E+01
309	  0.081723452	-3.100000E-01	  0.081723452	1.413810E+02	  0.081723452	1.002000E+00	  0.081723452	1.751200E+01
310	  0.081923850	-3.140000E-01	  0.081923850	1.410120E+02	  0.081923850	1.020000E+00	  0.081923850	1.769300E+01
311	  0.082124248	-3.110000E-01	  0.082124248	1.406320E+02	  0.082124248	1.011000E+00	  0.082124248	1.788000E+01
312	  0.082324654	-3.140000E-01	  0.082324654	1.402580E+02	  0.082324654	1.023000E+00	  0.082324654	1.806400E+01
313	  0.082525052	-3.080000E-01	  0.082525052	1.398810E+02	  0.082525052	1.004000E+00	  0.082525052	1.825000E+01
314	  0.082725458	-3.090000E-01	  0.082725458	1.394990E+02	  0.082725458	1.011000E+00	  0.082725458	1.843900E+01
315	  0.082925856	-3.070000E-01	  0.082925856	1.391660E+02	  0.082925856	1.007000E+00	  0.082925856	1.860400E+01
316	  0.083126254	-3.140000E-01	  0.083126254	1.388060E+02	  0.083126254	1.032000E+00	  0.083126254	1.878300E+01
317	  0.083326660	-3.140000E-01	  0.083326660	1.384380E+02	  0.083326660	1.036000E+00	  0.083326660	1.896600E+01
318	  0.083527058	-3.150000E-01	  0.083527058	1.380530E+02	  0.083527058	1.042000E+00	  0.083527058	1.915900E+01
319	  0.083727457	-3.200000E-01	  0.083727457	1.376680E+02	  0.083727457	1.059000E+00	  0.083727457	1.935100E+01
320	  0.083927862	-3.140000E-01	  0.083927862	1.372600E+02	  0.083927862	1.044000E+00	  0.083927862	1.955600E+01
321	  0.084128261	-3.130000E-01	  0.084128261	1.369010E+02	  0.084128261	1.044000E+00	  0.084128261	1.973700E+01
322	  0.084328659	-3.090000E-01	  0.084328659	1.365500E+02	  0.084328659	1.030000E+00	  0.084328659	1.991500E+01
323	  0.084529065	-3.090000E-01	  0.084529065	1.362250E+02	  0.084529065	1.034000E+00	  0.084529065	2.007900E+01
324	  0.084729463	-3.070000E-01	  0.084729463	1.358610E+02	  0.084729463	1.028000E+00	  0.084729463	2.026400E+01
325	  0.084929861	-3.070000E-01	  0.084929861	1.355120E+02	  0.084929861	1.031000E+00	  0.084929861	2.044100E+01
326	  0.085130267	-3.080000E-01	  0.085130267	1.351680E+02	  0.085130267	1.038000E+00	  0.085130267	2.061600E+01
327	  0.085330658	-3.080000E-01	  0.085330658	1.348300E+02	  0.085330658	1.042000E+00	  0.085330658	2.078900E+01
328	  0.085531056	-3.110000E-01	  0.085531056	1.344740E+02	  0.085531056	1.053000E+00	  0.085531056	2.097200E+01
329	  0.085731462	-3.140000E-01	  0.085731462	1.341240E+02	  0.085731462	1.068000E+00	  0.085731462	2.115100E+01
330	  0.085931860	-3.150000E-01	  0.085931860	1.338100E+02	  0.085931860	1.073000E+00	  0.085931860	2.131300E+01
331	  0.086132258	-3.200000E-01	  0.086132258	1.334510E+02	  0.086132258	1.091000E+00	  0.086132258	2.149800E+01
332	  0.086332664	-3.200000E-01	  0.086332664	1.330980E+02	  0.086332664	1.096000E+00	  0.086332664	2.168000E+01
333	  0.086533062	-3.180000E-01	  0.086533062	1.327380E+02	  0.086533062	1.091000E+00	  0.086533062	2.186700E+01
334	  0.086733460	-3.170000E-01	  0.086733460	1.323830E+02	  0.086733460	1.090000E+00	  0.086733460	2.205200E+01
335	  0.086933866	-3.170000E-01	  0.086933866	1.319980E+02	  0.086933866	1.094000E+00	  0.086933866	2.225300E+01
336	  0.087134264	-3.210000E-01	  0.087134264	1.316380E+02	  0.087134264	1.113000E+00	  0.087134264	2.244100E+01
337	  0.087334670	-3.200000E-01	  0.087334670	1.312820E+02	  0.087334670	1.110000E+00	  0.087334670	2.262800E+01
338	  0.087535068	-3.170000E-01	  0.087535068	1.308990E+02	  0.087535068	1.105000E+00	  0.087535068	2.283000E+01
339	  0.087735467	-3.160000E-01	  0.087735467	1.305210E+02	  0.087735467	1.105000E+00	  0.087735467	2.302900E+01
340	  0.087935872	-3.120000E-01	  0.087935872	1.301820E+02	  0.087935872	1.094000E+00	  0.087935872	2.320900E+01
341	  0.088136271	-3.120000E-01	  0.088136271	1.298080E+02	  0.088136271	1.096000E+00	  0.088136271	2.340800E+01
342	  0.088336669	-3.140000E-01	  0.088336669	1.294880E+02	  0.088336669	1.106000E+00	  0.088336669	2.357800E+01
343	  0.088537075	-3.170000E-01	  0.088537075	1.291650E+02	  0.088537075	1.119000E+00	  0.088537075	2.375000E+01
344	  0.088737473	-3.180000E-01	  0.088737473	1.287610E+02	  0.088737473	1.126000E+00	  0.088737473	2.396600E+01
345	  0.088937871	-3.210000E-01	  0.088937871	1.284110E+02	  0.088937871	1.142000E+00	  0.088937871	2.415400E+01
346	  0.089138277	-3.200000E-01	  0.089138277	1.280300E+02	  0.089138277	1.140000E+00	  0.089138277	2.435900E+01
347	  0.089338675	-3.200000E-01	  0.089338675	1.276810E+02	  0.089338675	1.145000E+00	  0.089338675	2.454800E+01
348	  0.089539073	-3.130000E-01	  0.089539073	1.273330E+02	  0.089539073	1.122000E+00	  0.089539073	2.473700E+01
349	  0.089739479	-3.160000E-01	  0.089739479	1.269990E+02	  0.089739479	1.135000E+00	  0.089739479	2.491900E+01
350	  0.089939877	-3.130000E-01	  0.089939877	1.266590E+02	  0.089939877	1.130000E+00	  0.089939877	2.510400E+01
351	  0.090140276	-3.170000E-01	  0.090140276	1.263160E+02	  0.090140276	1.147000E+00	  0.090140276	2.529100E+01
352	  0.090340681	-3.150000E-01	  0.090340681	1.259980E+02	  0.090340681	1.144000E+00	  0.090340681	2.546600E+01
353	  0.090541080	-3.100000E-01	  0.090541080	1.256710E+02	  0.090541080	1.128000E+00	  0.090541080	2.564600E+01
354	  0.090741485	-3.160000E-01	  0.090741485	1.253540E+02	  0.090741485	1.153000E+00	  0.090741485	2.582100E+01
355	  0.090941884	-3.140000E-01	  0.090941884	1.250260E+02	  0.090941884	1.151000E+00	  0.090941884	2.600200E+01
356	  0.091142282	-3.190000E-01	  0.091142282	1.247080E+02	  0.091142282	1.173000E+00	  0.091142282	2.617800E+01
357	  0.091342688	-3.210000E-01	  0.091342688	1.243640E+02	  0.091342688	1.183000E+00	  0.091342688	2.637000E+01
358	  0.091543086	-3.240000E-01	  0.091543086	1.240400E+02	  0.091543086	1.197000E+00	  0.091543086	2.655000E+01
359	  0.091743484	-3.250000E-01	  0.091743484	1.236980E+02	  0.091743484	1.203000E+00	  0.091743484	2.674200E+01
360	  0.091943890	-3.260000E-01	  0.091943890	1.233300E+02	  0.091943890	1.213000E+00	  0.091943890	2.694900E+01
361	  0.092144288	-3.270000E-01	  0.092144288	1.229830E+02	  0.092144288	1.221000E+00	  0.092144288	2.714400E+01
362	  0.092344686	-3.280000E-01	  0.092344686	1.226040E+02	  0.092344686	1.229000E+00	  0.092344686	2.735800E+01
363	  0.092545092	-3.330000E-01	  0.092545092	1.222550E+02	  0.092545092	1.251000E+00	  0.092545092	2.755600E+01
364	  0.092745490	-3.290000E-01	  0.092745490	1.218710E+02	  0.092745490	1.242000E+00	  0.092745490	2.777500E+01
365	  0.092945889	-3.300000E-01	  0.092945889	1.215190E+02	  0.092945889	1.249000E+00	  0.092945889	2.797600E+01
366	  0.093146294	-3.260000E-01	  0.093146294	1.211650E+02	  0.093146294	1.237000E+00	  0.093146294	2.818000E+01
367	  0.093346693	-3.260000E-01	  0.093346693	1.208060E+02	  0.093346693	1.244000E+00	  0.093346693	2.838700E+01
368	  0.093547091	-3.260000E-01	  0.093547091	1.204600E+02	  0.093547091	1.247000E+00	  0.093547091	2.858600E+01
369	  0.093747497	-3.300000E-01	  0.093747497	1.201260E+02	  0.093747497	1.266000E+00	  0.093747497	2.878000E+01
370	  0.093947895	-3.280000E-01	  0.093947895	1.197420E+02	  0.093947895	1.264000E+00	  0.093947895	2.900300E+01
371	  0.094148301	-3.310000E-01	  0.094148301	1.193940E+02	  0.094148301	1.279000E+00	  0.094148301	2.920600E+01
372	  0.094348699	-3.270000E-01	  0.094348699	1.190410E+02	  0.094348699	1.268000E+00	  0.094348699	2.941300E+01
373	  0.094549097	-3.290000E-01	  0.094549097	1.186820E+02	  0.094549097	1.282000E+00	  0.094549097	2.962400E+01
374	  0.094749503	-3.240000E-01	  0.094749503	1.183180E+02	  0.094749503	1.265000E+00	  0.094749503	2.983900E+01
375	  0.094949901	-3.270000E-01	  0.094949901	1.179750E+02	  0.094949901	1.282000E+00	  0.094949901	3.004300E+01
376	  0.095150299	-3.240000E-01	  0.095150299	1.176330E+02	  0.095150299	1.276000E+00	  0.095150299	3.024600E+01
377	  0.095350705	-3.210000E-01	  0.095350705	1.173170E+02	  0.095350705	1.269000E+00	  0.095350705	3.043500E+01
378	  0.095551103	-3.200000E-01	  0.095551103	1.169530E+02	  0.095551103	1.270000E+00	  0.095551103	3.065300E+01
379	  0.095751502	-3.150000E-01	  0.095751502	1.166710E+02	  0.095751502	1.251000E+00	  0.095751502	3.082300E+01
380	  0.095951907	-3.170000E-01	  0.095951907	1.163550E+02	  0.095951907	1.265000E+00	  0.095951907	3.101300E+01
381	  0.096152306	-3.180000E-01	  0.096152306	1.160520E+02	  0.096152306	1.274000E+00	  0.096152306	3.119700E+01
382	  0.096352704	-3.220000E-01	  0.096352704	1.157410E+02	  0.096352704	1.295000E+00	  0.096352704	3.138500E+01
383	  0.096553110	-3.240000E-01	  0.096553110	1.154400E+02	  0.096553110	1.304000E+00	  0.096553110	3.156800E+01
384	  0.096753508	-3.270000E-01	  0.096753508	1.151250E+02	  0.096753508	1.322000E+00	  0.096753508	3.176000E+01
385	  0.096953906	-3.260000E-01	  0.096953906	1.147930E+02	  0.096953906	1.322000E+00	  0.096953906	3.196400E+01
386	  0.097154312	-3.280000E-01	  0.097154312	1.144670E+02	  0.097154312	1.335000E+00	  0.097154312	3.216400E+01
387	  0.097354710	-3.270000E-01	  0.097354710	1.141290E+02	  0.097354710	1.335000E+00	  0.097354710	3.237400E+01
388	  0.097555116	-3.320000E-01	  0.097555116	1.138030E+02	  0.097555116	1.361000E+00	  0.097555116	3.257500E+01
389	  0.097755514	-3.340000E-01	  0.097755514	1.134520E+02	  0.097755514	1.378000E+00	  0.097755514	3.279300E+01
390	  0.097955912	-3.330000E-01	  0.097955912	1.131150E+02	  0.097955912	1.378000E+00	  0.097955912	3.300400E+01
391	  0.098156318	-3.310000E-01	  0.098156318	1.127760E+02	  0.098156318	1.376000E+00	  0.098156318	3.321700E+01
392	  0.098356716	-3.300000E-01	  0.098356716	1.124350E+02	  0.098356716	1.378000E+00	  0.098356716	3.343100E+01
393	  0.098557115	-3.310000E-01	  0.098557115	1.120990E+02	  0.098557115	1.385000E+00	  0.098557115	3.364400E+01
394	  0.098757520	-3.340000E-01	  0.098757520	1.117650E+02	  0.098757520	1.402000E+00	  0.098757520	3.385600E+01
395	  0.098957919	-3.340000E-01	  0.098957919	1.114130E+02	  0.098957919	1.409000E+00	  0.098957919	3.408000E+01
396	  0.099158317	-3.360000E-01	  0.099158317	1.110590E+02	  0.099158317	1.423000E+00	  0.099158317	3.430600E+01
397	  0.099358723	-3.350000E-01	  0.099358723	1.107350E+02	  0.099358723	1.426000E+00	  0.099358723	3.451400E+01
398	  0.099559121	-3.330000E-01	  0.099559121	1.103740E+02	  0.099559121	1.425000E+00	  0.099559121	3.474800E+01
399	  0.099759519	-3.330000E-01	  0.099759519	1.100500E+02	  0.099759519	1.428000E+00	  0.099759519	3.495800E+01
400	  0.099959925	-3.360000E-01	  0.099959925	1.097360E+02	  0.099959925	1.448000E+00	  0.099959925	3.516200E+01
401	  0.100160323	-3.350000E-01	  0.100160323	1.093700E+02	  0.100160323	1.448000E+00	  0.100160323	3.540100E+01
402	  0.100360721	-3.330000E-01	  0.100360721	1.090890E+02	  0.100360721	1.445000E+00	  0.100360721	3.558600E+01
403	  0.100561127	-3.340000E-01	  0.100561127	1.087000E+02	  0.100561127	1.456000E+00	  0.100561127	3.584200E+01
404	  0.100761525	-3.290000E-01	  0.100761525	1.084040E+02	  0.100761525	1.440000E+00	  0.100761525	3.603800E+01
405	  0.100961931	-3.230000E-01	  0.100961931	1.080310E+02	  0.100961931	1.419000E+00	  0.100961931	3.628600E+01
406	  0.101162329	-3.280000E-01	  0.101162329	1.077610E+02	  0.101162329	1.447000E+00	  0.101162329	3.646600E+01
407	  0.101362728	-3.270000E-01	  0.101362728	1.074420E+02	  0.101362728	1.451000E+00	  0.101362728	3.667900E+01
408	  0.101563133	-3.260000E-01	  0.101563133	1.071430E+02	  0.101563133	1.452000E+00	  0.101563133	3.688100E+01
409	  0.101763532	-3.340000E-01	  0.101763532	1.068340E+02	  0.101763532	1.490000E+00	  0.101763532	3.708800E+01
410	  0.101963930	-3.270000E-01	  0.101963930	1.065380E+02	  0.101963930	1.467000E+00	  0.101963930	3.728900E+01
411	  0.102164336	-3.340000E-01	  0.102164336	1.062260E+02	  0.102164336	1.502000E+00	  0.102164336	3.750100E+01
412	  0.102364734	-3.260000E-01	  0.102364734	1.058740E+02	  0.102364734	1.477000E+00	  0.102364734	3.774200E+01
413	  0.102565132	-3.310000E-01	  0.102565132	1.055590E+02	  0.102565132	1.505000E+00	  0.102565132	3.795800E+01
414	  0.102765530	-3.360000E-01	  0.102765530	1.052120E+02	  0.102765530	1.534000E+00	  0.102765530	3.819600E+01
415	  0.102965929	-3.360000E-01	  0.102965929	1.048760E+02	  0.102965929	1.541000E+00	  0.102965929	3.842900E+01
416	  0.103166327	-3.340000E-01	  0.103166327	1.045460E+02	  0.103166327	1.540000E+00	  0.103166327	3.865800E+01
417	  0.103366733	-3.320000E-01	  0.103366733	1.042240E+02	  0.103366733	1.534000E+00	  0.103366733	3.888300E+01
418	  0.103567131	-3.260000E-01	  0.103567131	1.038630E+02	  0.103567131	1.515000E+00	  0.103567131	3.913800E+01
419	  0.103767529	-3.330000E-01	  0.103767529	1.035410E+02	  0.103767529	1.555000E+00	  0.103767529	3.936300E+01
420	  0.103967935	-3.350000E-01	  0.103967935	1.032210E+02	  0.103967935	1.569000E+00	  0.103967935	3.959000E+01
421	  0.104168333	-3.320000E-01	  0.104168333	1.028770E+02	  0.104168333	1.565000E+00	  0.104168333	3.983500E+01
422	  0.104368731	-3.330000E-01	  0.104368731	1.025480E+02	  0.104368731	1.575000E+00	  0.104368731	4.007000E+01
423	  0.104569137	-3.260000E-01	  0.104569137	1.022370E+02	  0.104569137	1.550000E+00	  0.104569137	4.029400E+01
424	  0.104769535	-3.340000E-01	  0.104769535	1.018810E+02	  0.104769535	1.596000E+00	  0.104769535	4.054900E+01
425	  0.104969934	-3.220000E-01	  0.104969934	1.015970E+02	  0.104969934	1.545000E+00	  0.104969934	4.075700E+01
426	  0.105170339	-3.300000E-01	  0.105170339	1.012760E+02	  0.105170339	1.591000E+00	  0.105170339	4.098900E+01
427	  0.105370738	-3.270000E-01	  0.105370738	1.009690E+02	  0.105370738	1.582000E+00	  0.105370738	4.121400E+01
428	  0.105571143	-3.350000E-01	  0.105571143	1.006170E+02	  0.105571143	1.628000E+00	  0.105571143	4.147200E+01
429	  0.105771542	-3.320000E-01	  0.105771542	1.003500E+02	  0.105771542	1.620000E+00	  0.105771542	4.166900E+01
430	  0.105971940	-3.290000E-01	  0.105971940	1.000280E+02	  0.105971940	1.615000E+00	  0.105971940	4.190700E+01
431	  0.106172346	-3.290000E-01	  0.106172346	9.968400E+01	  0.106172346	1.624000E+00	  0.106172346	4.216400E+01
432	  0.106372744	-3.280000E-01	  0.106372744	9.939500E+01	  0.106372744	1.622000E+00	  0.106372744	4.238000E+01
433	  0.106573142	-3.280000E-01	  0.106573142	9.906300E+01	  0.106573142	1.632000E+00	  0.106573142	4.262900E+01
434	  0.106773548	-3.260000E-01	  0.106773548	9.882200E+01	  0.106773548	1.629000E+00	  0.106773548	4.281100E+01
435	  0.106973946	-3.280000E-01	  0.106973946	9.853900E+01	  0.106973946	1.647000E+00	  0.106973946	4.302500E+01
436	  0.107174344	-3.300000E-01	  0.107174344	9.823300E+01	  0.107174344	1.661000E+00	  0.107174344	4.325800E+01
437	  0.107374750	-3.260000E-01	  0.107374750	9.794200E+01	  0.107374750	1.651000E+00	  0.107374750	4.348100E+01
438	  0.107575148	-3.290000E-01	  0.107575148	9.765800E+01	  0.107575148	1.671000E+00	  0.107575148	4.369800E+01
439	  0.107775547	-3.280000E-01	  0.107775547	9.733500E+01	  0.107775547	1.674000E+00	  0.107775547	4.394700E+01
440	  0.107975952	-3.320000E-01	  0.107975952	9.700000E+01	  0.107975952	1.705000E+00	  0.107975952	4.420600E+01
441	  0.108176351	-3.350000E-01	  0.108176351	9.667600E+01	  0.108176351	1.729000E+00	  0.108176351	4.445800E+01
442	  0.108376749	-3.360000E-01	  0.108376749	9.636800E+01	  0.108376749	1.741000E+00	  0.108376749	4.470000E+01
443	  0.108577155	-3.360000E-01	  0.108577155	9.603500E+01	  0.108577155	1.750000E+00	  0.108577155	4.496100E+01
444	  0.108777553	-3.290000E-01	  0.108777553	9.572000E+01	  0.108777553	1.723000E+00	  0.108777553	4.521200E+01
445	  0.108977959	-3.350000E-01	  0.108977959	9.536000E+01	  0.108977959	1.763000E+00	  0.108977959	4.549600E+01
446	  0.109178357	-3.390000E-01	  0.109178357	9.500900E+01	  0.109178357	1.795000E+00	  0.109178357	4.577600E+01
447	  0.109378755	-3.380000E-01	  0.109378755	9.470100E+01	  0.109378755	1.797000E+00	  0.109378755	4.602400E+01
448	  0.109579161	-3.340000E-01	  0.109579161	9.435000E+01	  0.109579161	1.786000E+00	  0.109579161	4.630800E+01
449	  0.109779559	-3.360000E-01	  0.109779559	9.400600E+01	  0.109779559	1.811000E+00	  0.109779559	4.658800E+01
450	  0.109979957	-3.320000E-01	  0.109979957	9.371400E+01	  0.109979957	1.796000E+00	  0.109979957	4.682700E+01
451	  0.110180363	-3.290000E-01	  0.110180363	9.335700E+01	  0.110180363	1.790000E+00	  0.110180363	4.712000E+01
452	  0.110380761	-3.300000E-01	  0.110380761	9.302800E+01	  0.110380761	1.808000E+00	  0.110380761	4.739100E+01
453	  0.110581160	-3.350000E-01	  0.110581160	9.275800E+01	  0.110581160	1.840000E+00	  0.110581160	4.761500E+01
454	  0.110781565	-3.290000E-01	  0.110781565	9.243700E+01	  0.110781565	1.817000E+00	  0.110781565	4.788300E+01
455	  0.110981964	-3.300000E-01	  0.110981964	9.209800E+01	  0.110981964	1.835000E+00	  0.110981964	4.816700E+01
456	  0.111182362	-3.320000E-01	  0.111182362	9.179000E+01	  0.111182362	1.855000E+00	  0.111182362	4.842600E+01
457	  0.111382768	-3.250000E-01	  0.111382768	9.149300E+01	  0.111382768	1.827000E+00	  0.111382768	4.868000E+01
458	  0.111583166	-3.280000E-01	  0.111583166	9.120100E+01	  0.111583166	1.853000E+00	  0.111583166	4.892800E+01
459	  0.111783572	-3.310000E-01	  0.111783572	9.089900E+01	  0.111783572	1.879000E+00	  0.111783572	4.918500E+01
460	  0.111983970	-3.260000E-01	  0.111983970	9.061000E+01	  0.111983970	1.861000E+00	  0.111983970	4.943500E+01
461	  0.112184368	-3.290000E-01	  0.112184368	9.032300E+01	  0.112184368	1.887000E+00	  0.112184368	4.968300E+01
462	  0.112384774	-3.240000E-01	  0.112384774	9.003400E+01	  0.112384774	1.866000E+00	  0.112384774	4.993500E+01
463	  0.112585172	-3.260000E-01	  0.112585172	8.973500E+01	  0.112585172	1.886000E+00	  0.112585172	5.019500E+01
464	  0.112785570	-3.280000E-01	  0.112785570	8.943600E+01	  0.112785570	1.909000E+00	  0.112785570	5.045800E+01
465	  0.112985976	-3.250000E-01	  0.112985976	8.915700E+01	  0.112985976	1.902000E+00	  0.112985976	5.070400E+01
466	  0.113186374	-3.310000E-01	  0.113186374	8.883900E+01	  0.113186374	1.948000E+00	  0.113186374	5.098500E+01
467	  0.113386773	-3.250000E-01	  0.113386773	8.852600E+01	  0.113386773	1.923000E+00	  0.113386773	5.126600E+01
468	  0.113587178	-3.350000E-01	  0.113587178	8.823000E+01	  0.113587178	1.988000E+00	  0.113587178	5.152900E+01
469	  0.113787577	-3.330000E-01	  0.113787577	8.791200E+01	  0.113787577	1.988000E+00	  0.113787577	5.181600E+01
470	  0.113987975	-3.350000E-01	  0.113987975	8.759300E+01	  0.113987975	2.015000E+00	  0.113987975	5.210400E+01
471	  0.114188381	-3.330000E-01	  0.114188381	8.727900E+01	  0.114188381	2.012000E+00	  0.114188381	5.239100E+01
472	  0.114388779	-3.340000E-01	  0.114388779	8.696900E+01	  0.114388779	2.034000E+00	  0.114388779	5.267500E+01
473	  0.114589177	-3.340000E-01	  0.114589177	8.664000E+01	  0.114589177	2.046000E+00	  0.114589177	5.297900E+01
474	  0.114789583	-3.340000E-01	  0.114789583	8.635700E+01	  0.114789583	2.057000E+00	  0.114789583	5.324100E+01
475	  0.114989981	-3.290000E-01	  0.114989981	8.601900E+01	  0.114989981	2.035000E+00	  0.114989981	5.355900E+01
476	  0.115190387	-3.270000E-01	  0.115190387	8.569700E+01	  0.115190387	2.037000E+00	  0.115190387	5.386100E+01
477	  0.115390785	-3.310000E-01	  0.115390785	8.535500E+01	  0.115390785	2.074000E+00	  0.115390785	5.418300E+01
478	  0.115591183	-3.240000E-01	  0.115591183	8.508800E+01	  0.115591183	2.044000E+00	  0.115591183	5.443900E+01
479	  0.115791589	-3.270000E-01	  0.115791589	8.476700E+01	  0.115791589	2.070000E+00	  0.115791589	5.474500E+01
480	  0.115991987	-3.290000E-01	  0.115991987	8.448100E+01	  0.115991987	2.100000E+00	  0.115991987	5.501900E+01
481	  0.116192386	-3.340000E-01	  0.116192386	8.415500E+01	  0.116192386	2.140000E+00	  0.116192386	5.533400E+01
482	  0.116392791	-3.360000E-01	  0.116392791	8.388300E+01	  0.116392791	2.164000E+00	  0.116392791	5.559700E+01
483	  0.116593190	-3.250000E-01	  0.116593190	8.356800E+01	  0.116593190	2.106000E+00	  0.116593190	5.590800E+01
484	  0.116793588	-3.210000E-01	  0.116793588	8.327700E+01	  0.116793588	2.093000E+00	  0.116793588	5.619600E+01
485	  0.116993994	-3.240000E-01	  0.116993994	8.297500E+01	  0.116993994	2.129000E+00	  0.116993994	5.649400E+01
486	  0.117194392	-3.310000E-01	  0.117194392	8.270800E+01	  0.117194392	2.184000E+00	  0.117194392	5.675700E+01
487	  0.117394790	-3.280000E-01	  0.117394790	8.243300E+01	  0.117394790	2.178000E+00	  0.117394790	5.703400E+01
488	  0.117595196	-3.290000E-01	  0.117595196	8.212900E+01	  0.117595196	2.198000E+00	  0.117595196	5.733900E+01
489	  0.117795594	-3.290000E-01	  0.117795594	8.183700E+01	  0.117795594	2.208000E+00	  0.117795594	5.763500E+01
490	  0.117995992	-3.290000E-01	  0.117995992	8.153500E+01	  0.117995992	2.225000E+00	  0.117995992	5.794200E+01
491	  0.118196398	-3.260000E-01	  0.118196398	8.122800E+01	  0.118196398	2.219000E+00	  0.118196398	5.825800E+01
492	  0.118396796	-3.360000E-01	  0.118396796	8.093400E+01	  0.118396796	2.301000E+00	  0.118396796	5.855800E+01
493	  0.118597202	-3.310000E-01	  0.118597202	8.065100E+01	  0.118597202	2.280000E+00	  0.118597202	5.885200E+01
494	  0.118797600	-3.340000E-01	  0.118797600	8.033200E+01	  0.118797600	2.311000E+00	  0.118797600	5.918400E+01
495	  0.118997999	-3.320000E-01	  0.118997999	8.002400E+01	  0.118997999	2.312000E+00	  0.118997999	5.950900E+01
496	  0.119198404	-3.360000E-01	  0.119198404	7.971600E+01	  0.119198404	2.353000E+00	  0.119198404	5.983300E+01
497	  0.119398803	-3.350000E-01	  0.119398803	7.936800E+01	  0.119398803	2.363000E+00	  0.119398803	6.020300E+01
498	  0.119599201	-3.370000E-01	  0.119599201	7.904300E+01	  0.119599201	2.397000E+00	  0.119599201	6.055100E+01
499	  0.119799607	-3.350000E-01	  0.119799607	7.875400E+01	  0.119799607	2.400000E+00	  0.119799607	6.086300E+01
500	  0.120000005	-3.330000E-01	  0.120000005	7.842200E+01	  0.120000005	2.398000E+00	  0.120000005	6.122400E+01
