! Anritsu VNA Master:             	Model: MS2036C/10/77
! SN:             	1601066
! /bd0/18may26.balun/4b.r200.3.txt
! Existing Calibration Information:
! TYPE:             	Current Settings	Active Cal Settings
! TIME:             	05/26/2018 05:21:17 PM	05/26/2018 05:08:07 PM
! INTERNAL TEMP:    	52.5 C	52.5 C
! # POINTS:         	500	500
! START FREQ:       	20.000 MHz	20.000 MHz
! STOP FREQ:        	120.000 MHz	120.000 MHz
! SOURCE POWER:     	High	High
! IFBW:             	50 Hz	50 Hz
! AVG FACTOR:       	  1 	  1 
! REF PLANE 1:      	0 mm	0 mm
! REF PLANE 2:      	0 mm	0 mm
! CAL TYPE:         	Full S11	Full S11
! CAL METHOD:       	SOLT	SOLT
! CAL LINE TYPE:    	Coax	Coax
! DUT PORT 1:       	K-Conn(M)	K-Conn(M)
! DUT PORT 2:       	K-Conn(M)	K-Conn(M)
! CAL STATUS:       	OK: Accuracy High	--
! PROP-V:       	0.700
! CABLE LOSS:       	0.000 dB/m
! REF IMPEDANCE:       	50.0
! Trace Specific Parameters:	TR1	TR2	TR3	TR4
! TRACE.#.Y (GRAPH TYPE)	LOG MAG	PHASE	REAL IMPEDANCE	IMAGINARY IMPEDANCE
! TRACE.#.X 	FREQ.GHZ	FREQ.GHZ	FREQ.GHZ	FREQ.GHZ
! S-PARAMETER	S11	S11	S11	S11
! SMOOTH/APERTURE %	0	0	0	0
! WINDOW	NSL	NSL	NSL	NSL
! GATING	OFF	OFF	OFF	OFF
! FGTD	OFF	OFF	OFF	OFF
Marker Information per Trace:	TR1	TR2	TR3	TR4
!MK1	--	--	--	--
!MK2	--	--	--	--
!MK3	--	--	--	--
!MK4	--	--	--	--
!MK5	--	--	--	--
!MK6	--	--	--	--
!MK7	--	--	--	--
!MK8	--	--	--	--
PNT	TR1.FREQ.GHZ	TR1.LOG MAG.dB	TR2.FREQ.GHZ	TR2.PHASE.deg	TR3.FREQ.GHZ	TR3.REAL IMPEDANCE.ohm	TR4.FREQ.GHZ	TR4.IMAGINARY IMPEDANCE.ohm
1	  0.020000000	-4.544000E+00	  0.020000000	-2.247900E+01	  0.020000000	1.267110E+02	  0.020000000	-8.850000E+01
2	  0.020200402	-4.543000E+00	  0.020200402	-2.272000E+01	  0.020200402	1.257710E+02	  0.020200402	-8.875300E+01
3	  0.020400802	-4.546000E+00	  0.020400802	-2.295500E+01	  0.020400802	1.248420E+02	  0.020400802	-8.889600E+01
4	  0.020601204	-4.545000E+00	  0.020601204	-2.319400E+01	  0.020601204	1.239250E+02	  0.020601204	-8.914400E+01
5	  0.020801604	-4.544000E+00	  0.020801604	-2.342900E+01	  0.020801604	1.230270E+02	  0.020801604	-8.936300E+01
6	  0.021002004	-4.543000E+00	  0.021002004	-2.367900E+01	  0.021002004	1.220760E+02	  0.021002004	-8.959000E+01
7	  0.021202406	-4.547000E+00	  0.021202406	-2.393500E+01	  0.021202406	1.210820E+02	  0.021202406	-8.967900E+01
8	  0.021402806	-4.544000E+00	  0.021402806	-2.417700E+01	  0.021402806	1.201770E+02	  0.021402806	-8.990700E+01
9	  0.021603208	-4.546000E+00	  0.021603208	-2.442000E+01	  0.021603208	1.192560E+02	  0.021603208	-9.002100E+01
10	  0.021803608	-4.550000E+00	  0.021803608	-2.463500E+01	  0.021803608	1.184390E+02	  0.021803608	-9.006600E+01
11	  0.022004008	-4.551000E+00	  0.022004008	-2.486600E+01	  0.022004008	1.175780E+02	  0.022004008	-9.017900E+01
12	  0.022204408	-4.550000E+00	  0.022204408	-2.507700E+01	  0.022204408	1.168040E+02	  0.022204408	-9.031700E+01
13	  0.022404809	-4.549000E+00	  0.022404809	-2.530200E+01	  0.022404809	1.159800E+02	  0.022404809	-9.045500E+01
14	  0.022605211	-4.549000E+00	  0.022605211	-2.553800E+01	  0.022605211	1.151200E+02	  0.022605211	-9.056600E+01
15	  0.022805611	-4.550000E+00	  0.022805611	-2.577700E+01	  0.022805611	1.142490E+02	  0.022805611	-9.063500E+01
16	  0.023006011	-4.549000E+00	  0.023006011	-2.599800E+01	  0.023006011	1.134550E+02	  0.023006011	-9.074100E+01
17	  0.023206413	-4.547000E+00	  0.023206413	-2.623200E+01	  0.023206413	1.126210E+02	  0.023206413	-9.087800E+01
18	  0.023406813	-4.544000E+00	  0.023406813	-2.645700E+01	  0.023406813	1.118270E+02	  0.023406813	-9.102600E+01
19	  0.023607215	-4.540000E+00	  0.023607215	-2.671100E+01	  0.023607215	1.109320E+02	  0.023607215	-9.117500E+01
20	  0.023807615	-4.539000E+00	  0.023807615	-2.693400E+01	  0.023807615	1.101520E+02	  0.023807615	-9.126700E+01
21	  0.024008015	-4.544000E+00	  0.024008015	-2.715400E+01	  0.024008015	1.093740E+02	  0.024008015	-9.118400E+01
22	  0.024208417	-4.541000E+00	  0.024208417	-2.736700E+01	  0.024208417	1.086390E+02	  0.024208417	-9.129400E+01
23	  0.024408817	-4.547000E+00	  0.024408817	-2.755800E+01	  0.024408817	1.079740E+02	  0.024408817	-9.119000E+01
24	  0.024609219	-4.550000E+00	  0.024609219	-2.776900E+01	  0.024609219	1.072490E+02	  0.024609219	-9.115600E+01
25	  0.024809619	-4.553000E+00	  0.024809619	-2.797200E+01	  0.024809619	1.065560E+02	  0.024809619	-9.110700E+01
26	  0.025010020	-4.556000E+00	  0.025010020	-2.820900E+01	  0.025010020	1.057540E+02	  0.025010020	-9.105500E+01
27	  0.025210422	-4.561000E+00	  0.025210422	-2.843400E+01	  0.025210422	1.049990E+02	  0.025210422	-9.096300E+01
28	  0.025410822	-4.564000E+00	  0.025410822	-2.868800E+01	  0.025410822	1.041540E+02	  0.025410822	-9.090600E+01
29	  0.025611224	-4.562000E+00	  0.025611224	-2.893600E+01	  0.025611224	1.033380E+02	  0.025611224	-9.093900E+01
30	  0.025811624	-4.564000E+00	  0.025811624	-2.919500E+01	  0.025811624	1.024930E+02	  0.025811624	-9.090300E+01
31	  0.026012026	-4.565000E+00	  0.026012026	-2.945500E+01	  0.026012026	1.016510E+02	  0.026012026	-9.086600E+01
32	  0.026212426	-4.565000E+00	  0.026212426	-2.971600E+01	  0.026212426	1.008130E+02	  0.026212426	-9.084400E+01
33	  0.026412826	-4.561000E+00	  0.026412826	-2.999500E+01	  0.026412826	9.992100E+01	  0.026412826	-9.089200E+01
34	  0.026613226	-4.558000E+00	  0.026613226	-3.023600E+01	  0.026613226	9.915800E+01	  0.026613226	-9.092100E+01
35	  0.026813626	-4.554000E+00	  0.026813626	-3.046200E+01	  0.026813626	9.844500E+01	  0.026813626	-9.095700E+01
36	  0.027014028	-4.550000E+00	  0.027014028	-3.065300E+01	  0.027014028	9.784400E+01	  0.027014028	-9.100500E+01
37	  0.027214428	-4.552000E+00	  0.027214428	-3.083300E+01	  0.027214428	9.729000E+01	  0.027214428	-9.091400E+01
38	  0.027414829	-4.551000E+00	  0.027414829	-3.101400E+01	  0.027414829	9.673100E+01	  0.027414829	-9.090000E+01
39	  0.027615231	-4.553000E+00	  0.027615231	-3.122100E+01	  0.027615231	9.610000E+01	  0.027615231	-9.079700E+01
40	  0.027815631	-4.558000E+00	  0.027815631	-3.142800E+01	  0.027815631	9.548200E+01	  0.027815631	-9.064500E+01
41	  0.028016033	-4.565000E+00	  0.028016033	-3.167800E+01	  0.028016033	9.474300E+01	  0.028016033	-9.043800E+01
42	  0.028216433	-4.565000E+00	  0.028216433	-3.192400E+01	  0.028216433	9.401100E+01	  0.028216433	-9.035500E+01
43	  0.028416833	-4.562000E+00	  0.028416833	-3.218000E+01	  0.028416833	9.324900E+01	  0.028416833	-9.033300E+01
44	  0.028617235	-4.558000E+00	  0.028617235	-3.242100E+01	  0.028617235	9.253500E+01	  0.028617235	-9.031800E+01
45	  0.028817635	-4.555000E+00	  0.028817635	-3.268300E+01	  0.028817635	9.176500E+01	  0.028817635	-9.029300E+01
46	  0.029018037	-4.554000E+00	  0.029018037	-3.290600E+01	  0.029018037	9.111800E+01	  0.029018037	-9.022000E+01
47	  0.029218437	-4.550000E+00	  0.029218437	-3.312000E+01	  0.029218437	9.049500E+01	  0.029218437	-9.021000E+01
48	  0.029418837	-4.546000E+00	  0.029418837	-3.329900E+01	  0.029418837	8.997900E+01	  0.029418837	-9.019000E+01
49	  0.029619239	-4.545000E+00	  0.029619239	-3.347300E+01	  0.029619239	8.948200E+01	  0.029619239	-9.014800E+01
50	  0.029819639	-4.542000E+00	  0.029819639	-3.362200E+01	  0.029819639	8.905600E+01	  0.029819639	-9.012000E+01
51	  0.030020041	-4.540000E+00	  0.030020041	-3.380300E+01	  0.030020041	8.854200E+01	  0.030020041	-9.007200E+01
52	  0.030220442	-4.545000E+00	  0.030220442	-3.398400E+01	  0.030220442	8.805600E+01	  0.030220442	-8.989600E+01
53	  0.030420844	-4.552000E+00	  0.030420844	-3.422400E+01	  0.030420844	8.742300E+01	  0.030420844	-8.964100E+01
54	  0.030621244	-4.558000E+00	  0.030621244	-3.445700E+01	  0.030621244	8.680700E+01	  0.030621244	-8.942100E+01
55	  0.030821644	-4.559000E+00	  0.030821644	-3.470400E+01	  0.030821644	8.614400E+01	  0.030821644	-8.927800E+01
56	  0.031022044	-4.565000E+00	  0.031022044	-3.494300E+01	  0.031022044	8.552600E+01	  0.031022044	-8.903500E+01
57	  0.031222444	-4.559000E+00	  0.031222444	-3.515500E+01	  0.031222444	8.494200E+01	  0.031222444	-8.902800E+01
58	  0.031422846	-4.565000E+00	  0.031422846	-3.541800E+01	  0.031422846	8.427300E+01	  0.031422846	-8.877800E+01
59	  0.031623244	-4.568000E+00	  0.031623244	-3.568900E+01	  0.031623244	8.358300E+01	  0.031623244	-8.856400E+01
60	  0.031823646	-4.570000E+00	  0.031823646	-3.595500E+01	  0.031823646	8.290800E+01	  0.031823646	-8.837000E+01
61	  0.032024048	-4.570000E+00	  0.032024048	-3.620700E+01	  0.032024048	8.226600E+01	  0.032024048	-8.822100E+01
62	  0.032224450	-4.565000E+00	  0.032224450	-3.645000E+01	  0.032224450	8.163200E+01	  0.032224450	-8.814800E+01
63	  0.032424849	-4.561000E+00	  0.032424849	-3.668000E+01	  0.032424849	8.103800E+01	  0.032424849	-8.807500E+01
64	  0.032625251	-4.554000E+00	  0.032625251	-3.691700E+01	  0.032625251	8.042300E+01	  0.032625251	-8.802800E+01
65	  0.032825653	-4.551000E+00	  0.032825653	-3.710700E+01	  0.032825653	7.993700E+01	  0.032825653	-8.796100E+01
66	  0.033026051	-4.553000E+00	  0.033026051	-3.728600E+01	  0.033026051	7.951100E+01	  0.033026051	-8.780300E+01
67	  0.033226453	-4.555000E+00	  0.033226453	-3.746600E+01	  0.033226453	7.908200E+01	  0.033226453	-8.764700E+01
68	  0.033426855	-4.560000E+00	  0.033426855	-3.768700E+01	  0.033426855	7.857200E+01	  0.033426855	-8.742000E+01
69	  0.033627257	-4.566000E+00	  0.033627257	-3.792500E+01	  0.033627257	7.803400E+01	  0.033627257	-8.715500E+01
70	  0.033827655	-4.568000E+00	  0.033827655	-3.819100E+01	  0.033827655	7.741200E+01	  0.033827655	-8.694300E+01
71	  0.034028057	-4.575000E+00	  0.034028057	-3.845700E+01	  0.034028057	7.682600E+01	  0.034028057	-8.663600E+01
72	  0.034228459	-4.578000E+00	  0.034228459	-3.871400E+01	  0.034228459	7.624500E+01	  0.034228459	-8.641600E+01
73	  0.034428857	-4.575000E+00	  0.034428857	-3.896600E+01	  0.034428857	7.565300E+01	  0.034428857	-8.627500E+01
74	  0.034629259	-4.572000E+00	  0.034629259	-3.919500E+01	  0.034629259	7.512000E+01	  0.034629259	-8.614600E+01
75	  0.034829661	-4.569000E+00	  0.034829661	-3.945200E+01	  0.034829661	7.452900E+01	  0.034829661	-8.599000E+01
76	  0.035030060	-4.564000E+00	  0.035030060	-3.967700E+01	  0.035030060	7.399900E+01	  0.035030060	-8.590400E+01
77	  0.035230462	-4.558000E+00	  0.035230462	-3.990100E+01	  0.035230462	7.347500E+01	  0.035230462	-8.581000E+01
78	  0.035430863	-4.555000E+00	  0.035430863	-4.008500E+01	  0.035430863	7.305600E+01	  0.035430863	-8.571000E+01
79	  0.035631265	-4.555000E+00	  0.035631265	-4.026000E+01	  0.035631265	7.267600E+01	  0.035631265	-8.557200E+01
80	  0.035831664	-4.560000E+00	  0.035831664	-4.044900E+01	  0.035831664	7.229200E+01	  0.035831664	-8.535500E+01
81	  0.036032066	-4.565000E+00	  0.036032066	-4.067500E+01	  0.036032066	7.183600E+01	  0.036032066	-8.509500E+01
82	  0.036232468	-4.569000E+00	  0.036232468	-4.091900E+01	  0.036232468	7.133800E+01	  0.036232468	-8.485000E+01
83	  0.036432866	-4.573000E+00	  0.036432866	-4.118100E+01	  0.036432866	7.080700E+01	  0.036432866	-8.458300E+01
84	  0.036633268	-4.578000E+00	  0.036633268	-4.143500E+01	  0.036633268	7.030500E+01	  0.036633268	-8.431100E+01
85	  0.036833670	-4.582000E+00	  0.036833670	-4.171200E+01	  0.036833670	6.976000E+01	  0.036833670	-8.402300E+01
86	  0.037034072	-4.585000E+00	  0.037034072	-4.197500E+01	  0.037034072	6.923900E+01	  0.037034072	-8.376900E+01
87	  0.037234470	-4.587000E+00	  0.037234470	-4.220900E+01	  0.037234470	6.877700E+01	  0.037234470	-8.355200E+01
88	  0.037434869	-4.584000E+00	  0.037434869	-4.245100E+01	  0.037434869	6.827800E+01	  0.037434869	-8.339300E+01
89	  0.037635271	-4.582000E+00	  0.037635271	-4.271300E+01	  0.037635271	6.774800E+01	  0.037635271	-8.319600E+01
90	  0.037835669	-4.573000E+00	  0.037835669	-4.297800E+01	  0.037835669	6.718000E+01	  0.037835669	-8.308600E+01
91	  0.038036071	-4.566000E+00	  0.038036071	-4.322400E+01	  0.038036071	6.666600E+01	  0.038036071	-8.296000E+01
92	  0.038236473	-4.559000E+00	  0.038236473	-4.345500E+01	  0.038236473	6.618100E+01	  0.038236473	-8.285100E+01
93	  0.038436871	-4.553000E+00	  0.038436871	-4.360300E+01	  0.038436871	6.586300E+01	  0.038436871	-8.279800E+01
94	  0.038637273	-4.553000E+00	  0.038637273	-4.378300E+01	  0.038637273	6.552300E+01	  0.038637273	-8.263900E+01
95	  0.038837675	-4.557000E+00	  0.038837675	-4.394000E+01	  0.038837675	6.525100E+01	  0.038837675	-8.245000E+01
96	  0.039038073	-4.568000E+00	  0.039038073	-4.414800E+01	  0.039038073	6.492400E+01	  0.039038073	-8.213600E+01
97	  0.039238475	-4.575000E+00	  0.039238475	-4.438400E+01	  0.039238475	6.452500E+01	  0.039238475	-8.184800E+01
98	  0.039438877	-4.582000E+00	  0.039438877	-4.462800E+01	  0.039438877	6.411800E+01	  0.039438877	-8.154900E+01
99	  0.039639279	-4.586000E+00	  0.039639279	-4.484800E+01	  0.039639279	6.374100E+01	  0.039639279	-8.130800E+01
100	  0.039839678	-4.589000E+00	  0.039839678	-4.511100E+01	  0.039839678	6.328600E+01	  0.039839678	-8.103700E+01
101	  0.040040080	-4.585000E+00	  0.040040080	-4.533600E+01	  0.040040080	6.286300E+01	  0.040040080	-8.087900E+01
102	  0.040240481	-4.583000E+00	  0.040240481	-4.558100E+01	  0.040240481	6.241600E+01	  0.040240481	-8.069000E+01
103	  0.040440880	-4.576000E+00	  0.040440880	-4.581900E+01	  0.040440880	6.195800E+01	  0.040440880	-8.056000E+01
104	  0.040641282	-4.571000E+00	  0.040641282	-4.602200E+01	  0.040641282	6.158100E+01	  0.040641282	-8.042400E+01
105	  0.040841684	-4.567000E+00	  0.040841684	-4.622200E+01	  0.040841684	6.121100E+01	  0.040841684	-8.029200E+01
106	  0.041042086	-4.568000E+00	  0.041042086	-4.638900E+01	  0.041042086	6.093000E+01	  0.041042086	-8.013200E+01
107	  0.041242484	-4.574000E+00	  0.041242484	-4.660700E+01	  0.041242484	6.059700E+01	  0.041242484	-7.986600E+01
108	  0.041442886	-4.581000E+00	  0.041442886	-4.678900E+01	  0.041442886	6.033100E+01	  0.041442886	-7.962400E+01
109	  0.041643288	-4.588000E+00	  0.041643288	-4.702100E+01	  0.041643288	5.998600E+01	  0.041643288	-7.933800E+01
110	  0.041843686	-4.592000E+00	  0.041843686	-4.726500E+01	  0.041843686	5.960800E+01	  0.041843686	-7.906700E+01
111	  0.042044088	-4.601000E+00	  0.042044088	-4.752400E+01	  0.042044088	5.923400E+01	  0.042044088	-7.874300E+01
112	  0.042244490	-4.605000E+00	  0.042244490	-4.777600E+01	  0.042244490	5.885100E+01	  0.042244490	-7.847100E+01
113	  0.042444889	-4.605000E+00	  0.042444889	-4.801100E+01	  0.042444889	5.847400E+01	  0.042444889	-7.825500E+01
114	  0.042645290	-4.605000E+00	  0.042645290	-4.826700E+01	  0.042645290	5.806700E+01	  0.042645290	-7.802200E+01
115	  0.042845692	-4.608000E+00	  0.042845692	-4.851400E+01	  0.042845692	5.770000E+01	  0.042845692	-7.776300E+01
116	  0.043046094	-4.604000E+00	  0.043046094	-4.878800E+01	  0.043046094	5.725100E+01	  0.043046094	-7.755100E+01
117	  0.043246493	-4.600000E+00	  0.043246493	-4.908500E+01	  0.043246493	5.676600E+01	  0.043246493	-7.732200E+01
118	  0.043446895	-4.594000E+00	  0.043446895	-4.931600E+01	  0.043446895	5.637700E+01	  0.043446895	-7.717100E+01
119	  0.043647297	-4.590000E+00	  0.043647297	-4.952700E+01	  0.043647297	5.603400E+01	  0.043647297	-7.701700E+01
120	  0.043847695	-4.587000E+00	  0.043847695	-4.972200E+01	  0.043847695	5.572400E+01	  0.043847695	-7.686300E+01
121	  0.044048097	-4.591000E+00	  0.044048097	-4.990000E+01	  0.044048097	5.548100E+01	  0.044048097	-7.666200E+01
122	  0.044248499	-4.599000E+00	  0.044248499	-5.011300E+01	  0.044248499	5.521300E+01	  0.044248499	-7.639200E+01
123	  0.044448901	-4.606000E+00	  0.044448901	-5.033300E+01	  0.044448901	5.493500E+01	  0.044448901	-7.611700E+01
124	  0.044649299	-4.610000E+00	  0.044649299	-5.059900E+01	  0.044649299	5.457300E+01	  0.044649299	-7.583600E+01
125	  0.044849701	-4.616000E+00	  0.044849701	-5.084500E+01	  0.044849701	5.425400E+01	  0.044849701	-7.555400E+01
126	  0.045050103	-4.620000E+00	  0.045050103	-5.108600E+01	  0.045050103	5.393400E+01	  0.045050103	-7.529600E+01
127	  0.045250501	-4.621000E+00	  0.045250501	-5.136500E+01	  0.045250501	5.354800E+01	  0.045250501	-7.502900E+01
128	  0.045450903	-4.620000E+00	  0.045450903	-5.165500E+01	  0.045450903	5.314100E+01	  0.045450903	-7.476600E+01
129	  0.045651305	-4.615000E+00	  0.045651305	-5.192900E+01	  0.045651305	5.273300E+01	  0.045651305	-7.455900E+01
130	  0.045851704	-4.609000E+00	  0.045851704	-5.216400E+01	  0.045851704	5.237600E+01	  0.045851704	-7.439800E+01
131	  0.046052106	-4.604000E+00	  0.046052106	-5.237100E+01	  0.046052106	5.205900E+01	  0.046052106	-7.425800E+01
132	  0.046252504	-4.601000E+00	  0.046252504	-5.259900E+01	  0.046252504	5.173700E+01	  0.046252504	-7.406900E+01
133	  0.046452906	-4.601000E+00	  0.046452906	-5.279000E+01	  0.046452906	5.148400E+01	  0.046452906	-7.389200E+01
134	  0.046653304	-4.603000E+00	  0.046653304	-5.299700E+01	  0.046653304	5.122100E+01	  0.046653304	-7.368500E+01
135	  0.046853706	-4.604000E+00	  0.046853706	-5.322300E+01	  0.046853706	5.092900E+01	  0.046853706	-7.346700E+01
136	  0.047054108	-4.608000E+00	  0.047054108	-5.345400E+01	  0.047054108	5.065200E+01	  0.047054108	-7.322000E+01
137	  0.047254506	-4.609000E+00	  0.047254506	-5.367700E+01	  0.047254506	5.037400E+01	  0.047254506	-7.300200E+01
138	  0.047454908	-4.608000E+00	  0.047454908	-5.389400E+01	  0.047454908	5.009300E+01	  0.047454908	-7.280700E+01
139	  0.047655310	-4.610000E+00	  0.047655310	-5.412100E+01	  0.047655310	4.981700E+01	  0.047655310	-7.258300E+01
140	  0.047855709	-4.613000E+00	  0.047855709	-5.435300E+01	  0.047855709	4.954300E+01	  0.047855709	-7.234300E+01
141	  0.048056111	-4.611000E+00	  0.048056111	-5.457300E+01	  0.048056111	4.925600E+01	  0.048056111	-7.215900E+01
142	  0.048256513	-4.609000E+00	  0.048256513	-5.483200E+01	  0.048256513	4.892700E+01	  0.048256513	-7.193300E+01
143	  0.048456915	-4.605000E+00	  0.048456915	-5.510600E+01	  0.048456915	4.856500E+01	  0.048456915	-7.171400E+01
144	  0.048657313	-4.598000E+00	  0.048657313	-5.532500E+01	  0.048657313	4.825700E+01	  0.048657313	-7.157100E+01
145	  0.048857715	-4.597000E+00	  0.048857715	-5.556800E+01	  0.048857715	4.795700E+01	  0.048857715	-7.135600E+01
146	  0.049058117	-4.592000E+00	  0.049058117	-5.573900E+01	  0.049058117	4.772400E+01	  0.049058117	-7.123600E+01
147	  0.049258515	-4.597000E+00	  0.049258515	-5.591600E+01	  0.049258515	4.754700E+01	  0.049258515	-7.103000E+01
148	  0.049458917	-4.598000E+00	  0.049458917	-5.610200E+01	  0.049458917	4.733400E+01	  0.049458917	-7.085200E+01
149	  0.049659319	-4.601000E+00	  0.049659319	-5.631100E+01	  0.049659319	4.710900E+01	  0.049659319	-7.063600E+01
150	  0.049859721	-4.608000E+00	  0.049859721	-5.653900E+01	  0.049859721	4.688500E+01	  0.049859721	-7.037600E+01
151	  0.050060119	-4.616000E+00	  0.050060119	-5.674000E+01	  0.050060119	4.670700E+01	  0.050060119	-7.012600E+01
152	  0.050260521	-4.621000E+00	  0.050260521	-5.701700E+01	  0.050260521	4.641800E+01	  0.050260521	-6.984100E+01
153	  0.050460923	-4.629000E+00	  0.050460923	-5.726800E+01	  0.050460923	4.618500E+01	  0.050460923	-6.955100E+01
154	  0.050661322	-4.630000E+00	  0.050661322	-5.753100E+01	  0.050661322	4.589900E+01	  0.050661322	-6.930400E+01
155	  0.050861724	-4.629000E+00	  0.050861724	-5.781200E+01	  0.050861724	4.557900E+01	  0.050861724	-6.906000E+01
156	  0.051062126	-4.628000E+00	  0.051062126	-5.806900E+01	  0.051062126	4.529200E+01	  0.051062126	-6.883500E+01
157	  0.051262524	-4.622000E+00	  0.051262524	-5.831700E+01	  0.051262524	4.498700E+01	  0.051262524	-6.865200E+01
158	  0.051462926	-4.621000E+00	  0.051462926	-5.856400E+01	  0.051462926	4.471600E+01	  0.051462926	-6.843700E+01
159	  0.051663328	-4.622000E+00	  0.051663328	-5.879700E+01	  0.051663328	4.447500E+01	  0.051663328	-6.821900E+01
160	  0.051863730	-4.623000E+00	  0.051863730	-5.898300E+01	  0.051863730	4.428500E+01	  0.051863730	-6.804400E+01
161	  0.052064128	-4.621000E+00	  0.052064128	-5.922900E+01	  0.052064128	4.401400E+01	  0.052064128	-6.783700E+01
162	  0.052264530	-4.624000E+00	  0.052264530	-5.945000E+01	  0.052264530	4.380200E+01	  0.052264530	-6.761800E+01
163	  0.052464932	-4.626000E+00	  0.052464932	-5.968400E+01	  0.052464932	4.357800E+01	  0.052464932	-6.738800E+01
164	  0.052665330	-4.628000E+00	  0.052665330	-5.990600E+01	  0.052665330	4.335800E+01	  0.052665330	-6.718100E+01
165	  0.052865732	-4.632000E+00	  0.052865732	-6.012400E+01	  0.052865732	4.316000E+01	  0.052865732	-6.695900E+01
166	  0.053066134	-4.630000E+00	  0.053066134	-6.035200E+01	  0.053066134	4.292000E+01	  0.053066134	-6.676900E+01
167	  0.053266536	-4.626000E+00	  0.053266536	-6.057200E+01	  0.053266536	4.268100E+01	  0.053266536	-6.659400E+01
168	  0.053466935	-4.629000E+00	  0.053466935	-6.083100E+01	  0.053466935	4.243900E+01	  0.053466935	-6.634900E+01
169	  0.053667337	-4.626000E+00	  0.053667337	-6.109300E+01	  0.053667337	4.216900E+01	  0.053667337	-6.613200E+01
170	  0.053867739	-4.624000E+00	  0.053867739	-6.132300E+01	  0.053867739	4.193300E+01	  0.053867739	-6.594000E+01
171	  0.054068137	-4.621000E+00	  0.054068137	-6.156700E+01	  0.054068137	4.167900E+01	  0.054068137	-6.574500E+01
172	  0.054268539	-4.619000E+00	  0.054268539	-6.176700E+01	  0.054268539	4.147800E+01	  0.054268539	-6.557900E+01
173	  0.054468941	-4.619000E+00	  0.054468941	-6.195700E+01	  0.054468941	4.129900E+01	  0.054468941	-6.541000E+01
174	  0.054669339	-4.618000E+00	  0.054669339	-6.216700E+01	  0.054669339	4.109300E+01	  0.054669339	-6.523300E+01
175	  0.054869737	-4.619000E+00	  0.054869737	-6.238800E+01	  0.054869737	4.089800E+01	  0.054869737	-6.502700E+01
176	  0.055070139	-4.624000E+00	  0.055070139	-6.256300E+01	  0.055070139	4.076300E+01	  0.055070139	-6.484300E+01
177	  0.055270538	-4.630000E+00	  0.055270538	-6.279900E+01	  0.055270538	4.058200E+01	  0.055270538	-6.459900E+01
178	  0.055470940	-4.638000E+00	  0.055470940	-6.303600E+01	  0.055470940	4.041000E+01	  0.055470940	-6.434600E+01
179	  0.055671342	-4.642000E+00	  0.055671342	-6.325700E+01	  0.055671342	4.023500E+01	  0.055671342	-6.412700E+01
180	  0.055871744	-4.642000E+00	  0.055871744	-6.355000E+01	  0.055871744	3.997200E+01	  0.055871744	-6.387300E+01
181	  0.056072142	-4.648000E+00	  0.056072142	-6.382100E+01	  0.056072142	3.976500E+01	  0.056072142	-6.360400E+01
182	  0.056272544	-4.643000E+00	  0.056272544	-6.409900E+01	  0.056272544	3.949200E+01	  0.056272544	-6.339200E+01
183	  0.056472946	-4.639000E+00	  0.056472946	-6.432800E+01	  0.056472946	3.927200E+01	  0.056472946	-6.321500E+01
184	  0.056673344	-4.639000E+00	  0.056673344	-6.457200E+01	  0.056673344	3.906100E+01	  0.056673344	-6.300400E+01
185	  0.056873746	-4.639000E+00	  0.056873746	-6.481300E+01	  0.056873746	3.885300E+01	  0.056873746	-6.279700E+01
186	  0.057074148	-4.635000E+00	  0.057074148	-6.500700E+01	  0.057074148	3.866800E+01	  0.057074148	-6.265100E+01
187	  0.057274550	-4.632000E+00	  0.057274550	-6.523700E+01	  0.057274550	3.845400E+01	  0.057274550	-6.247400E+01
188	  0.057474948	-4.636000E+00	  0.057474948	-6.543300E+01	  0.057474948	3.831300E+01	  0.057474948	-6.228200E+01
189	  0.057675350	-4.635000E+00	  0.057675350	-6.565300E+01	  0.057675350	3.812600E+01	  0.057675350	-6.210000E+01
190	  0.057875752	-4.637000E+00	  0.057875752	-6.586900E+01	  0.057875752	3.795800E+01	  0.057875752	-6.190500E+01
191	  0.058076151	-4.640000E+00	  0.058076151	-6.609000E+01	  0.058076151	3.779700E+01	  0.058076151	-6.169800E+01
192	  0.058276553	-4.638000E+00	  0.058276553	-6.627900E+01	  0.058276553	3.763200E+01	  0.058276553	-6.154900E+01
193	  0.058476955	-4.637000E+00	  0.058476955	-6.649600E+01	  0.058476955	3.745000E+01	  0.058476955	-6.137100E+01
194	  0.058677353	-4.640000E+00	  0.058677353	-6.673400E+01	  0.058677353	3.728000E+01	  0.058677353	-6.115000E+01
195	  0.058877755	-4.636000E+00	  0.058877755	-6.695900E+01	  0.058877755	3.708000E+01	  0.058877755	-6.098100E+01
196	  0.059078157	-4.637000E+00	  0.059078157	-6.719000E+01	  0.059078157	3.690300E+01	  0.059078157	-6.078100E+01
197	  0.059278559	-4.636000E+00	  0.059278559	-6.742300E+01	  0.059278559	3.671600E+01	  0.059278559	-6.059000E+01
198	  0.059478957	-4.637000E+00	  0.059478957	-6.762600E+01	  0.059478957	3.656500E+01	  0.059478957	-6.041300E+01
199	  0.059679359	-4.631000E+00	  0.059679359	-6.782200E+01	  0.059679359	3.638100E+01	  0.059679359	-6.027900E+01
200	  0.059879761	-4.637000E+00	  0.059879761	-6.801700E+01	  0.059879761	3.626400E+01	  0.059879761	-6.008600E+01
201	  0.060080159	-4.635000E+00	  0.060080159	-6.820700E+01	  0.060080159	3.610600E+01	  0.060080159	-5.994000E+01
202	  0.060280561	-4.642000E+00	  0.060280561	-6.840700E+01	  0.060280561	3.599400E+01	  0.060280561	-5.973800E+01
203	  0.060480963	-4.647000E+00	  0.060480963	-6.861200E+01	  0.060480963	3.587200E+01	  0.060480963	-5.954000E+01
204	  0.060681365	-4.657000E+00	  0.060681365	-6.883200E+01	  0.060681365	3.575900E+01	  0.060681365	-5.931200E+01
205	  0.060881764	-4.663000E+00	  0.060881764	-6.909100E+01	  0.060881764	3.560100E+01	  0.060881764	-5.906900E+01
206	  0.061082166	-4.668000E+00	  0.061082166	-6.933400E+01	  0.061082166	3.545400E+01	  0.061082166	-5.884100E+01
207	  0.061282568	-4.675000E+00	  0.061282568	-6.961200E+01	  0.061282568	3.529100E+01	  0.061282568	-5.857900E+01
208	  0.061482966	-4.676000E+00	  0.061482966	-6.989700E+01	  0.061482966	3.508800E+01	  0.061482966	-5.834500E+01
209	  0.061683368	-4.677000E+00	  0.061683368	-7.015700E+01	  0.061683368	3.491200E+01	  0.061683368	-5.812500E+01
210	  0.061883770	-4.679000E+00	  0.061883770	-7.043700E+01	  0.061883770	3.472400E+01	  0.061883770	-5.789000E+01
211	  0.062084168	-4.678000E+00	  0.062084168	-7.069100E+01	  0.062084168	3.454100E+01	  0.062084168	-5.769000E+01
212	  0.062284570	-4.675000E+00	  0.062284570	-7.093900E+01	  0.062284570	3.435300E+01	  0.062284570	-5.750300E+01
213	  0.062484972	-4.667000E+00	  0.062484972	-7.116100E+01	  0.062484972	3.415800E+01	  0.062484972	-5.736000E+01
214	  0.062685370	-4.672000E+00	  0.062685370	-7.137800E+01	  0.062685370	3.403600E+01	  0.062685370	-5.716200E+01
215	  0.062885776	-4.667000E+00	  0.062885776	-7.159900E+01	  0.062885776	3.386200E+01	  0.062885776	-5.700600E+01
216	  0.063086174	-4.671000E+00	  0.063086174	-7.184600E+01	  0.063086174	3.371700E+01	  0.063086174	-5.679100E+01
217	  0.063286573	-4.669000E+00	  0.063286573	-7.207500E+01	  0.063286573	3.355400E+01	  0.063286573	-5.661600E+01
218	  0.063486971	-4.667000E+00	  0.063486971	-7.231900E+01	  0.063486971	3.337900E+01	  0.063486971	-5.643300E+01
219	  0.063687377	-4.665000E+00	  0.063687377	-7.255700E+01	  0.063687377	3.321500E+01	  0.063687377	-5.625000E+01
220	  0.063887775	-4.667000E+00	  0.063887775	-7.279100E+01	  0.063887775	3.307500E+01	  0.063887775	-5.605300E+01
221	  0.064088173	-4.667000E+00	  0.064088173	-7.297400E+01	  0.064088173	3.295500E+01	  0.064088173	-5.591000E+01
222	  0.064288579	-4.664000E+00	  0.064288579	-7.325500E+01	  0.064288579	3.276100E+01	  0.064288579	-5.569900E+01
223	  0.064488977	-4.665000E+00	  0.064488977	-7.345600E+01	  0.064488977	3.263900E+01	  0.064488977	-5.553600E+01
224	  0.064689375	-4.665000E+00	  0.064689375	-7.368800E+01	  0.064689375	3.249400E+01	  0.064689375	-5.535300E+01
225	  0.064889781	-4.661000E+00	  0.064889781	-7.392700E+01	  0.064889781	3.231900E+01	  0.064889781	-5.518400E+01
226	  0.065090179	-4.664000E+00	  0.065090179	-7.411000E+01	  0.065090179	3.222200E+01	  0.065090179	-5.502900E+01
227	  0.065290578	-4.665000E+00	  0.065290578	-7.435400E+01	  0.065290578	3.207900E+01	  0.065290578	-5.483200E+01
228	  0.065490983	-4.667000E+00	  0.065490983	-7.457100E+01	  0.065490983	3.195500E+01	  0.065490983	-5.465500E+01
229	  0.065691382	-4.665000E+00	  0.065691382	-7.477000E+01	  0.065691382	3.182300E+01	  0.065691382	-5.450900E+01
230	  0.065891780	-4.670000E+00	  0.065891780	-7.497600E+01	  0.065891780	3.172700E+01	  0.065891780	-5.432700E+01
231	  0.066092186	-4.675000E+00	  0.066092186	-7.521600E+01	  0.066092186	3.160600E+01	  0.066092186	-5.412300E+01
232	  0.066292584	-4.684000E+00	  0.066292584	-7.545600E+01	  0.066292584	3.150800E+01	  0.066292584	-5.390400E+01
233	  0.066492982	-4.690000E+00	  0.066492982	-7.572100E+01	  0.066492982	3.138500E+01	  0.066492982	-5.367500E+01
234	  0.066693388	-4.691000E+00	  0.066693388	-7.596600E+01	  0.066693388	3.124600E+01	  0.066693388	-5.348200E+01
235	  0.066893786	-4.696000E+00	  0.066893786	-7.625800E+01	  0.066893786	3.110100E+01	  0.066893786	-5.324100E+01
236	  0.067094192	-4.698000E+00	  0.067094192	-7.655100E+01	  0.067094192	3.094300E+01	  0.067094192	-5.301100E+01
237	  0.067294590	-4.696000E+00	  0.067294590	-7.681600E+01	  0.067294590	3.078400E+01	  0.067294590	-5.281500E+01
238	  0.067494988	-4.700000E+00	  0.067494988	-7.711200E+01	  0.067494988	3.063200E+01	  0.067494988	-5.258000E+01
239	  0.067695394	-4.695000E+00	  0.067695394	-7.737700E+01	  0.067695394	3.046000E+01	  0.067695394	-5.239700E+01
240	  0.067895792	-4.692000E+00	  0.067895792	-7.762700E+01	  0.067895792	3.030800E+01	  0.067895792	-5.222000E+01
241	  0.068096191	-4.692000E+00	  0.068096191	-7.782900E+01	  0.068096191	3.019500E+01	  0.068096191	-5.206900E+01
242	  0.068296596	-4.683000E+00	  0.068296596	-7.806200E+01	  0.068296596	3.002600E+01	  0.068296596	-5.192500E+01
243	  0.068496995	-4.678000E+00	  0.068496995	-7.827600E+01	  0.068496995	2.988300E+01	  0.068496995	-5.178300E+01
244	  0.068697393	-4.678000E+00	  0.068697393	-7.852600E+01	  0.068697393	2.975100E+01	  0.068697393	-5.159500E+01
245	  0.068897791	-4.676000E+00	  0.068897791	-7.871100E+01	  0.068897791	2.964000E+01	  0.068897791	-5.146600E+01
246	  0.069098189	-4.676000E+00	  0.069098189	-7.893500E+01	  0.069098189	2.952400E+01	  0.069098189	-5.129700E+01
247	  0.069298595	-4.679000E+00	  0.069298595	-7.916300E+01	  0.069298595	2.941500E+01	  0.069298595	-5.111900E+01
248	  0.069498993	-4.675000E+00	  0.069498993	-7.937600E+01	  0.069498993	2.928400E+01	  0.069498993	-5.097500E+01
249	  0.069699399	-4.675000E+00	  0.069699399	-7.961800E+01	  0.069699399	2.916000E+01	  0.069699399	-5.079600E+01
250	  0.069899797	-4.671000E+00	  0.069899797	-7.981000E+01	  0.069899797	2.904100E+01	  0.069899797	-5.066800E+01
251	  0.070100196	-4.674000E+00	  0.070100196	-8.003900E+01	  0.070100196	2.894000E+01	  0.070100196	-5.048800E+01
252	  0.070300601	-4.672000E+00	  0.070300601	-8.026900E+01	  0.070300601	2.881400E+01	  0.070300601	-5.032600E+01
253	  0.070501000	-4.677000E+00	  0.070501000	-8.045000E+01	  0.070501000	2.874300E+01	  0.070501000	-5.017900E+01
254	  0.070701398	-4.676000E+00	  0.070701398	-8.065200E+01	  0.070701398	2.863900E+01	  0.070701398	-5.003300E+01
255	  0.070901804	-4.677000E+00	  0.070901804	-8.088400E+01	  0.070901804	2.852800E+01	  0.070901804	-4.986000E+01
256	  0.071102202	-4.683000E+00	  0.071102202	-8.104300E+01	  0.071102202	2.847800E+01	  0.071102202	-4.972600E+01
257	  0.071302600	-4.687000E+00	  0.071302600	-8.125200E+01	  0.071302600	2.839200E+01	  0.071302600	-4.956300E+01
258	  0.071503006	-4.691000E+00	  0.071503006	-8.149500E+01	  0.071503006	2.829500E+01	  0.071503006	-4.937200E+01
259	  0.071703404	-4.700000E+00	  0.071703404	-8.175500E+01	  0.071703404	2.821100E+01	  0.071703404	-4.915700E+01
260	  0.071903802	-4.708000E+00	  0.071903802	-8.200400E+01	  0.071903802	2.812800E+01	  0.071903802	-4.895200E+01
261	  0.072104208	-4.711000E+00	  0.072104208	-8.227200E+01	  0.072104208	2.801500E+01	  0.072104208	-4.875000E+01
262	  0.072304606	-4.718000E+00	  0.072304606	-8.253100E+01	  0.072304606	2.792400E+01	  0.072304606	-4.854500E+01
263	  0.072505005	-4.718000E+00	  0.072505005	-8.282000E+01	  0.072505005	2.778800E+01	  0.072505005	-4.833900E+01
264	  0.072705410	-4.722000E+00	  0.072705410	-8.311300E+01	  0.072705410	2.767000E+01	  0.072705410	-4.811900E+01
265	  0.072905809	-4.722000E+00	  0.072905809	-8.339400E+01	  0.072905809	2.754100E+01	  0.072905809	-4.792000E+01
266	  0.073106214	-4.724000E+00	  0.073106214	-8.363400E+01	  0.073106214	2.743700E+01	  0.073106214	-4.774700E+01
267	  0.073306613	-4.713000E+00	  0.073306613	-8.393300E+01	  0.073306613	2.725300E+01	  0.073306613	-4.756800E+01
268	  0.073507011	-4.708000E+00	  0.073507011	-8.415500E+01	  0.073507011	2.712800E+01	  0.073507011	-4.742900E+01
269	  0.073707417	-4.703000E+00	  0.073707417	-8.439100E+01	  0.073707417	2.700000E+01	  0.073707417	-4.727800E+01
270	  0.073907815	-4.703000E+00	  0.073907815	-8.458800E+01	  0.073907815	2.691400E+01	  0.073907815	-4.713900E+01
271	  0.074108213	-4.700000E+00	  0.074108213	-8.484500E+01	  0.074108213	2.678500E+01	  0.074108213	-4.697000E+01
272	  0.074308619	-4.694000E+00	  0.074308619	-8.506200E+01	  0.074308619	2.666400E+01	  0.074308619	-4.683600E+01
273	  0.074509017	-4.691000E+00	  0.074509017	-8.531100E+01	  0.074509017	2.654300E+01	  0.074509017	-4.667100E+01
274	  0.074709415	-4.695000E+00	  0.074709415	-8.550200E+01	  0.074709415	2.647800E+01	  0.074709415	-4.652800E+01
275	  0.074909821	-4.691000E+00	  0.074909821	-8.572200E+01	  0.074909821	2.636500E+01	  0.074909821	-4.638700E+01
276	  0.075110219	-4.687000E+00	  0.075110219	-8.595500E+01	  0.075110219	2.624800E+01	  0.075110219	-4.623700E+01
277	  0.075310618	-4.691000E+00	  0.075310618	-8.616400E+01	  0.075310618	2.617700E+01	  0.075310618	-4.608300E+01
278	  0.075511023	-4.689000E+00	  0.075511023	-8.636300E+01	  0.075511023	2.608400E+01	  0.075511023	-4.595200E+01
279	  0.075711422	-4.688000E+00	  0.075711422	-8.655800E+01	  0.075711422	2.599700E+01	  0.075711422	-4.582200E+01
280	  0.075911827	-4.688000E+00	  0.075911827	-8.678700E+01	  0.075911827	2.590300E+01	  0.075911827	-4.566500E+01
281	  0.076112226	-4.692000E+00	  0.076112226	-8.696400E+01	  0.076112226	2.584700E+01	  0.076112226	-4.553400E+01
282	  0.076312624	-4.692000E+00	  0.076312624	-8.716100E+01	  0.076312624	2.576600E+01	  0.076312624	-4.540000E+01
283	  0.076513030	-4.693000E+00	  0.076513030	-8.740200E+01	  0.076513030	2.567400E+01	  0.076513030	-4.523200E+01
284	  0.076713428	-4.698000E+00	  0.076713428	-8.759800E+01	  0.076713428	2.562000E+01	  0.076713428	-4.508500E+01
285	  0.076913826	-4.702000E+00	  0.076913826	-8.782200E+01	  0.076913826	2.554500E+01	  0.076913826	-4.492400E+01
286	  0.077114232	-4.709000E+00	  0.077114232	-8.805200E+01	  0.077114232	2.548700E+01	  0.077114232	-4.474900E+01
287	  0.077314630	-4.719000E+00	  0.077314630	-8.832200E+01	  0.077314630	2.542300E+01	  0.077314630	-4.454300E+01
288	  0.077515028	-4.722000E+00	  0.077515028	-8.857100E+01	  0.077515028	2.533600E+01	  0.077515028	-4.436900E+01
289	  0.077715434	-4.733000E+00	  0.077715434	-8.882400E+01	  0.077715434	2.528500E+01	  0.077715434	-4.417300E+01
290	  0.077915832	-4.736000E+00	  0.077915832	-8.911400E+01	  0.077915832	2.518800E+01	  0.077915832	-4.397100E+01
291	  0.078116231	-4.733000E+00	  0.078116231	-8.933700E+01	  0.078116231	2.508700E+01	  0.078116231	-4.383300E+01
292	  0.078316636	-4.735000E+00	  0.078316636	-8.966900E+01	  0.078316636	2.497000E+01	  0.078316636	-4.360700E+01
293	  0.078517035	-4.734000E+00	  0.078517035	-8.992100E+01	  0.078517035	2.487100E+01	  0.078517035	-4.344400E+01
294	  0.078717433	-4.725000E+00	  0.078717433	-9.017700E+01	  0.078717433	2.473300E+01	  0.078717433	-4.329800E+01
295	  0.078917839	-4.722000E+00	  0.078917839	-9.042800E+01	  0.078917839	2.462700E+01	  0.078917839	-4.314100E+01
296	  0.079118237	-4.721000E+00	  0.079118237	-9.066900E+01	  0.079118237	2.453500E+01	  0.079118237	-4.298500E+01
297	  0.079318643	-4.714000E+00	  0.079318643	-9.088800E+01	  0.079318643	2.442400E+01	  0.079318643	-4.285900E+01
298	  0.079519041	-4.712000E+00	  0.079519041	-9.109500E+01	  0.079519041	2.433900E+01	  0.079519041	-4.273000E+01
299	  0.079719439	-4.705000E+00	  0.079719439	-9.131900E+01	  0.079719439	2.423200E+01	  0.079719439	-4.259900E+01
300	  0.079919845	-4.709000E+00	  0.079919845	-9.153200E+01	  0.079919845	2.417200E+01	  0.079919845	-4.245000E+01
301	  0.080120243	-4.708000E+00	  0.080120243	-9.173600E+01	  0.080120243	2.409400E+01	  0.080120243	-4.232100E+01
302	  0.080320641	-4.707000E+00	  0.080320641	-9.193000E+01	  0.080320641	2.402100E+01	  0.080320641	-4.219800E+01
303	  0.080521047	-4.709000E+00	  0.080521047	-9.213300E+01	  0.080521047	2.395800E+01	  0.080521047	-4.206200E+01
304	  0.080721445	-4.707000E+00	  0.080721445	-9.230300E+01	  0.080721445	2.389000E+01	  0.080721445	-4.195800E+01
305	  0.080921844	-4.710000E+00	  0.080921844	-9.253900E+01	  0.080921844	2.382100E+01	  0.080921844	-4.179800E+01
306	  0.081122249	-4.708000E+00	  0.081122249	-9.275300E+01	  0.081122249	2.373600E+01	  0.081122249	-4.166700E+01
307	  0.081322648	-4.709000E+00	  0.081322648	-9.293300E+01	  0.081322648	2.368100E+01	  0.081322648	-4.154800E+01
308	  0.081523046	-4.714000E+00	  0.081523046	-9.317200E+01	  0.081523046	2.362000E+01	  0.081523046	-4.138400E+01
309	  0.081723452	-4.710000E+00	  0.081723452	-9.336100E+01	  0.081723452	2.353600E+01	  0.081723452	-4.127400E+01
310	  0.081923850	-4.716000E+00	  0.081923850	-9.355400E+01	  0.081923850	2.349600E+01	  0.081923850	-4.113800E+01
311	  0.082124248	-4.721000E+00	  0.082124248	-9.377400E+01	  0.082124248	2.344500E+01	  0.082124248	-4.098600E+01
312	  0.082324654	-4.731000E+00	  0.082324654	-9.401400E+01	  0.082324654	2.340300E+01	  0.082324654	-4.081400E+01
313	  0.082525052	-4.735000E+00	  0.082525052	-9.421900E+01	  0.082525052	2.335500E+01	  0.082525052	-4.067400E+01
314	  0.082725458	-4.742000E+00	  0.082725458	-9.447700E+01	  0.082725458	2.329900E+01	  0.082725458	-4.049700E+01
315	  0.082925856	-4.752000E+00	  0.082925856	-9.476200E+01	  0.082925856	2.324700E+01	  0.082925856	-4.029600E+01
316	  0.083126254	-4.758000E+00	  0.083126254	-9.502600E+01	  0.083126254	2.318200E+01	  0.083126254	-4.012000E+01
317	  0.083326660	-4.765000E+00	  0.083326660	-9.529100E+01	  0.083326660	2.312500E+01	  0.083326660	-3.994000E+01
318	  0.083527058	-4.764000E+00	  0.083527058	-9.560600E+01	  0.083527058	2.302200E+01	  0.083527058	-3.974600E+01
319	  0.083727457	-4.765000E+00	  0.083727457	-9.591600E+01	  0.083727457	2.292700E+01	  0.083727457	-3.955200E+01
320	  0.083927862	-4.760000E+00	  0.083927862	-9.620300E+01	  0.083927862	2.281500E+01	  0.083927862	-3.938600E+01
321	  0.084128261	-4.760000E+00	  0.084128261	-9.645100E+01	  0.084128261	2.273900E+01	  0.084128261	-3.923300E+01
322	  0.084328659	-4.750000E+00	  0.084328659	-9.671100E+01	  0.084328659	2.261700E+01	  0.084328659	-3.909400E+01
323	  0.084529065	-4.751000E+00	  0.084529065	-9.698900E+01	  0.084529065	2.253800E+01	  0.084529065	-3.892100E+01
324	  0.084729463	-4.748000E+00	  0.084729463	-9.721200E+01	  0.084729463	2.245700E+01	  0.084729463	-3.879000E+01
325	  0.084929861	-4.746000E+00	  0.084929861	-9.744900E+01	  0.084929861	2.237400E+01	  0.084929861	-3.865100E+01
326	  0.085130267	-4.741000E+00	  0.085130267	-9.767900E+01	  0.085130267	2.228900E+01	  0.085130267	-3.851900E+01
327	  0.085330658	-4.739000E+00	  0.085330658	-9.791300E+01	  0.085330658	2.221000E+01	  0.085330658	-3.838200E+01
328	  0.085531056	-4.737000E+00	  0.085531056	-9.811700E+01	  0.085531056	2.214200E+01	  0.085531056	-3.826100E+01
329	  0.085731462	-4.738000E+00	  0.085731462	-9.831300E+01	  0.085731462	2.208600E+01	  0.085731462	-3.814200E+01
330	  0.085931860	-4.739000E+00	  0.085931860	-9.853500E+01	  0.085931860	2.202600E+01	  0.085931860	-3.800500E+01
331	  0.086132258	-4.733000E+00	  0.086132258	-9.877500E+01	  0.086132258	2.193100E+01	  0.086132258	-3.787200E+01
332	  0.086332664	-4.740000E+00	  0.086332664	-9.901400E+01	  0.086332664	2.189000E+01	  0.086332664	-3.771500E+01
333	  0.086533062	-4.737000E+00	  0.086533062	-9.921500E+01	  0.086533062	2.182100E+01	  0.086533062	-3.760000E+01
334	  0.086733460	-4.736000E+00	  0.086733460	-9.944700E+01	  0.086733460	2.175300E+01	  0.086733460	-3.746200E+01
335	  0.086933866	-4.735000E+00	  0.086933866	-9.962800E+01	  0.086933866	2.169700E+01	  0.086933866	-3.735500E+01
336	  0.087134264	-4.736000E+00	  0.087134264	-9.981700E+01	  0.087134264	2.164500E+01	  0.087134264	-3.724200E+01
337	  0.087334670	-4.741000E+00	  0.087334670	-1.000350E+02	  0.087334670	2.160400E+01	  0.087334670	-3.710200E+01
338	  0.087535068	-4.742000E+00	  0.087535068	-1.002550E+02	  0.087535068	2.154600E+01	  0.087535068	-3.697000E+01
339	  0.087735467	-4.748000E+00	  0.087735467	-1.004680E+02	  0.087735467	2.151100E+01	  0.087735467	-3.683300E+01
340	  0.087935872	-4.751000E+00	  0.087935872	-1.006780E+02	  0.087935872	2.146400E+01	  0.087935872	-3.670400E+01
341	  0.088136271	-4.757000E+00	  0.088136271	-1.009120E+02	  0.088136271	2.142300E+01	  0.088136271	-3.655400E+01
342	  0.088336669	-4.765000E+00	  0.088336669	-1.011520E+02	  0.088336669	2.139000E+01	  0.088336669	-3.639900E+01
343	  0.088537075	-4.772000E+00	  0.088537075	-1.013960E+02	  0.088537075	2.135200E+01	  0.088537075	-3.624200E+01
344	  0.088737473	-4.776000E+00	  0.088737473	-1.016610E+02	  0.088737473	2.129700E+01	  0.088737473	-3.608000E+01
345	  0.088937871	-4.776000E+00	  0.088937871	-1.019240E+02	  0.088937871	2.122500E+01	  0.088937871	-3.592700E+01
346	  0.089138277	-4.776000E+00	  0.089138277	-1.021860E+02	  0.089138277	2.115600E+01	  0.089138277	-3.577400E+01
347	  0.089338675	-4.777000E+00	  0.089338675	-1.024690E+02	  0.089338675	2.108700E+01	  0.089338675	-3.560700E+01
348	  0.089539073	-4.766000E+00	  0.089539073	-1.027340E+02	  0.089539073	2.097400E+01	  0.089539073	-3.547300E+01
349	  0.089739479	-4.770000E+00	  0.089739479	-1.029520E+02	  0.089739479	2.093100E+01	  0.089739479	-3.534100E+01
350	  0.089939877	-4.768000E+00	  0.089939877	-1.032010E+02	  0.089939877	2.086300E+01	  0.089939877	-3.519900E+01
351	  0.090140276	-4.766000E+00	  0.090140276	-1.034300E+02	  0.090140276	2.079600E+01	  0.090140276	-3.507100E+01
352	  0.090340681	-4.757000E+00	  0.090340681	-1.036260E+02	  0.090340681	2.071300E+01	  0.090340681	-3.497300E+01
353	  0.090541080	-4.763000E+00	  0.090541080	-1.038420E+02	  0.090541080	2.068100E+01	  0.090541080	-3.483900E+01
354	  0.090741485	-4.761000E+00	  0.090741485	-1.040700E+02	  0.090741485	2.061400E+01	  0.090741485	-3.471300E+01
355	  0.090941884	-4.766000E+00	  0.090941884	-1.042800E+02	  0.090941884	2.058000E+01	  0.090941884	-3.458400E+01
356	  0.091142282	-4.770000E+00	  0.091142282	-1.045060E+02	  0.091142282	2.054100E+01	  0.091142282	-3.444800E+01
357	  0.091342688	-4.772000E+00	  0.091342688	-1.047230E+02	  0.091342688	2.049500E+01	  0.091342688	-3.432100E+01
358	  0.091543086	-4.777000E+00	  0.091543086	-1.049560E+02	  0.091543086	2.045700E+01	  0.091543086	-3.418100E+01
359	  0.091743484	-4.772000E+00	  0.091743484	-1.052070E+02	  0.091743484	2.037700E+01	  0.091743484	-3.404700E+01
360	  0.091943890	-4.777000E+00	  0.091943890	-1.054360E+02	  0.091943890	2.034000E+01	  0.091943890	-3.390900E+01
361	  0.092144288	-4.776000E+00	  0.092144288	-1.056710E+02	  0.092144288	2.027900E+01	  0.092144288	-3.377900E+01
362	  0.092344686	-4.785000E+00	  0.092344686	-1.058840E+02	  0.092344686	2.026400E+01	  0.092344686	-3.364400E+01
363	  0.092545092	-4.784000E+00	  0.092545092	-1.061350E+02	  0.092545092	2.019900E+01	  0.092545092	-3.350500E+01
364	  0.092745490	-4.786000E+00	  0.092745490	-1.063490E+02	  0.092745490	2.015700E+01	  0.092745490	-3.338200E+01
365	  0.092945889	-4.791000E+00	  0.092945889	-1.066040E+02	  0.092945889	2.011400E+01	  0.092945889	-3.323200E+01
366	  0.093146294	-4.790000E+00	  0.093146294	-1.068440E+02	  0.093146294	2.005600E+01	  0.093146294	-3.310000E+01
367	  0.093346693	-4.801000E+00	  0.093346693	-1.070800E+02	  0.093346693	2.004200E+01	  0.093346693	-3.295100E+01
368	  0.093547091	-4.804000E+00	  0.093547091	-1.073330E+02	  0.093547091	1.999200E+01	  0.093547091	-3.280700E+01
369	  0.093747497	-4.808000E+00	  0.093747497	-1.075880E+02	  0.093747497	1.995200E+01	  0.093747497	-3.265900E+01
370	  0.093947895	-4.810000E+00	  0.093947895	-1.078640E+02	  0.093947895	1.989500E+01	  0.093947895	-3.250400E+01
371	  0.094148301	-4.812000E+00	  0.094148301	-1.081230E+02	  0.094148301	1.984400E+01	  0.094148301	-3.235800E+01
372	  0.094348699	-4.810000E+00	  0.094348699	-1.084030E+02	  0.094348699	1.977600E+01	  0.094348699	-3.220700E+01
373	  0.094549097	-4.811000E+00	  0.094549097	-1.086620E+02	  0.094549097	1.972000E+01	  0.094549097	-3.206400E+01
374	  0.094749503	-4.806000E+00	  0.094749503	-1.089200E+02	  0.094749503	1.964400E+01	  0.094749503	-3.193000E+01
375	  0.094949901	-4.804000E+00	  0.094949901	-1.091740E+02	  0.094949901	1.958400E+01	  0.094949901	-3.179300E+01
376	  0.095150299	-4.801000E+00	  0.095150299	-1.094350E+02	  0.095150299	1.951400E+01	  0.095150299	-3.165600E+01
377	  0.095350705	-4.795000E+00	  0.095350705	-1.096390E+02	  0.095350705	1.945000E+01	  0.095350705	-3.155400E+01
378	  0.095551103	-4.790000E+00	  0.095551103	-1.098560E+02	  0.095551103	1.938600E+01	  0.095551103	-3.144200E+01
379	  0.095751502	-4.786000E+00	  0.095751502	-1.100940E+02	  0.095751502	1.932200E+01	  0.095751502	-3.131800E+01
380	  0.095951907	-4.787000E+00	  0.095951907	-1.102890E+02	  0.095951907	1.928200E+01	  0.095951907	-3.121200E+01
381	  0.096152306	-4.792000E+00	  0.096152306	-1.104920E+02	  0.096152306	1.926000E+01	  0.096152306	-3.109500E+01
382	  0.096352704	-4.789000E+00	  0.096352704	-1.107050E+02	  0.096352704	1.920600E+01	  0.096352704	-3.098400E+01
383	  0.096553110	-4.791000E+00	  0.096553110	-1.109300E+02	  0.096553110	1.916500E+01	  0.096553110	-3.086000E+01
384	  0.096753508	-4.796000E+00	  0.096753508	-1.111640E+02	  0.096753508	1.913400E+01	  0.096753508	-3.072700E+01
385	  0.096953906	-4.795000E+00	  0.096953906	-1.113970E+02	  0.096953906	1.908300E+01	  0.096953906	-3.060300E+01
386	  0.097154312	-4.799000E+00	  0.097154312	-1.116080E+02	  0.097154312	1.905300E+01	  0.097154312	-3.048600E+01
387	  0.097354710	-4.799000E+00	  0.097354710	-1.118390E+02	  0.097354710	1.900700E+01	  0.097354710	-3.036200E+01
388	  0.097555116	-4.802000E+00	  0.097555116	-1.120680E+02	  0.097555116	1.897400E+01	  0.097555116	-3.023500E+01
389	  0.097755514	-4.804000E+00	  0.097755514	-1.123280E+02	  0.097755514	1.892700E+01	  0.097755514	-3.009500E+01
390	  0.097955912	-4.809000E+00	  0.097955912	-1.125550E+02	  0.097955912	1.889800E+01	  0.097955912	-2.996800E+01
391	  0.098156318	-4.808000E+00	  0.098156318	-1.128010E+02	  0.098156318	1.884700E+01	  0.098156318	-2.983800E+01
392	  0.098356716	-4.811000E+00	  0.098356716	-1.130330E+02	  0.098356716	1.881200E+01	  0.098356716	-2.971200E+01
393	  0.098557115	-4.817000E+00	  0.098557115	-1.132900E+02	  0.098557115	1.878500E+01	  0.098557115	-2.956700E+01
394	  0.098757520	-4.818000E+00	  0.098757520	-1.135390E+02	  0.098757520	1.874000E+01	  0.098757520	-2.943600E+01
395	  0.098957919	-4.824000E+00	  0.098957919	-1.137800E+02	  0.098957919	1.871400E+01	  0.098957919	-2.930200E+01
396	  0.099158317	-4.825000E+00	  0.099158317	-1.140500E+02	  0.099158317	1.866700E+01	  0.099158317	-2.915800E+01
397	  0.099358723	-4.828000E+00	  0.099358723	-1.143160E+02	  0.099358723	1.862400E+01	  0.099358723	-2.901600E+01
398	  0.099559121	-4.828000E+00	  0.099559121	-1.145890E+02	  0.099559121	1.857500E+01	  0.099559121	-2.887300E+01
399	  0.099759519	-4.823000E+00	  0.099759519	-1.148430E+02	  0.099759519	1.851100E+01	  0.099759519	-2.874600E+01
400	  0.099959925	-4.819000E+00	  0.099959925	-1.150900E+02	  0.099959925	1.845200E+01	  0.099959925	-2.862300E+01
401	  0.100160323	-4.815000E+00	  0.100160323	-1.153780E+02	  0.100160323	1.838400E+01	  0.100160323	-2.847800E+01
402	  0.100360721	-4.810000E+00	  0.100360721	-1.156200E+02	  0.100360721	1.832300E+01	  0.100360721	-2.835900E+01
403	  0.100561127	-4.809000E+00	  0.100561127	-1.158400E+02	  0.100561127	1.828100E+01	  0.100561127	-2.824600E+01
404	  0.100761525	-4.801000E+00	  0.100761525	-1.160290E+02	  0.100761525	1.822000E+01	  0.100761525	-2.815700E+01
405	  0.100961931	-4.799000E+00	  0.100961931	-1.162150E+02	  0.100961931	1.817700E+01	  0.100961931	-2.806500E+01
406	  0.101162329	-4.793000E+00	  0.101162329	-1.164480E+02	  0.101162329	1.811600E+01	  0.101162329	-2.795100E+01
407	  0.101362728	-4.800000E+00	  0.101362728	-1.166260E+02	  0.101362728	1.810700E+01	  0.101362728	-2.785200E+01
408	  0.101563133	-4.799000E+00	  0.101563133	-1.168560E+02	  0.101563133	1.806500E+01	  0.101563133	-2.773400E+01
409	  0.101763532	-4.799000E+00	  0.101763532	-1.170600E+02	  0.101763532	1.802900E+01	  0.101763532	-2.763000E+01
410	  0.101963930	-4.803000E+00	  0.101963930	-1.172800E+02	  0.101963930	1.800500E+01	  0.101963930	-2.751200E+01
411	  0.102164336	-4.807000E+00	  0.102164336	-1.174340E+02	  0.102164336	1.799200E+01	  0.102164336	-2.742900E+01
412	  0.102364734	-4.807000E+00	  0.102364734	-1.176820E+02	  0.102364734	1.794900E+01	  0.102364734	-2.730200E+01
413	  0.102565132	-4.816000E+00	  0.102565132	-1.178920E+02	  0.102565132	1.794400E+01	  0.102565132	-2.718500E+01
414	  0.102765530	-4.812000E+00	  0.102765530	-1.181000E+02	  0.102765530	1.789600E+01	  0.102765530	-2.708300E+01
415	  0.102965929	-4.822000E+00	  0.102965929	-1.183490E+02	  0.102965929	1.788600E+01	  0.102965929	-2.694600E+01
416	  0.103166327	-4.822000E+00	  0.103166327	-1.185400E+02	  0.103166327	1.785300E+01	  0.103166327	-2.685000E+01
417	  0.103366733	-4.828000E+00	  0.103366733	-1.187860E+02	  0.103366733	1.783300E+01	  0.103366733	-2.671800E+01
418	  0.103567131	-4.830000E+00	  0.103567131	-1.190240E+02	  0.103567131	1.780100E+01	  0.103567131	-2.659600E+01
419	  0.103767529	-4.843000E+00	  0.103767529	-1.192690E+02	  0.103767529	1.780200E+01	  0.103767529	-2.645900E+01
420	  0.103967935	-4.849000E+00	  0.103967935	-1.195190E+02	  0.103967935	1.778200E+01	  0.103967935	-2.632600E+01
421	  0.104168333	-4.849000E+00	  0.104168333	-1.198010E+02	  0.104168333	1.773600E+01	  0.104168333	-2.618500E+01
422	  0.104368731	-4.854000E+00	  0.104368731	-1.200740E+02	  0.104368731	1.771000E+01	  0.104368731	-2.604300E+01
423	  0.104569137	-4.860000E+00	  0.104569137	-1.202940E+02	  0.104569137	1.769200E+01	  0.104569137	-2.592700E+01
424	  0.104769535	-4.857000E+00	  0.104769535	-1.205950E+02	  0.104769535	1.763600E+01	  0.104769535	-2.578000E+01
425	  0.104969934	-4.862000E+00	  0.104969934	-1.208110E+02	  0.104969934	1.761700E+01	  0.104969934	-2.566700E+01
426	  0.105170339	-4.863000E+00	  0.105170339	-1.211710E+02	  0.105170339	1.756300E+01	  0.105170339	-2.548700E+01
427	  0.105370738	-4.863000E+00	  0.105370738	-1.214260E+02	  0.105370738	1.752500E+01	  0.105370738	-2.536100E+01
428	  0.105571143	-4.860000E+00	  0.105571143	-1.216530E+02	  0.105571143	1.747800E+01	  0.105571143	-2.525200E+01
429	  0.105771542	-4.864000E+00	  0.105771542	-1.219660E+02	  0.105771542	1.744400E+01	  0.105771542	-2.509300E+01
430	  0.105971940	-4.855000E+00	  0.105971940	-1.222070E+02	  0.105971940	1.738000E+01	  0.105971940	-2.498300E+01
431	  0.106172346	-4.851000E+00	  0.106172346	-1.224480E+02	  0.106172346	1.732900E+01	  0.106172346	-2.486900E+01
432	  0.106372744	-4.846000E+00	  0.106372744	-1.226660E+02	  0.106372744	1.728000E+01	  0.106372744	-2.476600E+01
433	  0.106573142	-4.844000E+00	  0.106573142	-1.228930E+02	  0.106573142	1.723900E+01	  0.106573142	-2.465800E+01
434	  0.106773548	-4.846000E+00	  0.106773548	-1.231330E+02	  0.106773548	1.721000E+01	  0.106773548	-2.453800E+01
435	  0.106973946	-4.839000E+00	  0.106973946	-1.233130E+02	  0.106973946	1.716200E+01	  0.106973946	-2.445600E+01
436	  0.107174344	-4.842000E+00	  0.107174344	-1.235800E+02	  0.107174344	1.713300E+01	  0.107174344	-2.432300E+01
437	  0.107374750	-4.841000E+00	  0.107374750	-1.238220E+02	  0.107374750	1.709600E+01	  0.107374750	-2.420500E+01
438	  0.107575148	-4.840000E+00	  0.107575148	-1.240190E+02	  0.107575148	1.706300E+01	  0.107575148	-2.411000E+01
439	  0.107775547	-4.838000E+00	  0.107775547	-1.242140E+02	  0.107775547	1.702900E+01	  0.107775547	-2.401700E+01
440	  0.107975952	-4.842000E+00	  0.107975952	-1.244210E+02	  0.107975952	1.701200E+01	  0.107975952	-2.391300E+01
441	  0.108176351	-4.847000E+00	  0.108176351	-1.246550E+02	  0.108176351	1.699400E+01	  0.108176351	-2.379500E+01
442	  0.108376749	-4.849000E+00	  0.108376749	-1.248730E+02	  0.108376749	1.697100E+01	  0.108376749	-2.368700E+01
443	  0.108577155	-4.851000E+00	  0.108577155	-1.251150E+02	  0.108577155	1.694400E+01	  0.108577155	-2.356800E+01
444	  0.108777553	-4.859000E+00	  0.108777553	-1.253100E+02	  0.108777553	1.694000E+01	  0.108777553	-2.346700E+01
445	  0.108977959	-4.855000E+00	  0.108977959	-1.255480E+02	  0.108977959	1.689600E+01	  0.108977959	-2.335600E+01
446	  0.109178357	-4.862000E+00	  0.109178357	-1.258190E+02	  0.109178357	1.688200E+01	  0.109178357	-2.321900E+01
447	  0.109378755	-4.874000E+00	  0.109378755	-1.260410E+02	  0.109378755	1.688900E+01	  0.109378755	-2.310200E+01
448	  0.109579161	-4.876000E+00	  0.109579161	-1.262930E+02	  0.109579161	1.686100E+01	  0.109579161	-2.297900E+01
449	  0.109779559	-4.874000E+00	  0.109779559	-1.265430E+02	  0.109779559	1.682200E+01	  0.109779559	-2.286100E+01
450	  0.109979957	-4.873000E+00	  0.109979957	-1.267900E+02	  0.109979957	1.678500E+01	  0.109979957	-2.274400E+01
451	  0.110180363	-4.880000E+00	  0.110180363	-1.270230E+02	  0.110180363	1.677700E+01	  0.110180363	-2.262700E+01
452	  0.110380761	-4.878000E+00	  0.110380761	-1.272950E+02	  0.110380761	1.673500E+01	  0.110380761	-2.249900E+01
453	  0.110581160	-4.876000E+00	  0.110581160	-1.275110E+02	  0.110581160	1.670000E+01	  0.110581160	-2.239800E+01
454	  0.110781565	-4.884000E+00	  0.110781565	-1.277740E+02	  0.110781565	1.668900E+01	  0.110781565	-2.226700E+01
455	  0.110981964	-4.885000E+00	  0.110981964	-1.280620E+02	  0.110981964	1.665700E+01	  0.110981964	-2.212900E+01
456	  0.111182362	-4.881000E+00	  0.111182362	-1.283080E+02	  0.111182362	1.661200E+01	  0.111182362	-2.201600E+01
457	  0.111382768	-4.881000E+00	  0.111382768	-1.285230E+02	  0.111382768	1.658300E+01	  0.111382768	-2.191500E+01
458	  0.111583166	-4.874000E+00	  0.111583166	-1.287950E+02	  0.111583166	1.652900E+01	  0.111583166	-2.179200E+01
459	  0.111783572	-4.878000E+00	  0.111783572	-1.290390E+02	  0.111783572	1.651100E+01	  0.111783572	-2.167400E+01
460	  0.111983970	-4.875000E+00	  0.111983970	-1.292480E+02	  0.111983970	1.647600E+01	  0.111983970	-2.157800E+01
461	  0.112184368	-4.874000E+00	  0.112184368	-1.295090E+02	  0.112184368	1.644000E+01	  0.112184368	-2.145600E+01
462	  0.112384774	-4.879000E+00	  0.112384774	-1.297200E+02	  0.112384774	1.642900E+01	  0.112384774	-2.135300E+01
463	  0.112585172	-4.870000E+00	  0.112585172	-1.299800E+02	  0.112585172	1.637000E+01	  0.112585172	-2.123800E+01
464	  0.112785570	-4.875000E+00	  0.112785570	-1.302230E+02	  0.112785570	1.635700E+01	  0.112785570	-2.112000E+01
465	  0.112985976	-4.871000E+00	  0.112985976	-1.303930E+02	  0.112985976	1.632400E+01	  0.112985976	-2.104400E+01
466	  0.113186374	-4.874000E+00	  0.113186374	-1.306450E+02	  0.113186374	1.630300E+01	  0.113186374	-2.092400E+01
467	  0.113386773	-4.880000E+00	  0.113386773	-1.309070E+02	  0.113386773	1.629000E+01	  0.113386773	-2.079800E+01
468	  0.113587178	-4.879000E+00	  0.113587178	-1.311020E+02	  0.113587178	1.626400E+01	  0.113587178	-2.070800E+01
469	  0.113787577	-4.881000E+00	  0.113787577	-1.313940E+02	  0.113787577	1.623600E+01	  0.113787577	-2.057000E+01
470	  0.113987975	-4.879000E+00	  0.113987975	-1.316140E+02	  0.113987975	1.620400E+01	  0.113987975	-2.047000E+01
471	  0.114188381	-4.885000E+00	  0.114188381	-1.318720E+02	  0.114188381	1.619300E+01	  0.114188381	-2.034600E+01
472	  0.114388779	-4.880000E+00	  0.114388779	-1.320840E+02	  0.114388779	1.615200E+01	  0.114388779	-2.025200E+01
473	  0.114589177	-4.881000E+00	  0.114589177	-1.323090E+02	  0.114589177	1.613100E+01	  0.114589177	-2.014700E+01
474	  0.114789583	-4.884000E+00	  0.114789583	-1.325660E+02	  0.114789583	1.610900E+01	  0.114789583	-2.002600E+01
475	  0.114989981	-4.884000E+00	  0.114989981	-1.328020E+02	  0.114989981	1.608400E+01	  0.114989981	-1.991700E+01
476	  0.115190387	-4.888000E+00	  0.115190387	-1.330340E+02	  0.115190387	1.607100E+01	  0.115190387	-1.980700E+01
477	  0.115390785	-4.887000E+00	  0.115390785	-1.332680E+02	  0.115390785	1.604000E+01	  0.115390785	-1.970100E+01
478	  0.115591183	-4.887000E+00	  0.115591183	-1.334960E+02	  0.115591183	1.601500E+01	  0.115591183	-1.959700E+01
479	  0.115791589	-4.888000E+00	  0.115791589	-1.337590E+02	  0.115791589	1.599000E+01	  0.115791589	-1.947500E+01
480	  0.115991987	-4.889000E+00	  0.115991987	-1.339740E+02	  0.115991987	1.597000E+01	  0.115991987	-1.937600E+01
481	  0.116192386	-4.894000E+00	  0.116192386	-1.342210E+02	  0.116192386	1.595900E+01	  0.116192386	-1.925900E+01
482	  0.116392791	-4.890000E+00	  0.116392791	-1.344580E+02	  0.116392791	1.591900E+01	  0.116392791	-1.915400E+01
483	  0.116593190	-4.888000E+00	  0.116593190	-1.346940E+02	  0.116593190	1.588800E+01	  0.116593190	-1.904800E+01
484	  0.116793588	-4.883000E+00	  0.116793588	-1.349340E+02	  0.116793588	1.585000E+01	  0.116793588	-1.894200E+01
485	  0.116993994	-4.892000E+00	  0.116993994	-1.351580E+02	  0.116993994	1.585300E+01	  0.116993994	-1.883400E+01
486	  0.117194392	-4.889000E+00	  0.117194392	-1.354140E+02	  0.117194392	1.581700E+01	  0.117194392	-1.872000E+01
487	  0.117394790	-4.896000E+00	  0.117394790	-1.356280E+02	  0.117394790	1.581800E+01	  0.117394790	-1.861800E+01
488	  0.117595196	-4.891000E+00	  0.117595196	-1.358570E+02	  0.117595196	1.577900E+01	  0.117595196	-1.851800E+01
489	  0.117795594	-4.894000E+00	  0.117795594	-1.360910E+02	  0.117795594	1.576400E+01	  0.117795594	-1.841000E+01
490	  0.117995992	-4.891000E+00	  0.117995992	-1.363310E+02	  0.117995992	1.573100E+01	  0.117995992	-1.830300E+01
491	  0.118196398	-4.899000E+00	  0.118196398	-1.365720E+02	  0.118196398	1.573000E+01	  0.118196398	-1.818900E+01
492	  0.118396796	-4.900000E+00	  0.118396796	-1.368030E+02	  0.118396796	1.570900E+01	  0.118396796	-1.808500E+01
493	  0.118597202	-4.901000E+00	  0.118597202	-1.370170E+02	  0.118597202	1.569300E+01	  0.118597202	-1.798700E+01
494	  0.118797600	-4.905000E+00	  0.118797600	-1.372680E+02	  0.118797600	1.567800E+01	  0.118797600	-1.787300E+01
495	  0.118997999	-4.908000E+00	  0.118997999	-1.375150E+02	  0.118997999	1.566300E+01	  0.118997999	-1.776000E+01
496	  0.119198404	-4.907000E+00	  0.119198404	-1.377660E+02	  0.119198404	1.563800E+01	  0.119198404	-1.764800E+01
497	  0.119398803	-4.908000E+00	  0.119398803	-1.380380E+02	  0.119398803	1.561400E+01	  0.119398803	-1.752500E+01
498	  0.119599201	-4.908000E+00	  0.119599201	-1.382670E+02	  0.119599201	1.559200E+01	  0.119599201	-1.742300E+01
499	  0.119799607	-4.916000E+00	  0.119799607	-1.385260E+02	  0.119799607	1.558900E+01	  0.119799607	-1.730300E+01
500	  0.120000005	-4.917000E+00	  0.120000005	-1.387380E+02	  0.120000005	1.557200E+01	  0.120000005	-1.720700E+01
