! Anritsu VNA Master:             	Model: MS2036C/10/77
! SN:             	1601066
! /bd0/18may26.balun/4b.r50.3.txt
! Existing Calibration Information:
! TYPE:             	Current Settings	Active Cal Settings
! TIME:             	05/26/2018 05:20:10 PM	05/26/2018 05:08:07 PM
! INTERNAL TEMP:    	52.8 C	52.5 C
! # POINTS:         	500	500
! START FREQ:       	20.000 MHz	20.000 MHz
! STOP FREQ:        	120.000 MHz	120.000 MHz
! SOURCE POWER:     	High	High
! IFBW:             	50 Hz	50 Hz
! AVG FACTOR:       	  1 	  1 
! REF PLANE 1:      	0 mm	0 mm
! REF PLANE 2:      	0 mm	0 mm
! CAL TYPE:         	Full S11	Full S11
! CAL METHOD:       	SOLT	SOLT
! CAL LINE TYPE:    	Coax	Coax
! DUT PORT 1:       	K-Conn(M)	K-Conn(M)
! DUT PORT 2:       	K-Conn(M)	K-Conn(M)
! CAL STATUS:       	OK: Accuracy High	--
! PROP-V:       	0.700
! CABLE LOSS:       	0.000 dB/m
! REF IMPEDANCE:       	50.0
! Trace Specific Parameters:	TR1	TR2	TR3	TR4
! TRACE.#.Y (GRAPH TYPE)	LOG MAG	PHASE	REAL IMPEDANCE	IMAGINARY IMPEDANCE
! TRACE.#.X 	FREQ.GHZ	FREQ.GHZ	FREQ.GHZ	FREQ.GHZ
! S-PARAMETER	S11	S11	S11	S11
! SMOOTH/APERTURE %	0	0	0	0
! WINDOW	NSL	NSL	NSL	NSL
! GATING	OFF	OFF	OFF	OFF
! FGTD	OFF	OFF	OFF	OFF
Marker Information per Trace:	TR1	TR2	TR3	TR4
!MK1	--	--	--	--
!MK2	--	--	--	--
!MK3	--	--	--	--
!MK4	--	--	--	--
!MK5	--	--	--	--
!MK6	--	--	--	--
!MK7	--	--	--	--
!MK8	--	--	--	--
PNT	TR1.FREQ.GHZ	TR1.LOG MAG.dB	TR2.FREQ.GHZ	TR2.PHASE.deg	TR3.FREQ.GHZ	TR3.REAL IMPEDANCE.ohm	TR4.FREQ.GHZ	TR4.IMAGINARY IMPEDANCE.ohm
1	  0.020000000	-3.876600E+01	  0.020000000	5.155300E+01	  0.020000000	5.071300E+01	  0.020000000	9.150000E-01
2	  0.020200402	-3.879000E+01	  0.020200402	5.182800E+01	  0.020200402	5.070700E+01	  0.020200402	9.160000E-01
3	  0.020400802	-3.876000E+01	  0.020400802	5.241500E+01	  0.020400802	5.069900E+01	  0.020400802	9.260000E-01
4	  0.020601204	-3.886200E+01	  0.020601204	5.296200E+01	  0.020601204	5.068200E+01	  0.020601204	9.220000E-01
5	  0.020801604	-3.877600E+01	  0.020801604	5.231000E+01	  0.020801604	5.070000E+01	  0.020801604	9.230000E-01
6	  0.021002004	-3.885100E+01	  0.021002004	5.218900E+01	  0.021002004	5.069600E+01	  0.021002004	9.140000E-01
7	  0.021202406	-3.887400E+01	  0.021202406	5.265700E+01	  0.021202406	5.068600E+01	  0.021202406	9.170000E-01
8	  0.021402806	-3.876300E+01	  0.021402806	5.137600E+01	  0.021402806	5.071600E+01	  0.021402806	9.130000E-01
9	  0.021603208	-3.896600E+01	  0.021603208	5.216100E+01	  0.021603208	5.068700E+01	  0.021603208	9.010000E-01
10	  0.021803608	-3.894300E+01	  0.021803608	5.109500E+01	  0.021803608	5.070600E+01	  0.021803608	8.910000E-01
11	  0.022004008	-3.882100E+01	  0.022004008	5.039800E+01	  0.022004008	5.072700E+01	  0.022004008	8.950000E-01
12	  0.022204408	-3.876900E+01	  0.022204408	4.962600E+01	  0.022204408	5.074400E+01	  0.022204408	8.900000E-01
13	  0.022404809	-3.869300E+01	  0.022404809	4.887800E+01	  0.022404809	5.076200E+01	  0.022404809	8.890000E-01
14	  0.022605211	-3.862700E+01	  0.022605211	4.839700E+01	  0.022605211	5.077500E+01	  0.022605211	8.890000E-01
15	  0.022805611	-3.847900E+01	  0.022805611	4.755700E+01	  0.022805611	5.080200E+01	  0.022805611	8.930000E-01
16	  0.023006011	-3.847800E+01	  0.023006011	4.767700E+01	  0.023006011	5.080000E+01	  0.023006011	8.950000E-01
17	  0.023206413	-3.829800E+01	  0.023206413	4.839000E+01	  0.023206413	5.080500E+01	  0.023206413	9.240000E-01
18	  0.023406813	-3.820400E+01	  0.023406813	4.764000E+01	  0.023406813	5.082600E+01	  0.023406813	9.230000E-01
19	  0.023607215	-3.818800E+01	  0.023607215	4.778600E+01	  0.023607215	5.082600E+01	  0.023607215	9.270000E-01
20	  0.023807615	-3.808800E+01	  0.023807615	4.778300E+01	  0.023807615	5.083500E+01	  0.023807615	9.380000E-01
21	  0.024008015	-3.795600E+01	  0.024008015	4.850600E+01	  0.024008015	5.083600E+01	  0.024008015	9.630000E-01
22	  0.024208417	-3.794000E+01	  0.024208417	4.758400E+01	  0.024208417	5.085300E+01	  0.024208417	9.510000E-01
23	  0.024408817	-3.779000E+01	  0.024408817	4.847500E+01	  0.024408817	5.085200E+01	  0.024408817	9.820000E-01
24	  0.024609219	-3.789900E+01	  0.024609219	4.879100E+01	  0.024609219	5.083600E+01	  0.024609219	9.740000E-01
25	  0.024809619	-3.788600E+01	  0.024809619	4.824200E+01	  0.024809619	5.084700E+01	  0.024809619	9.670000E-01
26	  0.025010020	-3.780000E+01	  0.025010020	4.890700E+01	  0.025010020	5.084400E+01	  0.025010020	9.870000E-01
27	  0.025210422	-3.781200E+01	  0.025210422	4.903400E+01	  0.025210422	5.084000E+01	  0.025210422	9.870000E-01
28	  0.025410822	-3.777700E+01	  0.025410822	4.861900E+01	  0.025410822	5.085100E+01	  0.025410822	9.850000E-01
29	  0.025611224	-3.779900E+01	  0.025611224	4.809400E+01	  0.025611224	5.085800E+01	  0.025611224	9.750000E-01
30	  0.025811624	-3.787000E+01	  0.025811624	4.895400E+01	  0.025811624	5.083600E+01	  0.025811624	9.800000E-01
31	  0.026012026	-3.783300E+01	  0.026012026	4.779000E+01	  0.026012026	5.086000E+01	  0.026012026	9.670000E-01
32	  0.026212426	-3.783800E+01	  0.026212426	4.767300E+01	  0.026212426	5.086100E+01	  0.026212426	9.640000E-01
33	  0.026412826	-3.779500E+01	  0.026412826	4.612800E+01	  0.026412826	5.089200E+01	  0.026412826	9.450000E-01
34	  0.026613226	-3.772800E+01	  0.026613226	4.625700E+01	  0.026613226	5.089700E+01	  0.026613226	9.550000E-01
35	  0.026813626	-3.772000E+01	  0.026813626	4.532200E+01	  0.026813626	5.091300E+01	  0.026813626	9.410000E-01
36	  0.027014028	-3.772200E+01	  0.027014028	4.481600E+01	  0.027014028	5.092100E+01	  0.027014028	9.330000E-01
37	  0.027214428	-3.771800E+01	  0.027214428	4.455800E+01	  0.027214428	5.092600E+01	  0.027214428	9.290000E-01
38	  0.027414829	-3.756100E+01	  0.027414829	4.337300E+01	  0.027414829	5.096300E+01	  0.027414829	9.270000E-01
39	  0.027615231	-3.746400E+01	  0.027615231	4.310800E+01	  0.027615231	5.097800E+01	  0.027615231	9.330000E-01
40	  0.027815631	-3.726300E+01	  0.027815631	4.231400E+01	  0.027815631	5.101400E+01	  0.027815631	9.410000E-01
41	  0.028016033	-3.714600E+01	  0.028016033	4.232200E+01	  0.028016033	5.102800E+01	  0.028016033	9.540000E-01
42	  0.028216433	-3.702600E+01	  0.028216433	4.166900E+01	  0.028216433	5.105400E+01	  0.028216433	9.560000E-01
43	  0.028416833	-3.684000E+01	  0.028416833	4.141900E+01	  0.028416833	5.108100E+01	  0.028416833	9.720000E-01
44	  0.028617235	-3.665800E+01	  0.028617235	4.189100E+01	  0.028617235	5.109500E+01	  0.028617235	1.002000E+00
45	  0.028817635	-3.656000E+01	  0.028817635	4.204100E+01	  0.028817635	5.110500E+01	  0.028817635	1.017000E+00
46	  0.029018037	-3.644600E+01	  0.029018037	4.255200E+01	  0.029018037	5.111000E+01	  0.029018037	1.040000E+00
47	  0.029218437	-3.641500E+01	  0.029218437	4.248800E+01	  0.029218437	5.111500E+01	  0.029218437	1.043000E+00
48	  0.029418837	-3.629300E+01	  0.029418837	4.309800E+01	  0.029418837	5.112000E+01	  0.029418837	1.070000E+00
49	  0.029619239	-3.621800E+01	  0.029619239	4.348800E+01	  0.029619239	5.112200E+01	  0.029619239	1.087000E+00
50	  0.029819639	-3.609500E+01	  0.029819639	4.397700E+01	  0.029819639	5.112800E+01	  0.029819639	1.113000E+00
51	  0.030020041	-3.611300E+01	  0.030020041	4.396600E+01	  0.030020041	5.112600E+01	  0.030020041	1.110000E+00
52	  0.030220442	-3.606100E+01	  0.030220442	4.503100E+01	  0.030220442	5.111100E+01	  0.030220442	1.138000E+00
53	  0.030420844	-3.610300E+01	  0.030420844	4.568700E+01	  0.030420844	5.109300E+01	  0.030420844	1.145000E+00
54	  0.030621244	-3.607000E+01	  0.030621244	4.532100E+01	  0.030621244	5.110400E+01	  0.030621244	1.142000E+00
55	  0.030821644	-3.614900E+01	  0.030821644	4.556000E+01	  0.030821644	5.108900E+01	  0.030821644	1.136000E+00
56	  0.031022044	-3.607900E+01	  0.031022044	4.610500E+01	  0.031022044	5.108700E+01	  0.031022044	1.156000E+00
57	  0.031222444	-3.619900E+01	  0.031222444	4.619900E+01	  0.031222444	5.107000E+01	  0.031222444	1.142000E+00
58	  0.031422846	-3.620700E+01	  0.031422846	4.566300E+01	  0.031422846	5.108000E+01	  0.031422846	1.131000E+00
59	  0.031623244	-3.618700E+01	  0.031623244	4.541500E+01	  0.031623244	5.108800E+01	  0.031623244	1.128000E+00
60	  0.031823646	-3.617100E+01	  0.031823646	4.528800E+01	  0.031823646	5.109200E+01	  0.031823646	1.128000E+00
61	  0.032024048	-3.615800E+01	  0.032024048	4.512800E+01	  0.032024048	5.109700E+01	  0.032024048	1.127000E+00
62	  0.032224450	-3.620900E+01	  0.032224450	4.451300E+01	  0.032224450	5.110300E+01	  0.032224450	1.108000E+00
63	  0.032424849	-3.614700E+01	  0.032424849	4.424900E+01	  0.032424849	5.111600E+01	  0.032424849	1.111000E+00
64	  0.032625251	-3.610300E+01	  0.032625251	4.390500E+01	  0.032625251	5.112900E+01	  0.032625251	1.110000E+00
65	  0.032825653	-3.608900E+01	  0.032825653	4.288500E+01	  0.032825653	5.115000E+01	  0.032825653	1.092000E+00
66	  0.033026051	-3.601100E+01	  0.033026051	4.277300E+01	  0.033026051	5.116300E+01	  0.033026051	1.100000E+00
67	  0.033226453	-3.590600E+01	  0.033226453	4.212100E+01	  0.033226453	5.119000E+01	  0.033226453	1.100000E+00
68	  0.033426855	-3.580500E+01	  0.033426855	4.213800E+01	  0.033426855	5.120400E+01	  0.033426855	1.113000E+00
69	  0.033627257	-3.574900E+01	  0.033627257	4.182700E+01	  0.033627257	5.121800E+01	  0.033627257	1.114000E+00
70	  0.033827655	-3.566500E+01	  0.033827655	4.136400E+01	  0.033827655	5.123900E+01	  0.033827655	1.115000E+00
71	  0.034028057	-3.556600E+01	  0.034028057	4.157500E+01	  0.034028057	5.124900E+01	  0.034028057	1.133000E+00
72	  0.034228459	-3.543600E+01	  0.034228459	4.164100E+01	  0.034228459	5.126600E+01	  0.034228459	1.152000E+00
73	  0.034428857	-3.531600E+01	  0.034428857	4.163700E+01	  0.034428857	5.128400E+01	  0.034428857	1.168000E+00
74	  0.034629259	-3.530500E+01	  0.034629259	4.184200E+01	  0.034629259	5.128100E+01	  0.034629259	1.175000E+00
75	  0.034829661	-3.523900E+01	  0.034829661	4.240700E+01	  0.034829661	5.127900E+01	  0.034829661	1.196000E+00
76	  0.035030060	-3.512300E+01	  0.035030060	4.273300E+01	  0.035030060	5.128900E+01	  0.035030060	1.220000E+00
77	  0.035230462	-3.516900E+01	  0.035230462	4.307800E+01	  0.035230462	5.127500E+01	  0.035230462	1.221000E+00
78	  0.035430863	-3.509600E+01	  0.035430863	4.390500E+01	  0.035430863	5.126700E+01	  0.035430863	1.250000E+00
79	  0.035631265	-3.505100E+01	  0.035631265	4.430400E+01	  0.035631265	5.126500E+01	  0.035631265	1.266000E+00
80	  0.035831664	-3.510200E+01	  0.035831664	4.463200E+01	  0.035831664	5.125000E+01	  0.035831664	1.265000E+00
81	  0.036032066	-3.513800E+01	  0.036032066	4.463100E+01	  0.036032066	5.124500E+01	  0.036032066	1.260000E+00
82	  0.036232468	-3.530000E+01	  0.036232468	4.489200E+01	  0.036232468	5.121600E+01	  0.036232468	1.242000E+00
83	  0.036432866	-3.536100E+01	  0.036432866	4.470300E+01	  0.036432866	5.121200E+01	  0.036432866	1.229000E+00
84	  0.036633268	-3.535800E+01	  0.036633268	4.484900E+01	  0.036633268	5.120900E+01	  0.036633268	1.232000E+00
85	  0.036833670	-3.537600E+01	  0.036833670	4.400500E+01	  0.036833670	5.122500E+01	  0.036833670	1.212000E+00
86	  0.037034072	-3.542600E+01	  0.037034072	4.395500E+01	  0.037034072	5.121900E+01	  0.037034072	1.204000E+00
87	  0.037234470	-3.547700E+01	  0.037234470	4.314300E+01	  0.037234470	5.122900E+01	  0.037234470	1.179000E+00
88	  0.037434869	-3.542800E+01	  0.037434869	4.282500E+01	  0.037434869	5.124300E+01	  0.037434869	1.179000E+00
89	  0.037635271	-3.539000E+01	  0.037635271	4.211300E+01	  0.037635271	5.126300E+01	  0.037635271	1.169000E+00
90	  0.037835669	-3.548200E+01	  0.037835669	4.160000E+01	  0.037835669	5.126000E+01	  0.037835669	1.145000E+00
91	  0.038036071	-3.546800E+01	  0.038036071	4.093900E+01	  0.038036071	5.127600E+01	  0.038036071	1.132000E+00
92	  0.038236473	-3.546100E+01	  0.038236473	4.059200E+01	  0.038236473	5.128400E+01	  0.038236473	1.125000E+00
93	  0.038436871	-3.539300E+01	  0.038436871	3.930800E+01	  0.038436871	5.132000E+01	  0.038436871	1.105000E+00
94	  0.038637273	-3.533800E+01	  0.038637273	3.852100E+01	  0.038637273	5.134400E+01	  0.038637273	1.094000E+00
95	  0.038837675	-3.517400E+01	  0.038837675	3.758400E+01	  0.038837675	5.138800E+01	  0.038837675	1.092000E+00
96	  0.039038073	-3.507000E+01	  0.039038073	3.719600E+01	  0.039038073	5.141300E+01	  0.039038073	1.096000E+00
97	  0.039238475	-3.500800E+01	  0.039238475	3.700100E+01	  0.039238475	5.142700E+01	  0.039238475	1.100000E+00
98	  0.039438877	-3.483300E+01	  0.039438877	3.650500E+01	  0.039438877	5.146600E+01	  0.039438877	1.110000E+00
99	  0.039639279	-3.469600E+01	  0.039639279	3.625500E+01	  0.039639279	5.149400E+01	  0.039639279	1.122000E+00
100	  0.039839678	-3.452900E+01	  0.039839678	3.639500E+01	  0.039839678	5.152100E+01	  0.039839678	1.148000E+00
101	  0.040040080	-3.443600E+01	  0.040040080	3.678200E+01	  0.040040080	5.152900E+01	  0.040040080	1.171000E+00
102	  0.040240481	-3.425600E+01	  0.040240481	3.710100E+01	  0.040240481	5.155400E+01	  0.040240481	1.205000E+00
103	  0.040440880	-3.421000E+01	  0.040440880	3.757200E+01	  0.040440880	5.155300E+01	  0.040440880	1.224000E+00
104	  0.040641282	-3.407400E+01	  0.040641282	3.778200E+01	  0.040641282	5.157200E+01	  0.040641282	1.250000E+00
105	  0.040841684	-3.410900E+01	  0.040841684	3.833800E+01	  0.040841684	5.155400E+01	  0.040841684	1.260000E+00
106	  0.041042086	-3.399400E+01	  0.041042086	3.831800E+01	  0.041042086	5.157500E+01	  0.041042086	1.277000E+00
107	  0.041242484	-3.396100E+01	  0.041242484	3.914000E+01	  0.041242484	5.156200E+01	  0.041242484	1.305000E+00
108	  0.041442886	-3.391500E+01	  0.041442886	3.927000E+01	  0.041442886	5.156700E+01	  0.041442886	1.315000E+00
109	  0.041643288	-3.389000E+01	  0.041643288	3.994900E+01	  0.041643288	5.155500E+01	  0.041643288	1.338000E+00
110	  0.041843686	-3.386500E+01	  0.041843686	4.005900E+01	  0.041843686	5.155700E+01	  0.041843686	1.345000E+00
111	  0.042044088	-3.387900E+01	  0.042044088	4.053800E+01	  0.042044088	5.154300E+01	  0.042044088	1.356000E+00
112	  0.042244490	-3.388800E+01	  0.042244490	4.104400E+01	  0.042244490	5.152900E+01	  0.042244490	1.368000E+00
113	  0.042444889	-3.391700E+01	  0.042444889	4.118600E+01	  0.042444889	5.152000E+01	  0.042444889	1.367000E+00
114	  0.042645290	-3.398800E+01	  0.042645290	4.155500E+01	  0.042645290	5.149900E+01	  0.042645290	1.365000E+00
115	  0.042845692	-3.398000E+01	  0.042845692	4.168200E+01	  0.042845692	5.149700E+01	  0.042845692	1.370000E+00
116	  0.043046094	-3.403300E+01	  0.043046094	4.141900E+01	  0.043046094	5.149400E+01	  0.043046094	1.354000E+00
117	  0.043246493	-3.410200E+01	  0.043246493	4.130800E+01	  0.043246493	5.148500E+01	  0.043246493	1.340000E+00
118	  0.043446895	-3.413300E+01	  0.043446895	4.070700E+01	  0.043446895	5.149400E+01	  0.043446895	1.320000E+00
119	  0.043647297	-3.411900E+01	  0.043647297	4.117700E+01	  0.043647297	5.148500E+01	  0.043647297	1.334000E+00
120	  0.043847695	-3.419400E+01	  0.043847695	4.064800E+01	  0.043847695	5.148500E+01	  0.043847695	1.309000E+00
121	  0.044048097	-3.417300E+01	  0.044048097	4.037000E+01	  0.044048097	5.149500E+01	  0.044048097	1.305000E+00
122	  0.044248499	-3.417900E+01	  0.044248499	4.014000E+01	  0.044248499	5.150000E+01	  0.044248499	1.298000E+00
123	  0.044448901	-3.415600E+01	  0.044448901	4.033200E+01	  0.044448901	5.149900E+01	  0.044448901	1.306000E+00
124	  0.044649299	-3.422000E+01	  0.044649299	3.931100E+01	  0.044649299	5.151200E+01	  0.044649299	1.270000E+00
125	  0.044849701	-3.419200E+01	  0.044849701	3.889400E+01	  0.044849701	5.152600E+01	  0.044849701	1.263000E+00
126	  0.045050103	-3.415900E+01	  0.045050103	3.878100E+01	  0.045050103	5.153500E+01	  0.045050103	1.265000E+00
127	  0.045250501	-3.421300E+01	  0.045250501	3.868000E+01	  0.045250501	5.152700E+01	  0.045250501	1.254000E+00
128	  0.045450903	-3.413300E+01	  0.045450903	3.830300E+01	  0.045450903	5.155000E+01	  0.045450903	1.256000E+00
129	  0.045651305	-3.415600E+01	  0.045651305	3.798200E+01	  0.045651305	5.155300E+01	  0.045651305	1.243000E+00
130	  0.045851704	-3.411800E+01	  0.045851704	3.774300E+01	  0.045851704	5.156500E+01	  0.045851704	1.242000E+00
131	  0.046052106	-3.402300E+01	  0.046052106	3.744400E+01	  0.046052106	5.158900E+01	  0.046052106	1.248000E+00
132	  0.046252504	-3.401000E+01	  0.046252504	3.705200E+01	  0.046252504	5.160100E+01	  0.046252504	1.239000E+00
133	  0.046452906	-3.398900E+01	  0.046452906	3.702300E+01	  0.046452906	5.160500E+01	  0.046452906	1.242000E+00
134	  0.046653304	-3.399500E+01	  0.046653304	3.675800E+01	  0.046653304	5.161000E+01	  0.046653304	1.233000E+00
135	  0.046853706	-3.400200E+01	  0.046853706	3.637100E+01	  0.046853706	5.161700E+01	  0.046853706	1.221000E+00
136	  0.047054108	-3.388800E+01	  0.047054108	3.604700E+01	  0.047054108	5.164600E+01	  0.047054108	1.228000E+00
137	  0.047254506	-3.383800E+01	  0.047254506	3.581400E+01	  0.047254506	5.166100E+01	  0.047254506	1.229000E+00
138	  0.047454908	-3.385000E+01	  0.047454908	3.606300E+01	  0.047454908	5.165300E+01	  0.047454908	1.234000E+00
139	  0.047655310	-3.378800E+01	  0.047655310	3.573400E+01	  0.047655310	5.167200E+01	  0.047655310	1.234000E+00
140	  0.047855709	-3.377100E+01	  0.047855709	3.542900E+01	  0.047855709	5.168200E+01	  0.047855709	1.228000E+00
141	  0.048056111	-3.372300E+01	  0.048056111	3.522000E+01	  0.048056111	5.169600E+01	  0.048056111	1.228000E+00
142	  0.048256513	-3.364300E+01	  0.048256513	3.561700E+01	  0.048256513	5.170300E+01	  0.048256513	1.252000E+00
143	  0.048456915	-3.362200E+01	  0.048456915	3.536500E+01	  0.048456915	5.171300E+01	  0.048456915	1.248000E+00
144	  0.048657313	-3.358600E+01	  0.048657313	3.508400E+01	  0.048657313	5.172600E+01	  0.048657313	1.244000E+00
145	  0.048857715	-3.356700E+01	  0.048857715	3.487100E+01	  0.048857715	5.173500E+01	  0.048857715	1.241000E+00
146	  0.049058117	-3.347300E+01	  0.049058117	3.496600E+01	  0.049058117	5.175200E+01	  0.049058117	1.258000E+00
147	  0.049258515	-3.349600E+01	  0.049258515	3.482200E+01	  0.049258515	5.175100E+01	  0.049258515	1.250000E+00
148	  0.049458917	-3.345200E+01	  0.049458917	3.478700E+01	  0.049458917	5.176000E+01	  0.049458917	1.255000E+00
149	  0.049659319	-3.341600E+01	  0.049659319	3.442900E+01	  0.049659319	5.177600E+01	  0.049659319	1.249000E+00
150	  0.049859721	-3.343300E+01	  0.049859721	3.431000E+01	  0.049859721	5.177500E+01	  0.049859721	1.243000E+00
151	  0.050060119	-3.339200E+01	  0.050060119	3.474700E+01	  0.050060119	5.177400E+01	  0.050060119	1.263000E+00
152	  0.050260521	-3.340600E+01	  0.050260521	3.438000E+01	  0.050260521	5.177900E+01	  0.050260521	1.249000E+00
153	  0.050460923	-3.337200E+01	  0.050460923	3.470300E+01	  0.050460923	5.177900E+01	  0.050460923	1.265000E+00
154	  0.050661322	-3.334200E+01	  0.050661322	3.420800E+01	  0.050661322	5.179600E+01	  0.050661322	1.253000E+00
155	  0.050861724	-3.329500E+01	  0.050861724	3.435800E+01	  0.050861724	5.180200E+01	  0.050861724	1.265000E+00
156	  0.051062126	-3.331800E+01	  0.051062126	3.449100E+01	  0.051062126	5.179500E+01	  0.051062126	1.266000E+00
157	  0.051262524	-3.326500E+01	  0.051262524	3.405200E+01	  0.051262524	5.181600E+01	  0.051262524	1.260000E+00
158	  0.051462926	-3.334500E+01	  0.051462926	3.378100E+01	  0.051462926	5.180500E+01	  0.051462926	1.240000E+00
159	  0.051663328	-3.332300E+01	  0.051663328	3.421400E+01	  0.051663328	5.180000E+01	  0.051663328	1.256000E+00
160	  0.051863730	-3.326700E+01	  0.051863730	3.392600E+01	  0.051863730	5.181800E+01	  0.051863730	1.256000E+00
161	  0.052064128	-3.336200E+01	  0.052064128	3.374600E+01	  0.052064128	5.180200E+01	  0.052064128	1.236000E+00
162	  0.052264530	-3.334700E+01	  0.052264530	3.323200E+01	  0.052264530	5.181700E+01	  0.052264530	1.222000E+00
163	  0.052464932	-3.326800E+01	  0.052464932	3.340000E+01	  0.052464932	5.183000E+01	  0.052464932	1.239000E+00
164	  0.052665330	-3.329200E+01	  0.052665330	3.281700E+01	  0.052665330	5.183800E+01	  0.052665330	1.216000E+00
165	  0.052865732	-3.318900E+01	  0.052865732	3.280000E+01	  0.052865732	5.186000E+01	  0.052865732	1.231000E+00
166	  0.053066134	-3.320200E+01	  0.053066134	3.236800E+01	  0.053066134	5.186700E+01	  0.053066134	1.215000E+00
167	  0.053266536	-3.317700E+01	  0.053266536	3.184500E+01	  0.053266536	5.188400E+01	  0.053266536	1.201000E+00
168	  0.053466935	-3.312500E+01	  0.053466935	3.193700E+01	  0.053466935	5.189300E+01	  0.053466935	1.212000E+00
169	  0.053667337	-3.311300E+01	  0.053667337	3.129000E+01	  0.053667337	5.191000E+01	  0.053667337	1.192000E+00
170	  0.053867739	-3.306100E+01	  0.053867739	3.162100E+01	  0.053867739	5.191500E+01	  0.053867739	1.210000E+00
171	  0.054068137	-3.305000E+01	  0.054068137	3.104900E+01	  0.054068137	5.192900E+01	  0.054068137	1.192000E+00
172	  0.054268539	-3.299000E+01	  0.054268539	3.125900E+01	  0.054268539	5.193800E+01	  0.054268539	1.208000E+00
173	  0.054468941	-3.298600E+01	  0.054468941	3.086600E+01	  0.054468941	5.194800E+01	  0.054468941	1.195000E+00
174	  0.054669339	-3.301800E+01	  0.054669339	3.098800E+01	  0.054669339	5.193800E+01	  0.054669339	1.195000E+00
175	  0.054869737	-3.297400E+01	  0.054869737	3.054200E+01	  0.054869737	5.195800E+01	  0.054869737	1.186000E+00
176	  0.055070139	-3.291000E+01	  0.055070139	3.069000E+01	  0.055070139	5.196900E+01	  0.055070139	1.200000E+00
177	  0.055270538	-3.291300E+01	  0.055270538	3.033600E+01	  0.055270538	5.197600E+01	  0.055270538	1.187000E+00
178	  0.055470940	-3.286600E+01	  0.055470940	3.014000E+01	  0.055470940	5.199100E+01	  0.055470940	1.187000E+00
179	  0.055671342	-3.286900E+01	  0.055671342	3.027800E+01	  0.055671342	5.198800E+01	  0.055671342	1.192000E+00
180	  0.055871744	-3.290100E+01	  0.055871744	2.964900E+01	  0.055871744	5.199300E+01	  0.055871744	1.165000E+00
181	  0.056072142	-3.288000E+01	  0.056072142	2.981500E+01	  0.056072142	5.199500E+01	  0.056072142	1.174000E+00
182	  0.056272544	-3.290900E+01	  0.056272544	2.983700E+01	  0.056272544	5.198800E+01	  0.056272544	1.170000E+00
183	  0.056472946	-3.290100E+01	  0.056472946	2.925800E+01	  0.056472946	5.200200E+01	  0.056472946	1.151000E+00
184	  0.056673344	-3.283900E+01	  0.056673344	2.898500E+01	  0.056673344	5.202200E+01	  0.056673344	1.150000E+00
185	  0.056873746	-3.281700E+01	  0.056873746	2.837200E+01	  0.056873746	5.204000E+01	  0.056873746	1.131000E+00
186	  0.057074148	-3.276700E+01	  0.057074148	2.793500E+01	  0.057074148	5.206100E+01	  0.057074148	1.122000E+00
187	  0.057274550	-3.270500E+01	  0.057274550	2.740600E+01	  0.057274550	5.208600E+01	  0.057274550	1.111000E+00
188	  0.057474948	-3.264600E+01	  0.057474948	2.731800E+01	  0.057474948	5.210300E+01	  0.057474948	1.115000E+00
189	  0.057675350	-3.262300E+01	  0.057675350	2.686000E+01	  0.057675350	5.211800E+01	  0.057675350	1.101000E+00
190	  0.057875752	-3.254100E+01	  0.057875752	2.664600E+01	  0.057875752	5.214200E+01	  0.057875752	1.104000E+00
191	  0.058076151	-3.248700E+01	  0.058076151	2.665900E+01	  0.058076151	5.215600E+01	  0.058076151	1.112000E+00
192	  0.058276553	-3.243200E+01	  0.058276553	2.617200E+01	  0.058276553	5.217900E+01	  0.058276553	1.100000E+00
193	  0.058476955	-3.229800E+01	  0.058476955	2.619900E+01	  0.058476955	5.221300E+01	  0.058476955	1.119000E+00
194	  0.058677353	-3.224400E+01	  0.058677353	2.620700E+01	  0.058677353	5.222700E+01	  0.058677353	1.127000E+00
195	  0.058877755	-3.221000E+01	  0.058877755	2.568500E+01	  0.058877755	5.224700E+01	  0.058877755	1.111000E+00
196	  0.059078157	-3.208900E+01	  0.059078157	2.608200E+01	  0.059078157	5.227100E+01	  0.059078157	1.143000E+00
197	  0.059278559	-3.206800E+01	  0.059278559	2.621800E+01	  0.059278559	5.227300E+01	  0.059278559	1.151000E+00
198	  0.059478957	-3.198500E+01	  0.059478957	2.635700E+01	  0.059478957	5.229300E+01	  0.059478957	1.169000E+00
199	  0.059679359	-3.191600E+01	  0.059679359	2.620400E+01	  0.059679359	5.231400E+01	  0.059679359	1.172000E+00
200	  0.059879761	-3.185600E+01	  0.059879761	2.647000E+01	  0.059879761	5.232500E+01	  0.059879761	1.192000E+00
201	  0.060080159	-3.180100E+01	  0.060080159	2.675600E+01	  0.060080159	5.233400E+01	  0.060080159	1.211000E+00
202	  0.060280561	-3.186700E+01	  0.060280561	2.717800E+01	  0.060280561	5.230600E+01	  0.060280561	1.219000E+00
203	  0.060480963	-3.173600E+01	  0.060480963	2.745900E+01	  0.060480963	5.233600E+01	  0.060480963	1.250000E+00
204	  0.060681365	-3.174500E+01	  0.060681365	2.804900E+01	  0.060681365	5.232000E+01	  0.060681365	1.273000E+00
205	  0.060881764	-3.182800E+01	  0.060881764	2.820000E+01	  0.060881764	5.229400E+01	  0.060881764	1.267000E+00
206	  0.061082166	-3.181200E+01	  0.061082166	2.834500E+01	  0.061082166	5.229500E+01	  0.061082166	1.275000E+00
207	  0.061282568	-3.178400E+01	  0.061282568	2.904900E+01	  0.061282568	5.228600E+01	  0.061282568	1.308000E+00
208	  0.061482966	-3.187100E+01	  0.061482966	2.907200E+01	  0.061482966	5.226200E+01	  0.061482966	1.295000E+00
209	  0.061683368	-3.186400E+01	  0.061683368	2.858200E+01	  0.061683368	5.227500E+01	  0.061683368	1.277000E+00
210	  0.061883770	-3.194400E+01	  0.061883770	2.874800E+01	  0.061883770	5.225000E+01	  0.061883770	1.271000E+00
211	  0.062084168	-3.192800E+01	  0.062084168	2.868700E+01	  0.062084168	5.225600E+01	  0.062084168	1.271000E+00
212	  0.062284570	-3.200600E+01	  0.062284570	2.829300E+01	  0.062284570	5.224400E+01	  0.062284570	1.243000E+00
213	  0.062484972	-3.199000E+01	  0.062484972	2.792300E+01	  0.062484972	5.225700E+01	  0.062484972	1.231000E+00
214	  0.062685370	-3.199200E+01	  0.062685370	2.804500E+01	  0.062685370	5.225400E+01	  0.062685370	1.236000E+00
215	  0.062885776	-3.203900E+01	  0.062885776	2.730800E+01	  0.062885776	5.225800E+01	  0.062885776	1.199000E+00
216	  0.063086174	-3.206400E+01	  0.063086174	2.722000E+01	  0.063086174	5.225300E+01	  0.063086174	1.192000E+00
217	  0.063286573	-3.201500E+01	  0.063286573	2.698900E+01	  0.063286573	5.227100E+01	  0.063286573	1.190000E+00
218	  0.063486971	-3.203900E+01	  0.063486971	2.641700E+01	  0.063486971	5.227700E+01	  0.063486971	1.163000E+00
219	  0.063687377	-3.205100E+01	  0.063687377	2.623000E+01	  0.063687377	5.227800E+01	  0.063687377	1.154000E+00
220	  0.063887775	-3.195400E+01	  0.063887775	2.577300E+01	  0.063887775	5.231300E+01	  0.063887775	1.149000E+00
221	  0.064088173	-3.187600E+01	  0.064088173	2.519200E+01	  0.064088173	5.234700E+01	  0.064088173	1.136000E+00
222	  0.064288579	-3.178600E+01	  0.064288579	2.490200E+01	  0.064288579	5.237800E+01	  0.064288579	1.136000E+00
223	  0.064488977	-3.168400E+01	  0.064488977	2.439400E+01	  0.064488977	5.241700E+01	  0.064488977	1.128000E+00
224	  0.064689375	-3.168600E+01	  0.064689375	2.499400E+01	  0.064689375	5.240400E+01	  0.064689375	1.154000E+00
225	  0.064889781	-3.167900E+01	  0.064889781	2.472800E+01	  0.064889781	5.241100E+01	  0.064889781	1.143000E+00
226	  0.065090179	-3.160700E+01	  0.065090179	2.495200E+01	  0.065090179	5.242700E+01	  0.065090179	1.163000E+00
227	  0.065290578	-3.158300E+01	  0.065290578	2.516900E+01	  0.065290578	5.242900E+01	  0.065290578	1.176000E+00
228	  0.065490983	-3.157500E+01	  0.065490983	2.558300E+01	  0.065490983	5.242300E+01	  0.065490983	1.194000E+00
229	  0.065691382	-3.154300E+01	  0.065691382	2.507600E+01	  0.065691382	5.244300E+01	  0.065691382	1.177000E+00
230	  0.065891780	-3.148100E+01	  0.065891780	2.553100E+01	  0.065891780	5.245100E+01	  0.065891780	1.206000E+00
231	  0.066092186	-3.158100E+01	  0.066092186	2.579900E+01	  0.066092186	5.241600E+01	  0.066092186	1.203000E+00
232	  0.066292584	-3.149800E+01	  0.066292584	2.625200E+01	  0.066292584	5.243000E+01	  0.066292584	1.235000E+00
233	  0.066492982	-3.156800E+01	  0.066492982	2.660900E+01	  0.066492982	5.240200E+01	  0.066492982	1.240000E+00
234	  0.066693388	-3.160200E+01	  0.066693388	2.632700E+01	  0.066693388	5.239800E+01	  0.066693388	1.222000E+00
235	  0.066893786	-3.160000E+01	  0.066893786	2.603600E+01	  0.066893786	5.240500E+01	  0.066893786	1.210000E+00
236	  0.067094192	-3.170600E+01	  0.067094192	2.607900E+01	  0.067094192	5.237500E+01	  0.067094192	1.197000E+00
237	  0.067294590	-3.178300E+01	  0.067294590	2.615900E+01	  0.067294590	5.235200E+01	  0.067294590	1.189000E+00
238	  0.067494988	-3.180300E+01	  0.067494988	2.633300E+01	  0.067494988	5.234300E+01	  0.067494988	1.193000E+00
239	  0.067695394	-3.186500E+01	  0.067695394	2.549100E+01	  0.067695394	5.234400E+01	  0.067695394	1.150000E+00
240	  0.067895792	-3.193400E+01	  0.067895792	2.534800E+01	  0.067895792	5.232800E+01	  0.067895792	1.134000E+00
241	  0.068096191	-3.184100E+01	  0.068096191	2.499000E+01	  0.068096191	5.236100E+01	  0.068096191	1.132000E+00
242	  0.068296596	-3.192100E+01	  0.068296596	2.382700E+01	  0.068296596	5.236200E+01	  0.068296596	1.073000E+00
243	  0.068496995	-3.192900E+01	  0.068496995	2.339800E+01	  0.068496995	5.236800E+01	  0.068496995	1.053000E+00
244	  0.068697393	-3.188200E+01	  0.068697393	2.276700E+01	  0.068697393	5.239300E+01	  0.068697393	1.033000E+00
245	  0.068897791	-3.179800E+01	  0.068897791	2.219900E+01	  0.068897791	5.242800E+01	  0.068897791	1.019000E+00
246	  0.069098189	-3.179100E+01	  0.069098189	2.206400E+01	  0.069098189	5.243200E+01	  0.069098189	1.014000E+00
247	  0.069298595	-3.177200E+01	  0.069298595	2.171600E+01	  0.069298595	5.244400E+01	  0.069298595	1.001000E+00
248	  0.069498993	-3.166300E+01	  0.069498993	2.089200E+01	  0.069498993	5.249100E+01	  0.069498993	9.780000E-01
249	  0.069699399	-3.161200E+01	  0.069699399	2.047500E+01	  0.069699399	5.251300E+01	  0.069699399	9.650000E-01
250	  0.069899797	-3.155800E+01	  0.069899797	2.009300E+01	  0.069899797	5.253600E+01	  0.069899797	9.540000E-01
251	  0.070100196	-3.146900E+01	  0.070100196	2.053600E+01	  0.070100196	5.255400E+01	  0.070100196	9.850000E-01
252	  0.070300601	-3.141500E+01	  0.070300601	1.989000E+01	  0.070300601	5.258200E+01	  0.070300601	9.620000E-01
253	  0.070501000	-3.123600E+01	  0.070501000	2.034700E+01	  0.070501000	5.262900E+01	  0.070501000	1.004000E+00
254	  0.070701398	-3.126500E+01	  0.070701398	2.022100E+01	  0.070701398	5.262200E+01	  0.070701398	9.950000E-01
255	  0.070901804	-3.118600E+01	  0.070901804	2.060400E+01	  0.070901804	5.264000E+01	  0.070901804	1.022000E+00
256	  0.071102202	-3.109300E+01	  0.071102202	2.067500E+01	  0.071102202	5.266800E+01	  0.071102202	1.037000E+00
257	  0.071302600	-3.115400E+01	  0.071302600	2.123400E+01	  0.071302600	5.263800E+01	  0.071302600	1.056000E+00
258	  0.071503006	-3.115500E+01	  0.071503006	2.173700E+01	  0.071503006	5.262800E+01	  0.071503006	1.079000E+00
259	  0.071703404	-3.112500E+01	  0.071703404	2.205700E+01	  0.071703404	5.263000E+01	  0.071703404	1.098000E+00
260	  0.071903802	-3.112900E+01	  0.071903802	2.247200E+01	  0.071903802	5.262100E+01	  0.071903802	1.117000E+00
261	  0.072104208	-3.117900E+01	  0.072104208	2.259900E+01	  0.072104208	5.260300E+01	  0.072104208	1.116000E+00
262	  0.072304606	-3.120700E+01	  0.072304606	2.256800E+01	  0.072304606	5.259500E+01	  0.072304606	1.111000E+00
263	  0.072505005	-3.124700E+01	  0.072505005	2.242300E+01	  0.072505005	5.258600E+01	  0.072505005	1.099000E+00
264	  0.072705410	-3.129700E+01	  0.072705410	2.236900E+01	  0.072705410	5.257200E+01	  0.072705410	1.090000E+00
265	  0.072905809	-3.142100E+01	  0.072905809	2.242700E+01	  0.072905809	5.253300E+01	  0.072905809	1.076000E+00
266	  0.073106214	-3.138200E+01	  0.073106214	2.251600E+01	  0.073106214	5.254300E+01	  0.073106214	1.086000E+00
267	  0.073306613	-3.161600E+01	  0.073306613	2.174400E+01	  0.073306613	5.248900E+01	  0.073306613	1.021000E+00
268	  0.073507011	-3.156600E+01	  0.073507011	2.073600E+01	  0.073507011	5.252200E+01	  0.073507011	9.820000E-01
269	  0.073707417	-3.158000E+01	  0.073707417	2.052100E+01	  0.073707417	5.252200E+01	  0.073707417	9.710000E-01
270	  0.073907815	-3.155500E+01	  0.073907815	1.983800E+01	  0.073907815	5.254100E+01	  0.073907815	9.430000E-01
271	  0.074108213	-3.156000E+01	  0.074108213	1.961500E+01	  0.074108213	5.254300E+01	  0.074108213	9.320000E-01
272	  0.074308619	-3.160800E+01	  0.074308619	1.916400E+01	  0.074308619	5.253700E+01	  0.074308619	9.060000E-01
273	  0.074509017	-3.158700E+01	  0.074509017	1.815800E+01	  0.074509017	5.255900E+01	  0.074509017	8.630000E-01
274	  0.074709415	-3.155100E+01	  0.074709415	1.769600E+01	  0.074709415	5.257800E+01	  0.074709415	8.460000E-01
275	  0.074909821	-3.149800E+01	  0.074909821	1.750200E+01	  0.074909821	5.259700E+01	  0.074909821	8.420000E-01
276	  0.075110219	-3.152900E+01	  0.075110219	1.689100E+01	  0.075110219	5.259600E+01	  0.075110219	8.110000E-01
277	  0.075310618	-3.136600E+01	  0.075310618	1.650800E+01	  0.075310618	5.265300E+01	  0.075310618	8.090000E-01
278	  0.075511023	-3.125400E+01	  0.075511023	1.600700E+01	  0.075511023	5.269500E+01	  0.075511023	7.960000E-01
279	  0.075711422	-3.120800E+01	  0.075711422	1.579500E+01	  0.075711422	5.271300E+01	  0.075711422	7.900000E-01
280	  0.075911827	-3.113000E+01	  0.075911827	1.591900E+01	  0.075911827	5.273600E+01	  0.075911827	8.030000E-01
281	  0.076112226	-3.105900E+01	  0.076112226	1.612200E+01	  0.076112226	5.275600E+01	  0.076112226	8.200000E-01
282	  0.076312624	-3.098600E+01	  0.076312624	1.579300E+01	  0.076312624	5.278500E+01	  0.076312624	8.110000E-01
283	  0.076513030	-3.103500E+01	  0.076513030	1.607500E+01	  0.076513030	5.276500E+01	  0.076513030	8.200000E-01
284	  0.076713428	-3.091700E+01	  0.076713428	1.656000E+01	  0.076713428	5.279600E+01	  0.076713428	8.570000E-01
285	  0.076913826	-3.093900E+01	  0.076913826	1.642400E+01	  0.076913826	5.279100E+01	  0.076913826	8.470000E-01
286	  0.077114232	-3.092000E+01	  0.077114232	1.681300E+01	  0.077114232	5.279100E+01	  0.077114232	8.690000E-01
287	  0.077314630	-3.090800E+01	  0.077314630	1.700300E+01	  0.077314630	5.279200E+01	  0.077314630	8.800000E-01
288	  0.077515028	-3.100900E+01	  0.077515028	1.711900E+01	  0.077515028	5.275700E+01	  0.077515028	8.750000E-01
289	  0.077715434	-3.096000E+01	  0.077715434	1.735700E+01	  0.077715434	5.276900E+01	  0.077715434	8.920000E-01
290	  0.077915832	-3.098100E+01	  0.077915832	1.690800E+01	  0.077915832	5.277000E+01	  0.077915832	8.670000E-01
291	  0.078116231	-3.097000E+01	  0.078116231	1.640400E+01	  0.078116231	5.278100E+01	  0.078116231	8.430000E-01
292	  0.078316636	-3.106700E+01	  0.078316636	1.688900E+01	  0.078316636	5.274200E+01	  0.078316636	8.570000E-01
293	  0.078517035	-3.106100E+01	  0.078517035	1.632700E+01	  0.078517035	5.275300E+01	  0.078517035	8.300000E-01
294	  0.078717433	-3.107900E+01	  0.078717433	1.568200E+01	  0.078717433	5.275600E+01	  0.078717433	7.970000E-01
295	  0.078917839	-3.114800E+01	  0.078917839	1.494400E+01	  0.078917839	5.274400E+01	  0.078917839	7.540000E-01
296	  0.079118237	-3.117100E+01	  0.079118237	1.522700E+01	  0.079118237	5.273300E+01	  0.079118237	7.660000E-01
297	  0.079318643	-3.118700E+01	  0.079318643	1.412700E+01	  0.079318643	5.274300E+01	  0.079318643	7.100000E-01
298	  0.079519041	-3.110000E+01	  0.079519041	1.367000E+01	  0.079519041	5.277700E+01	  0.079519041	6.950000E-01
299	  0.079719439	-3.115200E+01	  0.079719439	1.298900E+01	  0.079719439	5.276900E+01	  0.079719439	6.570000E-01
300	  0.079919845	-3.103600E+01	  0.079919845	1.283800E+01	  0.079919845	5.280900E+01	  0.079919845	6.590000E-01
301	  0.080120243	-3.099700E+01	  0.080120243	1.229600E+01	  0.080120243	5.282800E+01	  0.080120243	6.340000E-01
302	  0.080320641	-3.090000E+01	  0.080320641	1.138600E+01	  0.080320641	5.287100E+01	  0.080320641	5.950000E-01
303	  0.080521047	-3.079800E+01	  0.080521047	1.128800E+01	  0.080521047	5.290700E+01	  0.080521047	5.970000E-01
304	  0.080721445	-3.065300E+01	  0.080721445	1.121900E+01	  0.080721445	5.295800E+01	  0.080721445	6.040000E-01
305	  0.080921844	-3.057100E+01	  0.080921844	1.129600E+01	  0.080921844	5.298600E+01	  0.080921844	6.150000E-01
306	  0.081122249	-3.053400E+01	  0.081122249	1.105800E+01	  0.081122249	5.300200E+01	  0.081122249	6.050000E-01
307	  0.081322648	-3.041800E+01	  0.081322648	1.121300E+01	  0.081322648	5.304200E+01	  0.081322648	6.220000E-01
308	  0.081523046	-3.034600E+01	  0.081523046	1.186000E+01	  0.081523046	5.306000E+01	  0.081523046	6.630000E-01
309	  0.081723452	-3.032000E+01	  0.081723452	1.192700E+01	  0.081723452	5.306900E+01	  0.081723452	6.690000E-01
310	  0.081923850	-3.024200E+01	  0.081923850	1.238600E+01	  0.081923850	5.309100E+01	  0.081923850	7.010000E-01
311	  0.082124248	-3.025100E+01	  0.082124248	1.280700E+01	  0.082124248	5.308300E+01	  0.082124248	7.230000E-01
312	  0.082324654	-3.019900E+01	  0.082324654	1.339600E+01	  0.082324654	5.309400E+01	  0.082324654	7.610000E-01
313	  0.082525052	-3.020200E+01	  0.082525052	1.327900E+01	  0.082525052	5.309400E+01	  0.082525052	7.540000E-01
314	  0.082725458	-3.016800E+01	  0.082725458	1.379800E+01	  0.082725458	5.309900E+01	  0.082725458	7.860000E-01
315	  0.082925856	-3.024400E+01	  0.082925856	1.419500E+01	  0.082925856	5.306600E+01	  0.082925856	8.000000E-01
316	  0.083126254	-3.027500E+01	  0.083126254	1.438900E+01	  0.083126254	5.305100E+01	  0.083126254	8.080000E-01
317	  0.083326660	-3.026600E+01	  0.083326660	1.482900E+01	  0.083326660	5.304800E+01	  0.083326660	8.330000E-01
318	  0.083527058	-3.037100E+01	  0.083527058	1.445600E+01	  0.083527058	5.301600E+01	  0.083527058	8.020000E-01
319	  0.083727457	-3.045800E+01	  0.083727457	1.492900E+01	  0.083727457	5.297800E+01	  0.083727457	8.190000E-01
320	  0.083927862	-3.057000E+01	  0.083927862	1.464300E+01	  0.083927862	5.294300E+01	  0.083927862	7.930000E-01
321	  0.084128261	-3.053300E+01	  0.084128261	1.470500E+01	  0.084128261	5.295500E+01	  0.084128261	8.000000E-01
322	  0.084328659	-3.066100E+01	  0.084328659	1.393100E+01	  0.084328659	5.292100E+01	  0.084328659	7.470000E-01
323	  0.084529065	-3.073900E+01	  0.084529065	1.396200E+01	  0.084529065	5.289400E+01	  0.084529065	7.410000E-01
324	  0.084729463	-3.078100E+01	  0.084729463	1.338400E+01	  0.084729463	5.288800E+01	  0.084729463	7.080000E-01
325	  0.084929861	-3.081200E+01	  0.084929861	1.308600E+01	  0.084929861	5.288100E+01	  0.084929861	6.900000E-01
326	  0.085130267	-3.083100E+01	  0.085130267	1.235600E+01	  0.085130267	5.288300E+01	  0.085130267	6.500000E-01
327	  0.085330658	-3.081100E+01	  0.085330658	1.183000E+01	  0.085330658	5.289600E+01	  0.085330658	6.250000E-01
328	  0.085531056	-3.080300E+01	  0.085531056	1.110600E+01	  0.085531056	5.290700E+01	  0.085531056	5.880000E-01
329	  0.085731462	-3.077000E+01	  0.085731462	1.071600E+01	  0.085731462	5.292300E+01	  0.085731462	5.700000E-01
330	  0.085931860	-3.073600E+01	  0.085931860	9.784000E+00	  0.085931860	5.294400E+01	  0.085931860	5.230000E-01
331	  0.086132258	-3.068100E+01	  0.086132258	9.004000E+00	  0.086132258	5.297100E+01	  0.086132258	4.850000E-01
332	  0.086332664	-3.066500E+01	  0.086332664	9.259000E+00	  0.086332664	5.297400E+01	  0.086332664	4.990000E-01
333	  0.086533062	-3.061100E+01	  0.086533062	8.850000E+00	  0.086533062	5.299700E+01	  0.086533062	4.810000E-01
334	  0.086733460	-3.053300E+01	  0.086733460	8.293000E+00	  0.086733460	5.303000E+01	  0.086733460	4.550000E-01
335	  0.086933866	-3.046300E+01	  0.086933866	7.913000E+00	  0.086933866	5.305800E+01	  0.086933866	4.380000E-01
336	  0.087134264	-3.041500E+01	  0.087134264	7.967000E+00	  0.087134264	5.307500E+01	  0.087134264	4.430000E-01
337	  0.087334670	-3.032500E+01	  0.087334670	8.191000E+00	  0.087334670	5.310600E+01	  0.087334670	4.610000E-01
338	  0.087535068	-3.027600E+01	  0.087535068	8.122000E+00	  0.087535068	5.312500E+01	  0.087535068	4.600000E-01
339	  0.087735467	-3.024200E+01	  0.087735467	8.251000E+00	  0.087735467	5.313600E+01	  0.087735467	4.690000E-01
340	  0.087935872	-3.020700E+01	  0.087935872	8.275000E+00	  0.087935872	5.314900E+01	  0.087935872	4.720000E-01
341	  0.088136271	-3.019500E+01	  0.088136271	8.020000E+00	  0.088136271	5.315600E+01	  0.088136271	4.590000E-01
342	  0.088336669	-3.014700E+01	  0.088336669	8.335000E+00	  0.088336669	5.317100E+01	  0.088336669	4.790000E-01
343	  0.088537075	-3.014000E+01	  0.088537075	8.171000E+00	  0.088537075	5.317500E+01	  0.088537075	4.700000E-01
344	  0.088737473	-3.015300E+01	  0.088737473	8.102000E+00	  0.088737473	5.317100E+01	  0.088737473	4.660000E-01
345	  0.088937871	-3.016000E+01	  0.088937871	8.129000E+00	  0.088937871	5.316800E+01	  0.088937871	4.670000E-01
346	  0.089138277	-3.013700E+01	  0.089138277	7.990000E+00	  0.089138277	5.317800E+01	  0.089138277	4.600000E-01
347	  0.089338675	-3.020900E+01	  0.089338675	8.158000E+00	  0.089338675	5.314900E+01	  0.089338675	4.660000E-01
348	  0.089539073	-3.020400E+01	  0.089539073	8.118000E+00	  0.089539073	5.315200E+01	  0.089539073	4.640000E-01
349	  0.089739479	-3.020200E+01	  0.089739479	8.206000E+00	  0.089739479	5.315100E+01	  0.089739479	4.690000E-01
350	  0.089939877	-3.020300E+01	  0.089939877	7.759000E+00	  0.089939877	5.315500E+01	  0.089939877	4.430000E-01
351	  0.090140276	-3.019300E+01	  0.090140276	7.263000E+00	  0.090140276	5.316300E+01	  0.090140276	4.160000E-01
352	  0.090340681	-3.014700E+01	  0.090340681	6.946000E+00	  0.090340681	5.318200E+01	  0.090340681	4.000000E-01
353	  0.090541080	-3.018600E+01	  0.090541080	6.780000E+00	  0.090541080	5.316900E+01	  0.090541080	3.880000E-01
354	  0.090741485	-3.012600E+01	  0.090741485	6.583000E+00	  0.090741485	5.319300E+01	  0.090741485	3.800000E-01
355	  0.090941884	-3.008900E+01	  0.090941884	6.529000E+00	  0.090941884	5.320700E+01	  0.090941884	3.790000E-01
356	  0.091142282	-3.006800E+01	  0.091142282	6.220000E+00	  0.091142282	5.321700E+01	  0.091142282	3.620000E-01
357	  0.091342688	-3.002100E+01	  0.091342688	6.201000E+00	  0.091342688	5.323600E+01	  0.091342688	3.630000E-01
358	  0.091543086	-2.999500E+01	  0.091543086	6.164000E+00	  0.091543086	5.324600E+01	  0.091543086	3.620000E-01
359	  0.091743484	-2.996000E+01	  0.091743484	5.730000E+00	  0.091743484	5.326200E+01	  0.091743484	3.380000E-01
360	  0.091943890	-2.997800E+01	  0.091943890	5.974000E+00	  0.091943890	5.325400E+01	  0.091943890	3.510000E-01
361	  0.092144288	-2.995300E+01	  0.092144288	6.004000E+00	  0.092144288	5.326300E+01	  0.092144288	3.540000E-01
362	  0.092344686	-2.989500E+01	  0.092344686	6.207000E+00	  0.092344686	5.328400E+01	  0.092344686	3.690000E-01
363	  0.092545092	-2.992000E+01	  0.092545092	6.080000E+00	  0.092545092	5.327500E+01	  0.092545092	3.600000E-01
364	  0.092745490	-2.990600E+01	  0.092745490	6.323000E+00	  0.092745490	5.327900E+01	  0.092745490	3.750000E-01
365	  0.092945889	-2.986500E+01	  0.092945889	6.366000E+00	  0.092945889	5.329500E+01	  0.092945889	3.800000E-01
366	  0.093146294	-2.987700E+01	  0.093146294	6.271000E+00	  0.093146294	5.329100E+01	  0.093146294	3.730000E-01
367	  0.093346693	-2.988600E+01	  0.093346693	6.676000E+00	  0.093346693	5.328500E+01	  0.093346693	3.970000E-01
368	  0.093547091	-2.991100E+01	  0.093547091	6.549000E+00	  0.093547091	5.327600E+01	  0.093547091	3.880000E-01
369	  0.093747497	-2.998100E+01	  0.093747497	6.770000E+00	  0.093747497	5.324700E+01	  0.093747497	3.980000E-01
370	  0.093947895	-2.999000E+01	  0.093947895	6.208000E+00	  0.093947895	5.324800E+01	  0.093947895	3.640000E-01
371	  0.094148301	-3.000100E+01	  0.094148301	6.055000E+00	  0.094148301	5.324400E+01	  0.094148301	3.550000E-01
372	  0.094348699	-3.003900E+01	  0.094348699	6.074000E+00	  0.094348699	5.323000E+01	  0.094348699	3.540000E-01
373	  0.094549097	-3.003000E+01	  0.094549097	5.772000E+00	  0.094549097	5.323500E+01	  0.094549097	3.370000E-01
374	  0.094749503	-3.005400E+01	  0.094749503	5.403000E+00	  0.094749503	5.322800E+01	  0.094749503	3.150000E-01
375	  0.094949901	-3.004200E+01	  0.094949901	5.081000E+00	  0.094949901	5.323500E+01	  0.094949901	2.970000E-01
376	  0.095150299	-3.011600E+01	  0.095150299	5.171000E+00	  0.095150299	5.320600E+01	  0.095150299	2.990000E-01
377	  0.095350705	-3.006400E+01	  0.095350705	4.748000E+00	  0.095350705	5.322800E+01	  0.095350705	2.760000E-01
378	  0.095551103	-3.005700E+01	  0.095551103	4.006000E+00	  0.095551103	5.323400E+01	  0.095551103	2.330000E-01
379	  0.095751502	-3.007700E+01	  0.095751502	3.432000E+00	  0.095751502	5.322900E+01	  0.095751502	1.990000E-01
380	  0.095951907	-3.003100E+01	  0.095951907	3.593000E+00	  0.095951907	5.324600E+01	  0.095951907	2.100000E-01
381	  0.096152306	-2.999200E+01	  0.096152306	3.672000E+00	  0.096152306	5.326100E+01	  0.096152306	2.160000E-01
382	  0.096352704	-2.990100E+01	  0.096352704	2.738000E+00	  0.096352704	5.329900E+01	  0.096352704	1.630000E-01
383	  0.096553110	-2.988400E+01	  0.096553110	2.321000E+00	  0.096553110	5.330700E+01	  0.096553110	1.380000E-01
384	  0.096753508	-2.987600E+01	  0.096753508	2.605000E+00	  0.096753508	5.331000E+01	  0.096753508	1.550000E-01
385	  0.096953906	-2.981900E+01	  0.096953906	2.774000E+00	  0.096953906	5.333200E+01	  0.096953906	1.660000E-01
386	  0.097154312	-2.974000E+01	  0.097154312	2.435000E+00	  0.097154312	5.336400E+01	  0.097154312	1.470000E-01
387	  0.097354710	-2.971700E+01	  0.097354710	2.576000E+00	  0.097354710	5.337300E+01	  0.097354710	1.560000E-01
388	  0.097555116	-2.972400E+01	  0.097555116	2.513000E+00	  0.097555116	5.337000E+01	  0.097555116	1.520000E-01
389	  0.097755514	-2.974500E+01	  0.097755514	2.757000E+00	  0.097755514	5.336100E+01	  0.097755514	1.670000E-01
390	  0.097955912	-2.971300E+01	  0.097955912	2.877000E+00	  0.097955912	5.337400E+01	  0.097955912	1.750000E-01
391	  0.098156318	-2.971300E+01	  0.098156318	2.696000E+00	  0.098156318	5.337400E+01	  0.098156318	1.640000E-01
392	  0.098356716	-2.970400E+01	  0.098356716	3.105000E+00	  0.098356716	5.337600E+01	  0.098356716	1.890000E-01
393	  0.098557115	-2.972500E+01	  0.098557115	3.016000E+00	  0.098557115	5.336800E+01	  0.098557115	1.830000E-01
394	  0.098757520	-2.974000E+01	  0.098757520	3.021000E+00	  0.098757520	5.336200E+01	  0.098757520	1.830000E-01
395	  0.098957919	-2.974100E+01	  0.098957919	3.303000E+00	  0.098957919	5.336100E+01	  0.098957919	2.000000E-01
396	  0.099158317	-2.984600E+01	  0.099158317	2.893000E+00	  0.099158317	5.332000E+01	  0.099158317	1.730000E-01
397	  0.099358723	-2.991400E+01	  0.099358723	3.026000E+00	  0.099358723	5.329300E+01	  0.099358723	1.790000E-01
398	  0.099559121	-2.993800E+01	  0.099559121	2.902000E+00	  0.099559121	5.328400E+01	  0.099559121	1.720000E-01
399	  0.099759519	-2.993400E+01	  0.099759519	2.489000E+00	  0.099759519	5.328700E+01	  0.099759519	1.470000E-01
400	  0.099959925	-2.995600E+01	  0.099959925	2.108000E+00	  0.099959925	5.327900E+01	  0.099959925	1.240000E-01
401	  0.100160323	-3.004000E+01	  0.100160323	1.731000E+00	  0.100160323	5.324800E+01	  0.100160323	1.010000E-01
402	  0.100360721	-3.005500E+01	  0.100360721	1.136000E+00	  0.100360721	5.324300E+01	  0.100360721	6.600000E-02
403	  0.100561127	-3.004600E+01	  0.100561127	8.590000E-01	  0.100561127	5.324700E+01	  0.100561127	5.000000E-02
404	  0.100761525	-3.008400E+01	  0.100761525	-8.600000E-02	  0.100761525	5.323300E+01	  0.100761525	-5.000000E-03
405	  0.100961931	-2.994000E+01	  0.100961931	-1.610000E-01	  0.100961931	5.328800E+01	  0.100961931	-9.000000E-03
406	  0.101162329	-2.998000E+01	  0.101162329	-9.740000E-01	  0.101162329	5.327200E+01	  0.101162329	-5.700000E-02
407	  0.101362728	-2.988600E+01	  0.101362728	-1.763000E+00	  0.101362728	5.330800E+01	  0.101362728	-1.050000E-01
408	  0.101563133	-2.995000E+01	  0.101563133	-2.006000E+00	  0.101563133	5.328200E+01	  0.101563133	-1.180000E-01
409	  0.101763532	-2.986100E+01	  0.101763532	-2.244000E+00	  0.101763532	5.331700E+01	  0.101763532	-1.340000E-01
410	  0.101963930	-2.980700E+01	  0.101963930	-2.103000E+00	  0.101963930	5.333800E+01	  0.101963930	-1.260000E-01
411	  0.102164336	-2.962400E+01	  0.102164336	-2.912000E+00	  0.102164336	5.340900E+01	  0.102164336	-1.790000E-01
412	  0.102364734	-2.958800E+01	  0.102364734	-2.979000E+00	  0.102364734	5.342400E+01	  0.102364734	-1.840000E-01
413	  0.102565132	-2.963200E+01	  0.102565132	-2.515000E+00	  0.102565132	5.340700E+01	  0.102565132	-1.540000E-01
414	  0.102765530	-2.950700E+01	  0.102765530	-2.716000E+00	  0.102765530	5.345800E+01	  0.102765530	-1.690000E-01
415	  0.102965929	-2.939000E+01	  0.102965929	-2.194000E+00	  0.102965929	5.350800E+01	  0.102965929	-1.390000E-01
416	  0.103166327	-2.933800E+01	  0.103166327	-3.215000E+00	  0.103166327	5.352600E+01	  0.103166327	-2.050000E-01
417	  0.103366733	-2.932300E+01	  0.103366733	-2.952000E+00	  0.103366733	5.353400E+01	  0.103366733	-1.880000E-01
418	  0.103567131	-2.929300E+01	  0.103567131	-2.593000E+00	  0.103567131	5.354800E+01	  0.103567131	-1.660000E-01
419	  0.103767529	-2.925000E+01	  0.103767529	-1.752000E+00	  0.103767529	5.356800E+01	  0.103767529	-1.130000E-01
420	  0.103967935	-2.929300E+01	  0.103967935	-1.135000E+00	  0.103967935	5.355100E+01	  0.103967935	-7.200000E-02
421	  0.104168333	-2.926500E+01	  0.104168333	-1.438000E+00	  0.104168333	5.356200E+01	  0.104168333	-9.200000E-02
422	  0.104368731	-2.930700E+01	  0.104368731	-5.730000E-01	  0.104368731	5.354500E+01	  0.104368731	-3.600000E-02
423	  0.104569137	-2.926600E+01	  0.104569137	-8.580000E-01	  0.104569137	5.356200E+01	  0.104569137	-5.500000E-02
424	  0.104769535	-2.935900E+01	  0.104769535	-4.360000E-01	  0.104769535	5.352400E+01	  0.104769535	-2.700000E-02
425	  0.104969934	-2.933600E+01	  0.104969934	-9.640000E-01	  0.104969934	5.353300E+01	  0.104969934	-6.100000E-02
426	  0.105170339	-2.949400E+01	  0.105170339	-4.240000E-01	  0.105170339	5.346800E+01	  0.105170339	-2.600000E-02
427	  0.105370738	-2.946000E+01	  0.105370738	-5.570000E-01	  0.105370738	5.348200E+01	  0.105370738	-3.500000E-02
428	  0.105571143	-2.949300E+01	  0.105571143	-3.980000E-01	  0.105571143	5.346800E+01	  0.105571143	-2.400000E-02
429	  0.105771542	-2.960200E+01	  0.105771542	-7.000000E-01	  0.105771542	5.342300E+01	  0.105771542	-4.300000E-02
430	  0.105971940	-2.962100E+01	  0.105971940	-2.050000E-01	  0.105971940	5.341600E+01	  0.105971940	-1.200000E-02
431	  0.106172346	-2.975500E+01	  0.106172346	-1.325000E+00	  0.106172346	5.336000E+01	  0.106172346	-8.000000E-02
432	  0.106372744	-2.975700E+01	  0.106372744	-1.404000E+00	  0.106372744	5.335900E+01	  0.106372744	-8.500000E-02
433	  0.106573142	-2.969700E+01	  0.106573142	-2.072000E+00	  0.106573142	5.338200E+01	  0.106573142	-1.260000E-01
434	  0.106773548	-2.976800E+01	  0.106773548	-2.407000E+00	  0.106773548	5.335300E+01	  0.106773548	-1.450000E-01
435	  0.106973946	-2.975600E+01	  0.106973946	-3.410000E+00	  0.106973946	5.335400E+01	  0.106973946	-2.060000E-01
436	  0.107174344	-2.982600E+01	  0.107174344	-3.828000E+00	  0.107174344	5.332500E+01	  0.107174344	-2.290000E-01
437	  0.107374750	-2.977700E+01	  0.107374750	-3.664000E+00	  0.107374750	5.334500E+01	  0.107374750	-2.210000E-01
438	  0.107575148	-2.977600E+01	  0.107575148	-3.960000E+00	  0.107575148	5.334400E+01	  0.107575148	-2.390000E-01
439	  0.107775547	-2.972100E+01	  0.107775547	-4.624000E+00	  0.107775547	5.336300E+01	  0.107775547	-2.810000E-01
440	  0.107975952	-2.962900E+01	  0.107975952	-5.446000E+00	  0.107975952	5.339500E+01	  0.107975952	-3.340000E-01
441	  0.108176351	-2.958800E+01	  0.108176351	-5.081000E+00	  0.108176351	5.341400E+01	  0.108176351	-3.140000E-01
442	  0.108376749	-2.958100E+01	  0.108376749	-5.557000E+00	  0.108376749	5.341400E+01	  0.108376749	-3.430000E-01
443	  0.108577155	-2.950000E+01	  0.108577155	-5.722000E+00	  0.108577155	5.344600E+01	  0.108577155	-3.570000E-01
444	  0.108777553	-2.937100E+01	  0.108777553	-5.718000E+00	  0.108777553	5.349900E+01	  0.108777553	-3.620000E-01
445	  0.108977959	-2.945300E+01	  0.108977959	-5.832000E+00	  0.108977959	5.346500E+01	  0.108977959	-3.660000E-01
446	  0.109178357	-2.941700E+01	  0.109178357	-5.793000E+00	  0.109178357	5.348000E+01	  0.109178357	-3.650000E-01
447	  0.109378755	-2.936900E+01	  0.109378755	-5.388000E+00	  0.109378755	5.350200E+01	  0.109378755	-3.420000E-01
448	  0.109579161	-2.939800E+01	  0.109579161	-5.663000E+00	  0.109579161	5.348800E+01	  0.109579161	-3.580000E-01
449	  0.109779559	-2.933300E+01	  0.109779559	-6.024000E+00	  0.109779559	5.351300E+01	  0.109779559	-3.830000E-01
450	  0.109979957	-2.935800E+01	  0.109979957	-5.988000E+00	  0.109979957	5.350300E+01	  0.109979957	-3.800000E-01
451	  0.110180363	-2.934200E+01	  0.110180363	-5.597000E+00	  0.110180363	5.351200E+01	  0.110180363	-3.560000E-01
452	  0.110380761	-2.937700E+01	  0.110380761	-5.893000E+00	  0.110380761	5.349600E+01	  0.110380761	-3.730000E-01
453	  0.110581160	-2.931400E+01	  0.110581160	-6.053000E+00	  0.110581160	5.352100E+01	  0.110581160	-3.860000E-01
454	  0.110781565	-2.936300E+01	  0.110781565	-5.715000E+00	  0.110781565	5.350300E+01	  0.110781565	-3.630000E-01
455	  0.110981964	-2.943300E+01	  0.110981964	-5.702000E+00	  0.110981964	5.347400E+01	  0.110981964	-3.590000E-01
456	  0.111182362	-2.937200E+01	  0.111182362	-5.510000E+00	  0.111182362	5.350000E+01	  0.111182362	-3.490000E-01
457	  0.111382768	-2.943500E+01	  0.111382768	-6.054000E+00	  0.111382768	5.347100E+01	  0.111382768	-3.810000E-01
458	  0.111583166	-2.945400E+01	  0.111583166	-6.243000E+00	  0.111583166	5.346100E+01	  0.111583166	-3.910000E-01
459	  0.111783572	-2.945400E+01	  0.111783572	-6.313000E+00	  0.111783572	5.346100E+01	  0.111783572	-3.960000E-01
460	  0.111983970	-2.947500E+01	  0.111983970	-7.105000E+00	  0.111983970	5.344600E+01	  0.111983970	-4.440000E-01
461	  0.112184368	-2.944000E+01	  0.112184368	-6.756000E+00	  0.112184368	5.346300E+01	  0.112184368	-4.240000E-01
462	  0.112384774	-2.947200E+01	  0.112384774	-6.853000E+00	  0.112384774	5.344900E+01	  0.112384774	-4.290000E-01
463	  0.112585172	-2.946700E+01	  0.112585172	-7.681000E+00	  0.112585172	5.344400E+01	  0.112585172	-4.800000E-01
464	  0.112785570	-2.948000E+01	  0.112785570	-7.386000E+00	  0.112785570	5.344100E+01	  0.112785570	-4.610000E-01
465	  0.112985976	-2.941100E+01	  0.112985976	-8.320000E+00	  0.112985976	5.346100E+01	  0.112985976	-5.240000E-01
466	  0.113186374	-2.941300E+01	  0.113186374	-8.519000E+00	  0.113186374	5.345800E+01	  0.113186374	-5.360000E-01
467	  0.113386773	-2.943200E+01	  0.113386773	-8.200000E+00	  0.113386773	5.345400E+01	  0.113386773	-5.150000E-01
468	  0.113587178	-2.941700E+01	  0.113587178	-8.331000E+00	  0.113587178	5.345800E+01	  0.113587178	-5.240000E-01
469	  0.113787577	-2.935000E+01	  0.113787577	-8.189000E+00	  0.113787577	5.348800E+01	  0.113787577	-5.190000E-01
470	  0.113987975	-2.945300E+01	  0.113987975	-8.372000E+00	  0.113987975	5.344300E+01	  0.113987975	-5.240000E-01
471	  0.114188381	-2.942000E+01	  0.114188381	-8.684000E+00	  0.114188381	5.345400E+01	  0.114188381	-5.460000E-01
472	  0.114388779	-2.938200E+01	  0.114388779	-8.856000E+00	  0.114388779	5.346800E+01	  0.114388779	-5.590000E-01
473	  0.114589177	-2.933300E+01	  0.114589177	-9.785000E+00	  0.114589177	5.347800E+01	  0.114589177	-6.210000E-01
474	  0.114789583	-2.939800E+01	  0.114789583	-9.814000E+00	  0.114789583	5.345100E+01	  0.114789583	-6.180000E-01
475	  0.114989981	-2.940200E+01	  0.114989981	-9.813000E+00	  0.114989981	5.344900E+01	  0.114989981	-6.170000E-01
476	  0.115190387	-2.935900E+01	  0.115190387	-9.737000E+00	  0.115190387	5.346700E+01	  0.115190387	-6.160000E-01
477	  0.115390785	-2.932800E+01	  0.115390785	-1.001000E+01	  0.115390785	5.347700E+01	  0.115390785	-6.350000E-01
478	  0.115591183	-2.934200E+01	  0.115591183	-1.025400E+01	  0.115591183	5.346800E+01	  0.115591183	-6.500000E-01
479	  0.115791589	-2.939400E+01	  0.115791589	-1.021500E+01	  0.115791589	5.344700E+01	  0.115791589	-6.430000E-01
480	  0.115991987	-2.930800E+01	  0.115991987	-1.052500E+01	  0.115991987	5.347900E+01	  0.115991987	-6.690000E-01
481	  0.116192386	-2.937300E+01	  0.116192386	-1.095000E+01	  0.116192386	5.344700E+01	  0.116192386	-6.900000E-01
482	  0.116392791	-2.933900E+01	  0.116392791	-1.092200E+01	  0.116392791	5.346100E+01	  0.116392791	-6.920000E-01
483	  0.116593190	-2.930400E+01	  0.116593190	-1.114000E+01	  0.116593190	5.347300E+01	  0.116593190	-7.080000E-01
484	  0.116793588	-2.935600E+01	  0.116793588	-1.127700E+01	  0.116793588	5.345000E+01	  0.116793588	-7.120000E-01
485	  0.116993994	-2.926600E+01	  0.116993994	-1.133000E+01	  0.116993994	5.348600E+01	  0.116993994	-7.240000E-01
486	  0.117194392	-2.931200E+01	  0.117194392	-1.134000E+01	  0.117194392	5.346700E+01	  0.117194392	-7.200000E-01
487	  0.117394790	-2.923900E+01	  0.117394790	-1.162200E+01	  0.117394790	5.349300E+01	  0.117394790	-7.440000E-01
488	  0.117595196	-2.921800E+01	  0.117595196	-1.225700E+01	  0.117595196	5.349300E+01	  0.117595196	-7.860000E-01
489	  0.117795594	-2.916200E+01	  0.117795594	-1.168200E+01	  0.117795594	5.352400E+01	  0.117795594	-7.550000E-01
490	  0.117995992	-2.921800E+01	  0.117995992	-1.239300E+01	  0.117995992	5.349100E+01	  0.117995992	-7.950000E-01
491	  0.118196398	-2.912600E+01	  0.118196398	-1.200100E+01	  0.118196398	5.353500E+01	  0.118196398	-7.790000E-01
492	  0.118396796	-2.924400E+01	  0.118396796	-1.217400E+01	  0.118396796	5.348300E+01	  0.118396796	-7.790000E-01
493	  0.118597202	-2.915600E+01	  0.118597202	-1.239500E+01	  0.118597202	5.351700E+01	  0.118597202	-8.010000E-01
494	  0.118797600	-2.917700E+01	  0.118797600	-1.254500E+01	  0.118797600	5.350600E+01	  0.118797600	-8.090000E-01
495	  0.118997999	-2.915300E+01	  0.118997999	-1.267900E+01	  0.118997999	5.351400E+01	  0.118997999	-8.190000E-01
496	  0.119198404	-2.920600E+01	  0.119198404	-1.287800E+01	  0.119198404	5.348900E+01	  0.119198404	-8.270000E-01
497	  0.119398803	-2.920400E+01	  0.119398803	-1.256100E+01	  0.119398803	5.349400E+01	  0.119398803	-8.070000E-01
498	  0.119599201	-2.919800E+01	  0.119599201	-1.298800E+01	  0.119599201	5.349000E+01	  0.119599201	-8.340000E-01
499	  0.119799607	-2.922300E+01	  0.119799607	-1.274800E+01	  0.119799607	5.348400E+01	  0.119799607	-8.170000E-01
500	  0.120000005	-2.919600E+01	  0.120000005	-1.305300E+01	  0.120000005	5.349000E+01	  0.120000005	-8.390000E-01
