! Anritsu VNA Master:             	Model: MS2036C/10/77
! SN:             	1601066
! /card0/usr/18may27.balun/5a.r20.2.txt
! Existing Calibration Information:
! TYPE:             	Current Settings	Active Cal Settings
! TIME:             	05/27/2018 05:19:37 PM	05/27/2018 05:09:13 PM
! INTERNAL TEMP:    	53.3 C	53.3 C
! # POINTS:         	500	500
! START FREQ:       	20.000 MHz	20.000 MHz
! STOP FREQ:        	120.000 MHz	120.000 MHz
! SOURCE POWER:     	High	High
! IFBW:             	50 Hz	50 Hz
! AVG FACTOR:       	  1 	  1 
! REF PLANE 1:      	0 mm	0 mm
! REF PLANE 2:      	0 mm	0 mm
! CAL TYPE:         	Full S11	Full S11
! CAL METHOD:       	SOLT	SOLT
! CAL LINE TYPE:    	Coax	Coax
! DUT PORT 1:       	K-Conn(M)	K-Conn(M)
! DUT PORT 2:       	K-Conn(M)	K-Conn(M)
! CAL STATUS:       	OK: Accuracy High	--
! PROP-V:       	0.700
! CABLE LOSS:       	0.000 dB/m
! REF IMPEDANCE:       	50.0
! Trace Specific Parameters:	TR1	TR2	TR3	TR4
! TRACE.#.Y (GRAPH TYPE)	LOG MAG	PHASE	REAL IMPEDANCE	IMAGINARY IMPEDANCE
! TRACE.#.X 	FREQ.GHZ	FREQ.GHZ	FREQ.GHZ	FREQ.GHZ
! S-PARAMETER	S11	S11	S11	S11
! SMOOTH/APERTURE %	0	0	0	0
! WINDOW	NSL	NSL	NSL	NSL
! GATING	OFF	OFF	OFF	OFF
! FGTD	OFF	OFF	OFF	OFF
Marker Information per Trace:	TR1	TR2	TR3	TR4
!MK1	--	--	--	"MK1 TR4:  70.100 200 MHz,Z:(32.482 ohm, 35.068 ohm)"
!MK2	--	--	--	--
!MK3	--	--	--	--
!MK4	--	--	--	--
!MK5	--	--	--	--
!MK6	--	--	--	--
!MK7	--	--	--	--
!MK8	--	--	--	--
PNT	TR1.FREQ.GHZ	TR1.LOG MAG.dB	TR2.FREQ.GHZ	TR2.PHASE.deg	TR3.FREQ.GHZ	TR3.REAL IMPEDANCE.ohm	TR4.FREQ.GHZ	TR4.IMAGINARY IMPEDANCE.ohm
1	  0.020000000	-7.281000E+00	  0.020000000	1.545780E+02	  0.020000000	2.065200E+01	  0.020000000	9.432000E+00
2	  0.020200402	-7.283000E+00	  0.020200402	1.543150E+02	  0.020200402	2.067500E+01	  0.020200402	9.530000E+00
3	  0.020400802	-7.278000E+00	  0.020400802	1.540780E+02	  0.020400802	2.067900E+01	  0.020400802	9.622000E+00
4	  0.020601204	-7.277000E+00	  0.020601204	1.538420E+02	  0.020601204	2.069400E+01	  0.020601204	9.711000E+00
5	  0.020801604	-7.274000E+00	  0.020801604	1.535900E+02	  0.020801604	2.070500E+01	  0.020801604	9.808000E+00
6	  0.021002004	-7.269000E+00	  0.021002004	1.533360E+02	  0.021002004	2.071100E+01	  0.021002004	9.906000E+00
7	  0.021202406	-7.274000E+00	  0.021202406	1.530740E+02	  0.021202406	2.074100E+01	  0.021202406	1.000400E+01
8	  0.021402806	-7.277000E+00	  0.021402806	1.528350E+02	  0.021402806	2.076600E+01	  0.021402806	1.009300E+01
9	  0.021603208	-7.275000E+00	  0.021603208	1.526000E+02	  0.021603208	2.078000E+01	  0.021603208	1.018200E+01
10	  0.021803608	-7.281000E+00	  0.021803608	1.523640E+02	  0.021803608	2.081100E+01	  0.021803608	1.026900E+01
11	  0.022004008	-7.282000E+00	  0.022004008	1.521130E+02	  0.022004008	2.083400E+01	  0.022004008	1.036400E+01
12	  0.022204408	-7.284000E+00	  0.022204408	1.518810E+02	  0.022204408	2.085500E+01	  0.022204408	1.045100E+01
13	  0.022404809	-7.283000E+00	  0.022404809	1.516360E+02	  0.022404809	2.087200E+01	  0.022404809	1.054400E+01
14	  0.022605211	-7.291000E+00	  0.022605211	1.513630E+02	  0.022605211	2.091300E+01	  0.022605211	1.064400E+01
15	  0.022805611	-7.289000E+00	  0.022805611	1.511230E+02	  0.022805611	2.092700E+01	  0.022805611	1.073600E+01
16	  0.023006011	-7.289000E+00	  0.023006011	1.508660E+02	  0.023006011	2.094700E+01	  0.023006011	1.083300E+01
17	  0.023206413	-7.286000E+00	  0.023206413	1.505850E+02	  0.023206413	2.096100E+01	  0.023206413	1.094200E+01
18	  0.023406813	-7.286000E+00	  0.023406813	1.503270E+02	  0.023406813	2.098200E+01	  0.023406813	1.104100E+01
19	  0.023607215	-7.288000E+00	  0.023607215	1.500520E+02	  0.023607215	2.100800E+01	  0.023607215	1.114400E+01
20	  0.023807615	-7.285000E+00	  0.023807615	1.497740E+02	  0.023807615	2.102400E+01	  0.023807615	1.125200E+01
21	  0.024008015	-7.284000E+00	  0.024008015	1.495110E+02	  0.024008015	2.104500E+01	  0.024008015	1.135200E+01
22	  0.024208417	-7.282000E+00	  0.024208417	1.492820E+02	  0.024208417	2.105800E+01	  0.024208417	1.144100E+01
23	  0.024408817	-7.286000E+00	  0.024408817	1.490610E+02	  0.024408817	2.108800E+01	  0.024408817	1.152300E+01
24	  0.024609219	-7.290000E+00	  0.024609219	1.488390E+02	  0.024609219	2.111700E+01	  0.024609219	1.160500E+01
25	  0.024809619	-7.290000E+00	  0.024809619	1.486100E+02	  0.024809619	2.113700E+01	  0.024809619	1.169300E+01
26	  0.025010020	-7.290000E+00	  0.025010020	1.483630E+02	  0.025010020	2.115600E+01	  0.025010020	1.178800E+01
27	  0.025210422	-7.294000E+00	  0.025210422	1.481100E+02	  0.025210422	2.119100E+01	  0.025210422	1.188200E+01
28	  0.025410822	-7.298000E+00	  0.025410822	1.478470E+02	  0.025410822	2.122300E+01	  0.025410822	1.198000E+01
29	  0.025611224	-7.297000E+00	  0.025611224	1.475810E+02	  0.025611224	2.124300E+01	  0.025611224	1.208300E+01
30	  0.025811624	-7.289000E+00	  0.025811624	1.473160E+02	  0.025811624	2.124800E+01	  0.025811624	1.218900E+01
31	  0.026012026	-7.288000E+00	  0.026012026	1.470530E+02	  0.026012026	2.126800E+01	  0.026012026	1.229100E+01
32	  0.026212426	-7.286000E+00	  0.026212426	1.467960E+02	  0.026212426	2.128800E+01	  0.026212426	1.239000E+01
33	  0.026412826	-7.283000E+00	  0.026412826	1.465440E+02	  0.026412826	2.130300E+01	  0.026412826	1.248900E+01
34	  0.026613226	-7.283000E+00	  0.026613226	1.463230E+02	  0.026613226	2.132300E+01	  0.026613226	1.257400E+01
35	  0.026813626	-7.283000E+00	  0.026813626	1.460930E+02	  0.026813626	2.134400E+01	  0.026813626	1.266300E+01
36	  0.027014028	-7.282000E+00	  0.027014028	1.458780E+02	  0.027014028	2.136300E+01	  0.027014028	1.274600E+01
37	  0.027214428	-7.284000E+00	  0.027214428	1.457080E+02	  0.027214428	2.138500E+01	  0.027214428	1.281000E+01
38	  0.027414829	-7.285000E+00	  0.027414829	1.454890E+02	  0.027414829	2.140900E+01	  0.027414829	1.289400E+01
39	  0.027615231	-7.292000E+00	  0.027615231	1.452930E+02	  0.027615231	2.144400E+01	  0.027615231	1.296500E+01
40	  0.027815631	-7.299000E+00	  0.027815631	1.450380E+02	  0.027815631	2.148600E+01	  0.027815631	1.305900E+01
41	  0.028016033	-7.305000E+00	  0.028016033	1.447490E+02	  0.028016033	2.153100E+01	  0.028016033	1.316600E+01
42	  0.028216433	-7.305000E+00	  0.028216433	1.444820E+02	  0.028216433	2.155800E+01	  0.028216433	1.326900E+01
43	  0.028416833	-7.307000E+00	  0.028416833	1.441910E+02	  0.028416833	2.159300E+01	  0.028416833	1.338000E+01
44	  0.028617235	-7.311000E+00	  0.028617235	1.438930E+02	  0.028617235	2.163300E+01	  0.028617235	1.349300E+01
45	  0.028817635	-7.310000E+00	  0.028817635	1.436000E+02	  0.028817635	2.165900E+01	  0.028817635	1.360700E+01
46	  0.029018037	-7.310000E+00	  0.029018037	1.433020E+02	  0.029018037	2.169100E+01	  0.029018037	1.372200E+01
47	  0.029218437	-7.307000E+00	  0.029218437	1.429910E+02	  0.029218437	2.171600E+01	  0.029218437	1.384400E+01
48	  0.029418837	-7.301000E+00	  0.029418837	1.427650E+02	  0.029418837	2.172400E+01	  0.029418837	1.393600E+01
49	  0.029619239	-7.298000E+00	  0.029619239	1.425300E+02	  0.029619239	2.174000E+01	  0.029619239	1.403000E+01
50	  0.029819639	-7.293000E+00	  0.029819639	1.423220E+02	  0.029819639	2.174900E+01	  0.029819639	1.411400E+01
51	  0.030020041	-7.288000E+00	  0.030020041	1.421140E+02	  0.030020041	2.176100E+01	  0.030020041	1.419800E+01
52	  0.030220442	-7.291000E+00	  0.030220442	1.418990E+02	  0.030220442	2.179200E+01	  0.030220442	1.428000E+01
53	  0.030420844	-7.296000E+00	  0.030420844	1.416730E+02	  0.030420844	2.182700E+01	  0.030420844	1.436400E+01
54	  0.030621244	-7.302000E+00	  0.030621244	1.414360E+02	  0.030621244	2.187000E+01	  0.030621244	1.445200E+01
55	  0.030821644	-7.305000E+00	  0.030821644	1.411450E+02	  0.030821644	2.190900E+01	  0.030821644	1.456300E+01
56	  0.031022044	-7.306000E+00	  0.031022044	1.408610E+02	  0.031022044	2.194400E+01	  0.031022044	1.467300E+01
57	  0.031222444	-7.292000E+00	  0.031222444	1.406020E+02	  0.031222444	2.193600E+01	  0.031222444	1.478500E+01
58	  0.031422846	-7.293000E+00	  0.031422846	1.403490E+02	  0.031422846	2.196900E+01	  0.031422846	1.488300E+01
59	  0.031623244	-7.292000E+00	  0.031623244	1.400730E+02	  0.031623244	2.199800E+01	  0.031623244	1.499100E+01
60	  0.031823646	-7.288000E+00	  0.031823646	1.398160E+02	  0.031823646	2.201700E+01	  0.031823646	1.509500E+01
61	  0.032024048	-7.279000E+00	  0.032024048	1.395920E+02	  0.032024048	2.202000E+01	  0.032024048	1.519000E+01
62	  0.032224450	-7.272000E+00	  0.032224450	1.393270E+02	  0.032224450	2.203200E+01	  0.032224450	1.529900E+01
63	  0.032424849	-7.267000E+00	  0.032424849	1.391280E+02	  0.032424849	2.204200E+01	  0.032424849	1.538100E+01
64	  0.032625251	-7.262000E+00	  0.032625251	1.389360E+02	  0.032625251	2.205300E+01	  0.032625251	1.546000E+01
65	  0.032825653	-7.262000E+00	  0.032825653	1.387040E+02	  0.032825653	2.208200E+01	  0.032825653	1.555100E+01
66	  0.033026051	-7.264000E+00	  0.033026051	1.385210E+02	  0.033026051	2.210700E+01	  0.033026051	1.562200E+01
67	  0.033226453	-7.271000E+00	  0.033226453	1.382980E+02	  0.033226453	2.215400E+01	  0.033226453	1.570400E+01
68	  0.033426855	-7.276000E+00	  0.033426855	1.380480E+02	  0.033426855	2.219600E+01	  0.033426855	1.579900E+01
69	  0.033627257	-7.278000E+00	  0.033627257	1.377680E+02	  0.033627257	2.223700E+01	  0.033627257	1.590700E+01
70	  0.033827655	-7.284000E+00	  0.033827655	1.375220E+02	  0.033827655	2.228300E+01	  0.033827655	1.599900E+01
71	  0.034028057	-7.289000E+00	  0.034028057	1.372360E+02	  0.034028057	2.233000E+01	  0.034028057	1.610800E+01
72	  0.034228459	-7.294000E+00	  0.034228459	1.369550E+02	  0.034228459	2.238000E+01	  0.034228459	1.621500E+01
73	  0.034428857	-7.297000E+00	  0.034428857	1.366800E+02	  0.034428857	2.242400E+01	  0.034428857	1.632100E+01
74	  0.034629259	-7.298000E+00	  0.034629259	1.363920E+02	  0.034629259	2.246200E+01	  0.034629259	1.643400E+01
75	  0.034829661	-7.293000E+00	  0.034829661	1.361220E+02	  0.034829661	2.248400E+01	  0.034829661	1.654500E+01
76	  0.035030060	-7.284000E+00	  0.035030060	1.358590E+02	  0.035030060	2.249400E+01	  0.035030060	1.665700E+01
77	  0.035230462	-7.275000E+00	  0.035230462	1.355790E+02	  0.035230462	2.250900E+01	  0.035230462	1.677600E+01
78	  0.035430863	-7.268000E+00	  0.035430863	1.353400E+02	  0.035430863	2.252200E+01	  0.035430863	1.687600E+01
79	  0.035631265	-7.260000E+00	  0.035631265	1.351690E+02	  0.035631265	2.252400E+01	  0.035631265	1.695200E+01
80	  0.035831664	-7.263000E+00	  0.035831664	1.349910E+02	  0.035831664	2.255600E+01	  0.035831664	1.702000E+01
81	  0.036032066	-7.267000E+00	  0.036032066	1.347600E+02	  0.036032066	2.259700E+01	  0.036032066	1.710800E+01
82	  0.036232468	-7.272000E+00	  0.036232468	1.345400E+02	  0.036232468	2.263900E+01	  0.036232468	1.719200E+01
83	  0.036432866	-7.282000E+00	  0.036432866	1.342910E+02	  0.036432866	2.270000E+01	  0.036432866	1.728200E+01
84	  0.036633268	-7.286000E+00	  0.036633268	1.340120E+02	  0.036633268	2.274900E+01	  0.036633268	1.738900E+01
85	  0.036833670	-7.291000E+00	  0.036833670	1.337430E+02	  0.036833670	2.279800E+01	  0.036833670	1.749300E+01
86	  0.037034072	-7.289000E+00	  0.037034072	1.334890E+02	  0.037034072	2.282800E+01	  0.037034072	1.759600E+01
87	  0.037234470	-7.291000E+00	  0.037234470	1.332280E+02	  0.037234470	2.287000E+01	  0.037234470	1.769900E+01
88	  0.037434869	-7.285000E+00	  0.037434869	1.329530E+02	  0.037434869	2.289300E+01	  0.037434869	1.781400E+01
89	  0.037635271	-7.283000E+00	  0.037635271	1.327020E+02	  0.037635271	2.292400E+01	  0.037635271	1.791600E+01
90	  0.037835669	-7.274000E+00	  0.037835669	1.324570E+02	  0.037835669	2.293700E+01	  0.037835669	1.802200E+01
91	  0.038036071	-7.266000E+00	  0.038036071	1.322470E+02	  0.038036071	2.294600E+01	  0.038036071	1.811500E+01
92	  0.038236473	-7.265000E+00	  0.038236473	1.320390E+02	  0.038236473	2.297200E+01	  0.038236473	1.820000E+01
93	  0.038436871	-7.264000E+00	  0.038436871	1.318490E+02	  0.038436871	2.299900E+01	  0.038436871	1.827600E+01
94	  0.038637273	-7.271000E+00	  0.038637273	1.316170E+02	  0.038637273	2.305100E+01	  0.038637273	1.836300E+01
95	  0.038837675	-7.278000E+00	  0.038837675	1.313890E+02	  0.038837675	2.310300E+01	  0.038837675	1.844800E+01
96	  0.039038073	-7.285000E+00	  0.039038073	1.311160E+02	  0.039038073	2.316300E+01	  0.039038073	1.855100E+01
97	  0.039238475	-7.293000E+00	  0.039238475	1.308400E+02	  0.039238475	2.322500E+01	  0.039238475	1.865500E+01
98	  0.039438877	-7.294000E+00	  0.039438877	1.305600E+02	  0.039438877	2.327100E+01	  0.039438877	1.876600E+01
99	  0.039639279	-7.297000E+00	  0.039639279	1.302970E+02	  0.039639279	2.332000E+01	  0.039639279	1.886900E+01
100	  0.039839678	-7.299000E+00	  0.039839678	1.300200E+02	  0.039839678	2.336800E+01	  0.039839678	1.897900E+01
101	  0.040040080	-7.298000E+00	  0.040040080	1.297210E+02	  0.040040080	2.341000E+01	  0.040040080	1.910100E+01
102	  0.040240481	-7.295000E+00	  0.040240481	1.294570E+02	  0.040240481	2.344400E+01	  0.040240481	1.921100E+01
103	  0.040440880	-7.285000E+00	  0.040440880	1.291570E+02	  0.040440880	2.346400E+01	  0.040440880	1.934300E+01
104	  0.040641282	-7.274000E+00	  0.040641282	1.288800E+02	  0.040641282	2.347800E+01	  0.040641282	1.946700E+01
105	  0.040841684	-7.265000E+00	  0.040841684	1.286440E+02	  0.040841684	2.349300E+01	  0.040841684	1.957200E+01
106	  0.041042086	-7.260000E+00	  0.041042086	1.284460E+02	  0.041042086	2.351000E+01	  0.041042086	1.965900E+01
107	  0.041242484	-7.258000E+00	  0.041242484	1.282550E+02	  0.041242484	2.353600E+01	  0.041242484	1.973800E+01
108	  0.041442886	-7.262000E+00	  0.041442886	1.280800E+02	  0.041442886	2.357500E+01	  0.041442886	1.980600E+01
109	  0.041643288	-7.266000E+00	  0.041643288	1.278240E+02	  0.041643288	2.362800E+01	  0.041643288	1.990600E+01
110	  0.041843686	-7.273000E+00	  0.041843686	1.276080E+02	  0.041843686	2.368300E+01	  0.041843686	1.998600E+01
111	  0.042044088	-7.277000E+00	  0.042044088	1.273610E+02	  0.042044088	2.373600E+01	  0.042044088	2.008200E+01
112	  0.042244490	-7.280000E+00	  0.042244490	1.271190E+02	  0.042244490	2.378200E+01	  0.042244490	2.017800E+01
113	  0.042444889	-7.281000E+00	  0.042444889	1.268670E+02	  0.042444889	2.382800E+01	  0.042444889	2.028000E+01
114	  0.042645290	-7.278000E+00	  0.042645290	1.266020E+02	  0.042645290	2.386500E+01	  0.042645290	2.039200E+01
115	  0.042845692	-7.273000E+00	  0.042845692	1.263380E+02	  0.042845692	2.389700E+01	  0.042845692	2.050600E+01
116	  0.043046094	-7.269000E+00	  0.043046094	1.260810E+02	  0.043046094	2.393100E+01	  0.043046094	2.061500E+01
117	  0.043246493	-7.265000E+00	  0.043246493	1.258480E+02	  0.043246493	2.395800E+01	  0.043246493	2.071600E+01
118	  0.043446895	-7.260000E+00	  0.043446895	1.256270E+02	  0.043446895	2.398400E+01	  0.043446895	2.081300E+01
119	  0.043647297	-7.260000E+00	  0.043647297	1.254060E+02	  0.043647297	2.402200E+01	  0.043647297	2.090400E+01
120	  0.043847695	-7.262000E+00	  0.043847695	1.252350E+02	  0.043847695	2.405700E+01	  0.043847695	2.097200E+01
121	  0.044048097	-7.268000E+00	  0.044048097	1.249840E+02	  0.044048097	2.411900E+01	  0.044048097	2.106800E+01
122	  0.044248499	-7.276000E+00	  0.044248499	1.247360E+02	  0.044248499	2.418400E+01	  0.044248499	2.116100E+01
123	  0.044448901	-7.280000E+00	  0.044448901	1.244820E+02	  0.044448901	2.424200E+01	  0.044448901	2.126000E+01
124	  0.044649299	-7.283000E+00	  0.044649299	1.242210E+02	  0.044649299	2.429700E+01	  0.044649299	2.136500E+01
125	  0.044849701	-7.289000E+00	  0.044849701	1.239350E+02	  0.044849701	2.436500E+01	  0.044849701	2.147600E+01
126	  0.045050103	-7.292000E+00	  0.045050103	1.236540E+02	  0.045050103	2.442300E+01	  0.045050103	2.158900E+01
127	  0.045250501	-7.292000E+00	  0.045250501	1.233820E+02	  0.045250501	2.447400E+01	  0.045250501	2.170100E+01
128	  0.045450903	-7.291000E+00	  0.045450903	1.231170E+02	  0.045450903	2.452200E+01	  0.045450903	2.181100E+01
129	  0.045651305	-7.284000E+00	  0.045651305	1.227890E+02	  0.045651305	2.456500E+01	  0.045651305	2.195600E+01
130	  0.045851704	-7.274000E+00	  0.045851704	1.224980E+02	  0.045851704	2.459100E+01	  0.045851704	2.209000E+01
131	  0.046052106	-7.267000E+00	  0.046052106	1.222260E+02	  0.046052106	2.462400E+01	  0.046052106	2.221200E+01
132	  0.046252504	-7.256000E+00	  0.046252504	1.220070E+02	  0.046252504	2.463600E+01	  0.046252504	2.231700E+01
133	  0.046452906	-7.252000E+00	  0.046452906	1.217910E+02	  0.046452906	2.466700E+01	  0.046452906	2.241300E+01
134	  0.046653304	-7.247000E+00	  0.046653304	1.216090E+02	  0.046653304	2.468700E+01	  0.046653304	2.249500E+01
135	  0.046853706	-7.255000E+00	  0.046853706	1.213780E+02	  0.046853706	2.475400E+01	  0.046853706	2.258200E+01
136	  0.047054108	-7.254000E+00	  0.047054108	1.211590E+02	  0.047054108	2.479400E+01	  0.047054108	2.267400E+01
137	  0.047254506	-7.256000E+00	  0.047254506	1.209510E+02	  0.047254506	2.484200E+01	  0.047254506	2.275900E+01
138	  0.047454908	-7.257000E+00	  0.047454908	1.207120E+02	  0.047454908	2.489200E+01	  0.047454908	2.285700E+01
139	  0.047655310	-7.260000E+00	  0.047655310	1.204770E+02	  0.047655310	2.494600E+01	  0.047655310	2.295300E+01
140	  0.047855709	-7.261000E+00	  0.047855709	1.202650E+02	  0.047855709	2.499300E+01	  0.047855709	2.304000E+01
141	  0.048056111	-7.253000E+00	  0.048056111	1.200060E+02	  0.048056111	2.502200E+01	  0.048056111	2.315900E+01
142	  0.048256513	-7.253000E+00	  0.048256513	1.197270E+02	  0.048256513	2.507900E+01	  0.048256513	2.327700E+01
143	  0.048456915	-7.246000E+00	  0.048456915	1.195020E+02	  0.048456915	2.510500E+01	  0.048456915	2.338100E+01
144	  0.048657313	-7.241000E+00	  0.048657313	1.193060E+02	  0.048657313	2.513100E+01	  0.048657313	2.347100E+01
145	  0.048857715	-7.242000E+00	  0.048857715	1.190750E+02	  0.048857715	2.518100E+01	  0.048857715	2.356800E+01
146	  0.049058117	-7.244000E+00	  0.049058117	1.188890E+02	  0.049058117	2.522700E+01	  0.049058117	2.364200E+01
147	  0.049258515	-7.247000E+00	  0.049258515	1.186750E+02	  0.049258515	2.527800E+01	  0.049258515	2.373000E+01
148	  0.049458917	-7.254000E+00	  0.049458917	1.184700E+02	  0.049458917	2.534200E+01	  0.049458917	2.380600E+01
149	  0.049659319	-7.258000E+00	  0.049659319	1.182430E+02	  0.049659319	2.540200E+01	  0.049659319	2.389600E+01
150	  0.049859721	-7.268000E+00	  0.049859721	1.179780E+02	  0.049859721	2.548400E+01	  0.049859721	2.399600E+01
151	  0.050060119	-7.271000E+00	  0.050060119	1.177260E+02	  0.050060119	2.554800E+01	  0.050060119	2.409700E+01
152	  0.050260521	-7.276000E+00	  0.050260521	1.174640E+02	  0.050260521	2.561800E+01	  0.050260521	2.420100E+01
153	  0.050460923	-7.282000E+00	  0.050460923	1.171900E+02	  0.050460923	2.569300E+01	  0.050460923	2.431000E+01
154	  0.050661322	-7.283000E+00	  0.050661322	1.168920E+02	  0.050661322	2.576200E+01	  0.050661322	2.443400E+01
155	  0.050861724	-7.279000E+00	  0.050861724	1.166220E+02	  0.050861724	2.581100E+01	  0.050861724	2.455400E+01
156	  0.051062126	-7.275000E+00	  0.051062126	1.163030E+02	  0.051062126	2.587100E+01	  0.051062126	2.469600E+01
157	  0.051262524	-7.270000E+00	  0.051262524	1.160240E+02	  0.051262524	2.591700E+01	  0.051262524	2.482300E+01
158	  0.051462926	-7.266000E+00	  0.051462926	1.157540E+02	  0.051462926	2.596900E+01	  0.051462926	2.494300E+01
159	  0.051663328	-7.257000E+00	  0.051663328	1.155210E+02	  0.051663328	2.599600E+01	  0.051663328	2.505700E+01
160	  0.051863730	-7.255000E+00	  0.051863730	1.152900E+02	  0.051863730	2.604300E+01	  0.051863730	2.515800E+01
161	  0.052064128	-7.253000E+00	  0.052064128	1.150640E+02	  0.052064128	2.609000E+01	  0.052064128	2.525800E+01
162	  0.052264530	-7.256000E+00	  0.052264530	1.148350E+02	  0.052264530	2.615000E+01	  0.052264530	2.535200E+01
163	  0.052464932	-7.254000E+00	  0.052464932	1.146060E+02	  0.052464932	2.619800E+01	  0.052464932	2.545300E+01
164	  0.052665330	-7.256000E+00	  0.052665330	1.143610E+02	  0.052665330	2.626000E+01	  0.052665330	2.555600E+01
165	  0.052865732	-7.259000E+00	  0.052865732	1.141380E+02	  0.052865732	2.632100E+01	  0.052865732	2.564700E+01
166	  0.053066134	-7.258000E+00	  0.053066134	1.138750E+02	  0.053066134	2.638100E+01	  0.053066134	2.576200E+01
167	  0.053266536	-7.255000E+00	  0.053266536	1.135920E+02	  0.053266536	2.644100E+01	  0.053266536	2.588800E+01
168	  0.053466935	-7.250000E+00	  0.053466935	1.133360E+02	  0.053466935	2.648700E+01	  0.053466935	2.600700E+01
169	  0.053667337	-7.245000E+00	  0.053667337	1.130990E+02	  0.053667337	2.653000E+01	  0.053667337	2.611700E+01
170	  0.053867739	-7.240000E+00	  0.053867739	1.128590E+02	  0.053867739	2.657300E+01	  0.053867739	2.623000E+01
171	  0.054068137	-7.240000E+00	  0.054068137	1.126120E+02	  0.054068137	2.663400E+01	  0.054068137	2.633700E+01
172	  0.054268539	-7.236000E+00	  0.054268539	1.124040E+02	  0.054268539	2.667300E+01	  0.054268539	2.643300E+01
173	  0.054468941	-7.234000E+00	  0.054468941	1.121990E+02	  0.054468941	2.671800E+01	  0.054468941	2.652500E+01
174	  0.054669339	-7.236000E+00	  0.054669339	1.119730E+02	  0.054669339	2.678100E+01	  0.054669339	2.662000E+01
175	  0.054869737	-7.238000E+00	  0.054869737	1.117730E+02	  0.054869737	2.683500E+01	  0.054869737	2.670400E+01
176	  0.055070139	-7.241000E+00	  0.055070139	1.115360E+02	  0.055070139	2.690500E+01	  0.055070139	2.680200E+01
177	  0.055270538	-7.244000E+00	  0.055270538	1.112810E+02	  0.055270538	2.697800E+01	  0.055270538	2.690800E+01
178	  0.055470940	-7.250000E+00	  0.055470940	1.110450E+02	  0.055470940	2.705400E+01	  0.055470940	2.700100E+01
179	  0.055671342	-7.254000E+00	  0.055671342	1.108070E+02	  0.055671342	2.712700E+01	  0.055671342	2.709800E+01
180	  0.055871744	-7.252000E+00	  0.055871744	1.105300E+02	  0.055871744	2.719100E+01	  0.055871744	2.722300E+01
181	  0.056072142	-7.251000E+00	  0.056072142	1.102450E+02	  0.056072142	2.726200E+01	  0.056072142	2.734900E+01
182	  0.056272544	-7.249000E+00	  0.056272544	1.099730E+02	  0.056272544	2.732900E+01	  0.056272544	2.747100E+01
183	  0.056472946	-7.245000E+00	  0.056472946	1.096910E+02	  0.056472946	2.739000E+01	  0.056472946	2.760200E+01
184	  0.056673344	-7.242000E+00	  0.056673344	1.094250E+02	  0.056673344	2.745300E+01	  0.056673344	2.772400E+01
185	  0.056873746	-7.239000E+00	  0.056873746	1.091870E+02	  0.056873746	2.750700E+01	  0.056873746	2.783300E+01
186	  0.057074148	-7.233000E+00	  0.057074148	1.089580E+02	  0.057074148	2.755000E+01	  0.057074148	2.794500E+01
187	  0.057274550	-7.231000E+00	  0.057274550	1.087430E+02	  0.057274550	2.760200E+01	  0.057274550	2.804400E+01
188	  0.057474948	-7.225000E+00	  0.057474948	1.085200E+02	  0.057474948	2.764800E+01	  0.057474948	2.815100E+01
189	  0.057675350	-7.226000E+00	  0.057675350	1.083230E+02	  0.057675350	2.770400E+01	  0.057675350	2.823600E+01
190	  0.057875752	-7.225000E+00	  0.057875752	1.080870E+02	  0.057875752	2.776600E+01	  0.057875752	2.834300E+01
191	  0.058076151	-7.228000E+00	  0.058076151	1.078950E+02	  0.058076151	2.782700E+01	  0.058076151	2.842200E+01
192	  0.058276553	-7.228000E+00	  0.058276553	1.076580E+02	  0.058276553	2.789100E+01	  0.058276553	2.852800E+01
193	  0.058476955	-7.227000E+00	  0.058476955	1.074140E+02	  0.058476955	2.795600E+01	  0.058476955	2.863800E+01
194	  0.058677353	-7.228000E+00	  0.058677353	1.071560E+02	  0.058677353	2.803200E+01	  0.058677353	2.875000E+01
195	  0.058877755	-7.226000E+00	  0.058877755	1.069010E+02	  0.058877755	2.809800E+01	  0.058877755	2.886700E+01
196	  0.059078157	-7.228000E+00	  0.059078157	1.066520E+02	  0.059078157	2.817400E+01	  0.059078157	2.897400E+01
197	  0.059278559	-7.226000E+00	  0.059278559	1.064450E+02	  0.059278559	2.822800E+01	  0.059278559	2.907000E+01
198	  0.059478957	-7.226000E+00	  0.059478957	1.061880E+02	  0.059478957	2.830200E+01	  0.059478957	2.918400E+01
199	  0.059679359	-7.226000E+00	  0.059679359	1.059690E+02	  0.059679359	2.836600E+01	  0.059679359	2.928100E+01
200	  0.059879761	-7.225000E+00	  0.059879761	1.057740E+02	  0.059879761	2.841900E+01	  0.059879761	2.937100E+01
201	  0.060080159	-7.231000E+00	  0.060080159	1.055410E+02	  0.060080159	2.850500E+01	  0.060080159	2.946200E+01
202	  0.060280561	-7.229000E+00	  0.060280561	1.052890E+02	  0.060280561	2.857400E+01	  0.060280561	2.957800E+01
203	  0.060480963	-7.235000E+00	  0.060480963	1.050580E+02	  0.060480963	2.865800E+01	  0.060480963	2.967000E+01
204	  0.060681365	-7.240000E+00	  0.060681365	1.048020E+02	  0.060681365	2.875000E+01	  0.060681365	2.977500E+01
205	  0.060881764	-7.246000E+00	  0.060881764	1.045970E+02	  0.060881764	2.883000E+01	  0.060881764	2.985400E+01
206	  0.061082166	-7.245000E+00	  0.061082166	1.043100E+02	  0.061082166	2.891300E+01	  0.061082166	2.998500E+01
207	  0.061282568	-7.245000E+00	  0.061282568	1.040370E+02	  0.061282568	2.899500E+01	  0.061282568	3.010700E+01
208	  0.061482966	-7.244000E+00	  0.061482966	1.037370E+02	  0.061482966	2.908600E+01	  0.061482966	3.024300E+01
209	  0.061683368	-7.242000E+00	  0.061683368	1.034310E+02	  0.061683368	2.917200E+01	  0.061683368	3.038500E+01
210	  0.061883770	-7.241000E+00	  0.061883770	1.031370E+02	  0.061883770	2.926200E+01	  0.061883770	3.051900E+01
211	  0.062084168	-7.234000E+00	  0.062084168	1.028790E+02	  0.062084168	2.932100E+01	  0.062084168	3.064900E+01
212	  0.062284570	-7.222000E+00	  0.062284570	1.026260E+02	  0.062284570	2.936600E+01	  0.062284570	3.078800E+01
213	  0.062484972	-7.212000E+00	  0.062484972	1.024350E+02	  0.062484972	2.939700E+01	  0.062484972	3.089500E+01
214	  0.062685370	-7.205000E+00	  0.062685370	1.022160E+02	  0.062685370	2.944300E+01	  0.062685370	3.101000E+01
215	  0.062885776	-7.205000E+00	  0.062885776	1.019640E+02	  0.062885776	2.952600E+01	  0.062885776	3.112300E+01
216	  0.063086174	-7.201000E+00	  0.063086174	1.017850E+02	  0.063086174	2.957100E+01	  0.063086174	3.121300E+01
217	  0.063286573	-7.199000E+00	  0.063286573	1.015590E+02	  0.063286573	2.963900E+01	  0.063286573	3.131900E+01
218	  0.063486971	-7.197000E+00	  0.063486971	1.013420E+02	  0.063486971	2.970300E+01	  0.063486971	3.142200E+01
219	  0.063687377	-7.199000E+00	  0.063687377	1.011150E+02	  0.063687377	2.978300E+01	  0.063687377	3.152100E+01
220	  0.063887775	-7.193000E+00	  0.063887775	1.008890E+02	  0.063887775	2.983900E+01	  0.063887775	3.163700E+01
221	  0.064088173	-7.197000E+00	  0.064088173	1.006590E+02	  0.064088173	2.992600E+01	  0.064088173	3.173400E+01
222	  0.064288579	-7.197000E+00	  0.064288579	1.003960E+02	  0.064288579	3.001400E+01	  0.064288579	3.185300E+01
223	  0.064488977	-7.197000E+00	  0.064488977	1.002030E+02	  0.064488977	3.007800E+01	  0.064488977	3.194200E+01
224	  0.064689375	-7.197000E+00	  0.064689375	9.997200E+01	  0.064689375	3.015500E+01	  0.064689375	3.204800E+01
225	  0.064889781	-7.197000E+00	  0.064889781	9.973100E+01	  0.064889781	3.023800E+01	  0.064889781	3.215700E+01
226	  0.065090179	-7.200000E+00	  0.065090179	9.955100E+01	  0.065090179	3.030900E+01	  0.065090179	3.223300E+01
227	  0.065290578	-7.195000E+00	  0.065290578	9.933100E+01	  0.065290578	3.036900E+01	  0.065290578	3.234500E+01
228	  0.065490983	-7.204000E+00	  0.065490983	9.906200E+01	  0.065490983	3.048700E+01	  0.065490983	3.244800E+01
229	  0.065691382	-7.205000E+00	  0.065691382	9.886000E+01	  0.065691382	3.056000E+01	  0.065691382	3.253900E+01
230	  0.065891780	-7.209000E+00	  0.065891780	9.863600E+01	  0.065891780	3.065200E+01	  0.065891780	3.263100E+01
231	  0.066092186	-7.210000E+00	  0.066092186	9.839200E+01	  0.066092186	3.073900E+01	  0.066092186	3.274100E+01
232	  0.066292584	-7.220000E+00	  0.066292584	9.814900E+01	  0.066292584	3.085500E+01	  0.066292584	3.283000E+01
233	  0.066492982	-7.216000E+00	  0.066492982	9.787700E+01	  0.066492982	3.094000E+01	  0.066492982	3.296300E+01
234	  0.066693388	-7.218000E+00	  0.066693388	9.758900E+01	  0.066693388	3.105000E+01	  0.066693388	3.309000E+01
235	  0.066893786	-7.221000E+00	  0.066893786	9.728900E+01	  0.066893786	3.116600E+01	  0.066893786	3.322100E+01
236	  0.067094192	-7.220000E+00	  0.067094192	9.698600E+01	  0.067094192	3.127400E+01	  0.067094192	3.336200E+01
237	  0.067294590	-7.218000E+00	  0.067294590	9.672800E+01	  0.067294590	3.136000E+01	  0.067294590	3.348800E+01
238	  0.067494988	-7.212000E+00	  0.067494988	9.647800E+01	  0.067494988	3.143600E+01	  0.067494988	3.361600E+01
239	  0.067695394	-7.205000E+00	  0.067695394	9.616500E+01	  0.067695394	3.152800E+01	  0.067695394	3.377900E+01
240	  0.067895792	-7.198000E+00	  0.067895792	9.592300E+01	  0.067895792	3.159700E+01	  0.067895792	3.390800E+01
241	  0.068096191	-7.196000E+00	  0.068096191	9.571000E+01	  0.068096191	3.167100E+01	  0.068096191	3.401100E+01
242	  0.068296596	-7.188000E+00	  0.068296596	9.547400E+01	  0.068296596	3.173700E+01	  0.068296596	3.414000E+01
243	  0.068496995	-7.182000E+00	  0.068496995	9.528400E+01	  0.068496995	3.179100E+01	  0.068496995	3.424200E+01
244	  0.068697393	-7.181000E+00	  0.068697393	9.505300E+01	  0.068697393	3.187600E+01	  0.068697393	3.435200E+01
245	  0.068897791	-7.176000E+00	  0.068897791	9.484000E+01	  0.068897791	3.194200E+01	  0.068897791	3.446400E+01
246	  0.069098189	-7.175000E+00	  0.069098189	9.463400E+01	  0.069098189	3.201900E+01	  0.069098189	3.456200E+01
247	  0.069298595	-7.175000E+00	  0.069298595	9.443000E+01	  0.069298595	3.209600E+01	  0.069298595	3.465900E+01
248	  0.069498993	-7.175000E+00	  0.069498993	9.418200E+01	  0.069498993	3.219400E+01	  0.069498993	3.477400E+01
249	  0.069699399	-7.174000E+00	  0.069699399	9.395300E+01	  0.069699399	3.228000E+01	  0.069699399	3.488400E+01
250	  0.069899797	-7.173000E+00	  0.069899797	9.376400E+01	  0.069899797	3.235000E+01	  0.069899797	3.497500E+01
251	  0.070100196	-7.183000E+00	  0.070100196	9.350900E+01	  0.070100196	3.248200E+01	  0.070100196	3.506800E+01
252	  0.070300601	-7.183000E+00	  0.070300601	9.332000E+01	  0.070300601	3.255800E+01	  0.070300601	3.515600E+01
253	  0.070501000	-7.177000E+00	  0.070501000	9.309400E+01	  0.070501000	3.263200E+01	  0.070501000	3.527600E+01
254	  0.070701398	-7.178000E+00	  0.070701398	9.285500E+01	  0.070701398	3.273100E+01	  0.070701398	3.538500E+01
255	  0.070901804	-7.183000E+00	  0.070901804	9.262800E+01	  0.070901804	3.283900E+01	  0.070901804	3.547800E+01
256	  0.071102202	-7.189000E+00	  0.071102202	9.244100E+01	  0.071102202	3.293200E+01	  0.071102202	3.555100E+01
257	  0.071302600	-7.194000E+00	  0.071302600	9.219700E+01	  0.071302600	3.304700E+01	  0.071302600	3.565100E+01
258	  0.071503006	-7.190000E+00	  0.071503006	9.193100E+01	  0.071503006	3.314400E+01	  0.071503006	3.578700E+01
259	  0.071703404	-7.196000E+00	  0.071703404	9.171100E+01	  0.071703404	3.325500E+01	  0.071703404	3.587300E+01
260	  0.071903802	-7.204000E+00	  0.071903802	9.142000E+01	  0.071903802	3.340000E+01	  0.071903802	3.598700E+01
261	  0.072104208	-7.203000E+00	  0.072104208	9.114500E+01	  0.072104208	3.351300E+01	  0.072104208	3.611900E+01
262	  0.072304606	-7.211000E+00	  0.072304606	9.084300E+01	  0.072304606	3.366600E+01	  0.072304606	3.623800E+01
263	  0.072505005	-7.209000E+00	  0.072505005	9.054100E+01	  0.072505005	3.379100E+01	  0.072505005	3.638300E+01
264	  0.072705410	-7.206000E+00	  0.072705410	9.025700E+01	  0.072705410	3.390200E+01	  0.072705410	3.652600E+01
265	  0.072905809	-7.192000E+00	  0.072905809	8.993300E+01	  0.072905809	3.400100E+01	  0.072905809	3.671700E+01
266	  0.073106214	-7.188000E+00	  0.073106214	8.967600E+01	  0.073106214	3.410100E+01	  0.073106214	3.684900E+01
267	  0.073306613	-7.187000E+00	  0.073306613	8.943100E+01	  0.073306613	3.420500E+01	  0.073306613	3.696800E+01
268	  0.073507011	-7.182000E+00	  0.073507011	8.917100E+01	  0.073507011	3.430400E+01	  0.073507011	3.710500E+01
269	  0.073707417	-7.172000E+00	  0.073707417	8.895000E+01	  0.073707417	3.437100E+01	  0.073707417	3.723900E+01
270	  0.073907815	-7.167000E+00	  0.073907815	8.874900E+01	  0.073907815	3.444600E+01	  0.073907815	3.734900E+01
271	  0.074108213	-7.159000E+00	  0.074108213	8.849700E+01	  0.074108213	3.453400E+01	  0.074108213	3.749200E+01
272	  0.074308619	-7.151000E+00	  0.074308619	8.824100E+01	  0.074308619	3.462600E+01	  0.074308619	3.763700E+01
273	  0.074509017	-7.152000E+00	  0.074509017	8.808100E+01	  0.074509017	3.470200E+01	  0.074509017	3.771000E+01
274	  0.074709415	-7.151000E+00	  0.074709415	8.784300E+01	  0.074709415	3.480800E+01	  0.074709415	3.782500E+01
275	  0.074909821	-7.148000E+00	  0.074909821	8.762700E+01	  0.074909821	3.489700E+01	  0.074909821	3.793900E+01
276	  0.075110219	-7.146000E+00	  0.075110219	8.743300E+01	  0.075110219	3.498200E+01	  0.075110219	3.803500E+01
277	  0.075310618	-7.142000E+00	  0.075310618	8.718500E+01	  0.075310618	3.508600E+01	  0.075310618	3.816400E+01
278	  0.075511023	-7.144000E+00	  0.075511023	8.698800E+01	  0.075511023	3.518300E+01	  0.075511023	3.825300E+01
279	  0.075711422	-7.148000E+00	  0.075711422	8.675300E+01	  0.075711422	3.530500E+01	  0.075711422	3.835400E+01
280	  0.075911827	-7.146000E+00	  0.075911827	8.659200E+01	  0.075911827	3.537800E+01	  0.075911827	3.843400E+01
281	  0.076112226	-7.146000E+00	  0.076112226	8.636300E+01	  0.076112226	3.548700E+01	  0.076112226	3.854400E+01
282	  0.076312624	-7.143000E+00	  0.076312624	8.618400E+01	  0.076312624	3.556200E+01	  0.076312624	3.863900E+01
283	  0.076513030	-7.145000E+00	  0.076513030	8.594200E+01	  0.076513030	3.568400E+01	  0.076513030	3.874800E+01
284	  0.076713428	-7.148000E+00	  0.076713428	8.576600E+01	  0.076713428	3.578000E+01	  0.076713428	3.882000E+01
285	  0.076913826	-7.156000E+00	  0.076913826	8.550100E+01	  0.076913826	3.593200E+01	  0.076913826	3.892300E+01
286	  0.077114232	-7.156000E+00	  0.077114232	8.527400E+01	  0.077114232	3.604400E+01	  0.077114232	3.903100E+01
287	  0.077314630	-7.165000E+00	  0.077314630	8.499300E+01	  0.077314630	3.621100E+01	  0.077314630	3.913400E+01
288	  0.077515028	-7.163000E+00	  0.077515028	8.473300E+01	  0.077515028	3.633500E+01	  0.077515028	3.926400E+01
289	  0.077715434	-7.168000E+00	  0.077715434	8.445000E+01	  0.077715434	3.649100E+01	  0.077715434	3.938300E+01
290	  0.077915832	-7.168000E+00	  0.077915832	8.419600E+01	  0.077915832	3.661900E+01	  0.077915832	3.950300E+01
291	  0.078116231	-7.169000E+00	  0.078116231	8.391600E+01	  0.078116231	3.676500E+01	  0.078116231	3.963100E+01
292	  0.078316636	-7.166000E+00	  0.078316636	8.364900E+01	  0.078316636	3.689200E+01	  0.078316636	3.976800E+01
293	  0.078517035	-7.165000E+00	  0.078517035	8.335300E+01	  0.078517035	3.703800E+01	  0.078517035	3.991500E+01
294	  0.078717433	-7.158000E+00	  0.078717433	8.308900E+01	  0.078717433	3.715600E+01	  0.078717433	4.006100E+01
295	  0.078917839	-7.153000E+00	  0.078917839	8.283900E+01	  0.078917839	3.726800E+01	  0.078917839	4.020000E+01
296	  0.079118237	-7.147000E+00	  0.079118237	8.261000E+01	  0.079118237	3.737100E+01	  0.079118237	4.032800E+01
297	  0.079318643	-7.136000E+00	  0.079318643	8.238900E+01	  0.079318643	3.745200E+01	  0.079318643	4.047300E+01
298	  0.079519041	-7.136000E+00	  0.079519041	8.214800E+01	  0.079519041	3.758000E+01	  0.079519041	4.058800E+01
299	  0.079719439	-7.129000E+00	  0.079719439	8.193000E+01	  0.079719439	3.767500E+01	  0.079719439	4.071600E+01
300	  0.079919845	-7.130000E+00	  0.079919845	8.172700E+01	  0.079919845	3.778800E+01	  0.079919845	4.080800E+01
301	  0.080120243	-7.134000E+00	  0.080120243	8.146300E+01	  0.080120243	3.794100E+01	  0.080120243	4.092300E+01
302	  0.080320641	-7.129000E+00	  0.080320641	8.125400E+01	  0.080320641	3.804000E+01	  0.080320641	4.103900E+01
303	  0.080521047	-7.127000E+00	  0.080521047	8.106400E+01	  0.080521047	3.813700E+01	  0.080521047	4.113800E+01
304	  0.080721445	-7.129000E+00	  0.080721445	8.086700E+01	  0.080721445	3.825200E+01	  0.080721445	4.122400E+01
305	  0.080921844	-7.127000E+00	  0.080921844	8.060200E+01	  0.080921844	3.839400E+01	  0.080921844	4.135700E+01
306	  0.081122249	-7.130000E+00	  0.081122249	8.036600E+01	  0.081122249	3.853200E+01	  0.081122249	4.146000E+01
307	  0.081322648	-7.120000E+00	  0.081322648	8.017200E+01	  0.081322648	3.861100E+01	  0.081322648	4.158800E+01
308	  0.081523046	-7.118000E+00	  0.081523046	7.998000E+01	  0.081523046	3.871200E+01	  0.081523046	4.168700E+01
309	  0.081723452	-7.118000E+00	  0.081723452	7.974500E+01	  0.081723452	3.884400E+01	  0.081723452	4.180100E+01
310	  0.081923850	-7.123000E+00	  0.081923850	7.958800E+01	  0.081923850	3.894800E+01	  0.081923850	4.185800E+01
311	  0.082124248	-7.127000E+00	  0.082124248	7.932000E+01	  0.082124248	3.911400E+01	  0.082124248	4.197000E+01
312	  0.082324654	-7.129000E+00	  0.082324654	7.910200E+01	  0.082324654	3.924500E+01	  0.082324654	4.206700E+01
313	  0.082525052	-7.131000E+00	  0.082525052	7.884000E+01	  0.082525052	3.940400E+01	  0.082525052	4.218300E+01
314	  0.082725458	-7.134000E+00	  0.082725458	7.861500E+01	  0.082725458	3.954500E+01	  0.082725458	4.227700E+01
315	  0.082925856	-7.139000E+00	  0.082925856	7.836100E+01	  0.082925856	3.970700E+01	  0.082925856	4.238100E+01
316	  0.083126254	-7.145000E+00	  0.083126254	7.811500E+01	  0.083126254	3.987200E+01	  0.083126254	4.247400E+01
317	  0.083326660	-7.146000E+00	  0.083326660	7.783200E+01	  0.083326660	4.004200E+01	  0.083326660	4.260500E+01
318	  0.083527058	-7.142000E+00	  0.083527058	7.757100E+01	  0.083527058	4.018800E+01	  0.083527058	4.274200E+01
319	  0.083727457	-7.143000E+00	  0.083727457	7.728400E+01	  0.083727457	4.036100E+01	  0.083727457	4.287600E+01
320	  0.083927862	-7.140000E+00	  0.083927862	7.700100E+01	  0.083927862	4.052500E+01	  0.083927862	4.302100E+01
321	  0.084128261	-7.136000E+00	  0.084128261	7.669700E+01	  0.084128261	4.069800E+01	  0.084128261	4.318000E+01
322	  0.084328659	-7.133000E+00	  0.084328659	7.646500E+01	  0.084328659	4.083000E+01	  0.084328659	4.330400E+01
323	  0.084529065	-7.127000E+00	  0.084529065	7.623300E+01	  0.084529065	4.095600E+01	  0.084529065	4.343700E+01
324	  0.084729463	-7.114000E+00	  0.084729463	7.597800E+01	  0.084729463	4.107600E+01	  0.084729463	4.360900E+01
325	  0.084929861	-7.115000E+00	  0.084929861	7.575200E+01	  0.084929861	4.122000E+01	  0.084929861	4.371300E+01
326	  0.085130267	-7.113000E+00	  0.085130267	7.552700E+01	  0.085130267	4.135400E+01	  0.085130267	4.382900E+01
327	  0.085330658	-7.111000E+00	  0.085330658	7.530900E+01	  0.085330658	4.148700E+01	  0.085330658	4.393900E+01
328	  0.085531056	-7.108000E+00	  0.085531056	7.508000E+01	  0.085531056	4.162500E+01	  0.085531056	4.406000E+01
329	  0.085731462	-7.106000E+00	  0.085731462	7.490700E+01	  0.085731462	4.172800E+01	  0.085731462	4.415200E+01
330	  0.085931860	-7.107000E+00	  0.085931860	7.471200E+01	  0.085931860	4.185900E+01	  0.085931860	4.423700E+01
331	  0.086132258	-7.103000E+00	  0.086132258	7.442900E+01	  0.086132258	4.203000E+01	  0.086132258	4.438900E+01
332	  0.086332664	-7.107000E+00	  0.086332664	7.420800E+01	  0.086332664	4.218500E+01	  0.086332664	4.447700E+01
333	  0.086533062	-7.098000E+00	  0.086533062	7.399800E+01	  0.086533062	4.229400E+01	  0.086533062	4.461600E+01
334	  0.086733460	-7.098000E+00	  0.086733460	7.379900E+01	  0.086733460	4.242600E+01	  0.086733460	4.471000E+01
335	  0.086933866	-7.095000E+00	  0.086933866	7.359900E+01	  0.086933866	4.255000E+01	  0.086933866	4.481600E+01
336	  0.087134264	-7.094000E+00	  0.087134264	7.338200E+01	  0.087134264	4.269300E+01	  0.087134264	4.492200E+01
337	  0.087334670	-7.097000E+00	  0.087334670	7.319000E+01	  0.087334670	4.282900E+01	  0.087334670	4.500100E+01
338	  0.087535068	-7.097000E+00	  0.087535068	7.299300E+01	  0.087535068	4.296300E+01	  0.087535068	4.509100E+01
339	  0.087735467	-7.097000E+00	  0.087735467	7.279200E+01	  0.087735467	4.309900E+01	  0.087735467	4.518600E+01
340	  0.087935872	-7.104000E+00	  0.087935872	7.254700E+01	  0.087935872	4.328700E+01	  0.087935872	4.527000E+01
341	  0.088136271	-7.108000E+00	  0.088136271	7.233700E+01	  0.088136271	4.344500E+01	  0.088136271	4.534800E+01
342	  0.088336669	-7.113000E+00	  0.088336669	7.209200E+01	  0.088336669	4.362800E+01	  0.088336669	4.544000E+01
343	  0.088537075	-7.117000E+00	  0.088537075	7.181900E+01	  0.088537075	4.383000E+01	  0.088537075	4.554900E+01
344	  0.088737473	-7.116000E+00	  0.088737473	7.153200E+01	  0.088737473	4.403000E+01	  0.088737473	4.568300E+01
345	  0.088937871	-7.127000E+00	  0.088937871	7.128500E+01	  0.088937871	4.423700E+01	  0.088937871	4.574700E+01
346	  0.089138277	-7.124000E+00	  0.089138277	7.099300E+01	  0.089138277	4.443400E+01	  0.089138277	4.589700E+01
347	  0.089338675	-7.118000E+00	  0.089338675	7.074800E+01	  0.089338675	4.459100E+01	  0.089338675	4.603700E+01
348	  0.089539073	-7.116000E+00	  0.089539073	7.046400E+01	  0.089539073	4.478800E+01	  0.089539073	4.617800E+01
349	  0.089739479	-7.110000E+00	  0.089739479	7.022100E+01	  0.089739479	4.494700E+01	  0.089739479	4.631700E+01
350	  0.089939877	-7.110000E+00	  0.089939877	6.996100E+01	  0.089939877	4.513700E+01	  0.089939877	4.643600E+01
351	  0.090140276	-7.104000E+00	  0.090140276	6.971000E+01	  0.090140276	4.530400E+01	  0.090140276	4.657800E+01
352	  0.090340681	-7.102000E+00	  0.090340681	6.950300E+01	  0.090340681	4.545000E+01	  0.090340681	4.668300E+01
353	  0.090541080	-7.100000E+00	  0.090541080	6.923700E+01	  0.090541080	4.564200E+01	  0.090541080	4.681300E+01
354	  0.090741485	-7.098000E+00	  0.090741485	6.900500E+01	  0.090741485	4.580900E+01	  0.090741485	4.692900E+01
355	  0.090941884	-7.097000E+00	  0.090941884	6.879700E+01	  0.090941884	4.596200E+01	  0.090941884	4.703000E+01
356	  0.091142282	-7.096000E+00	  0.091142282	6.854500E+01	  0.091142282	4.615100E+01	  0.091142282	4.714700E+01
357	  0.091342688	-7.099000E+00	  0.091342688	6.831500E+01	  0.091342688	4.633300E+01	  0.091342688	4.724000E+01
358	  0.091543086	-7.098000E+00	  0.091543086	6.807200E+01	  0.091543086	4.651700E+01	  0.091543086	4.735200E+01
359	  0.091743484	-7.096000E+00	  0.091743484	6.784900E+01	  0.091743484	4.668500E+01	  0.091743484	4.746000E+01
360	  0.091943890	-7.093000E+00	  0.091943890	6.761600E+01	  0.091943890	4.685400E+01	  0.091943890	4.758500E+01
361	  0.092144288	-7.091000E+00	  0.092144288	6.741500E+01	  0.092144288	4.700600E+01	  0.092144288	4.768400E+01
362	  0.092344686	-7.087000E+00	  0.092344686	6.719900E+01	  0.092344686	4.716500E+01	  0.092344686	4.779900E+01
363	  0.092545092	-7.082000E+00	  0.092545092	6.698200E+01	  0.092545092	4.732100E+01	  0.092545092	4.792200E+01
364	  0.092745490	-7.088000E+00	  0.092745490	6.675300E+01	  0.092745490	4.752000E+01	  0.092745490	4.799400E+01
365	  0.092945889	-7.088000E+00	  0.092945889	6.652200E+01	  0.092945889	4.770500E+01	  0.092945889	4.809500E+01
366	  0.093146294	-7.090000E+00	  0.093146294	6.632900E+01	  0.093146294	4.786400E+01	  0.093146294	4.817400E+01
367	  0.093346693	-7.094000E+00	  0.093346693	6.610600E+01	  0.093346693	4.805600E+01	  0.093346693	4.825000E+01
368	  0.093547091	-7.094000E+00	  0.093547091	6.586500E+01	  0.093547091	4.825100E+01	  0.093547091	4.835600E+01
369	  0.093747497	-7.098000E+00	  0.093747497	6.559400E+01	  0.093747497	4.848600E+01	  0.093747497	4.845000E+01
370	  0.093947895	-7.103000E+00	  0.093947895	6.532500E+01	  0.093947895	4.872000E+01	  0.093947895	4.854200E+01
371	  0.094148301	-7.103000E+00	  0.094148301	6.506400E+01	  0.094148301	4.893900E+01	  0.094148301	4.865100E+01
372	  0.094348699	-7.097000E+00	  0.094348699	6.480000E+01	  0.094348699	4.914100E+01	  0.094348699	4.879800E+01
373	  0.094549097	-7.097000E+00	  0.094549097	6.454900E+01	  0.094549097	4.935100E+01	  0.094549097	4.890800E+01
374	  0.094749503	-7.094000E+00	  0.094749503	6.426000E+01	  0.094749503	4.958600E+01	  0.094749503	4.905100E+01
375	  0.094949901	-7.087000E+00	  0.094949901	6.403700E+01	  0.094949901	4.975900E+01	  0.094949901	4.918000E+01
376	  0.095150299	-7.084000E+00	  0.095150299	6.376900E+01	  0.095150299	4.998000E+01	  0.095150299	4.931100E+01
377	  0.095350705	-7.080000E+00	  0.095350705	6.353400E+01	  0.095350705	5.017000E+01	  0.095350705	4.943800E+01
378	  0.095551103	-7.080000E+00	  0.095551103	6.330600E+01	  0.095551103	5.036900E+01	  0.095551103	4.953100E+01
379	  0.095751502	-7.070000E+00	  0.095751502	6.307500E+01	  0.095751502	5.054300E+01	  0.095751502	4.968600E+01
380	  0.095951907	-7.066000E+00	  0.095951907	6.285800E+01	  0.095951907	5.072300E+01	  0.095951907	4.980100E+01
381	  0.096152306	-7.063000E+00	  0.096152306	6.268300E+01	  0.096152306	5.086900E+01	  0.096152306	4.989300E+01
382	  0.096352704	-7.063000E+00	  0.096352704	6.244800E+01	  0.096352704	5.107900E+01	  0.096352704	4.998900E+01
383	  0.096553110	-7.068000E+00	  0.096553110	6.225900E+01	  0.096553110	5.126000E+01	  0.096553110	5.003900E+01
384	  0.096753508	-7.065000E+00	  0.096753508	6.204100E+01	  0.096753508	5.144800E+01	  0.096753508	5.014800E+01
385	  0.096953906	-7.063000E+00	  0.096953906	6.181400E+01	  0.096953906	5.164600E+01	  0.096953906	5.025700E+01
386	  0.097154312	-7.061000E+00	  0.097154312	6.163500E+01	  0.097154312	5.180400E+01	  0.097154312	5.034000E+01
387	  0.097354710	-7.064000E+00	  0.097354710	6.141000E+01	  0.097354710	5.201700E+01	  0.097354710	5.041300E+01
388	  0.097555116	-7.063000E+00	  0.097555116	6.117100E+01	  0.097555116	5.223400E+01	  0.097555116	5.051800E+01
389	  0.097755514	-7.066000E+00	  0.097755514	6.096000E+01	  0.097755514	5.243800E+01	  0.097755514	5.058300E+01
390	  0.097955912	-7.065000E+00	  0.097955912	6.077200E+01	  0.097955912	5.260900E+01	  0.097955912	5.066600E+01
391	  0.098156318	-7.070000E+00	  0.098156318	6.052300E+01	  0.098156318	5.285400E+01	  0.098156318	5.073700E+01
392	  0.098356716	-7.073000E+00	  0.098356716	6.031400E+01	  0.098356716	5.305900E+01	  0.098356716	5.079800E+01
393	  0.098557115	-7.076000E+00	  0.098557115	6.006800E+01	  0.098557115	5.330000E+01	  0.098557115	5.087600E+01
394	  0.098757520	-7.083000E+00	  0.098757520	5.985200E+01	  0.098757520	5.352100E+01	  0.098757520	5.091900E+01
395	  0.098957919	-7.090000E+00	  0.098957919	5.957600E+01	  0.098957919	5.380200E+01	  0.098957919	5.098300E+01
396	  0.099158317	-7.095000E+00	  0.099158317	5.929900E+01	  0.099158317	5.408200E+01	  0.099158317	5.105300E+01
397	  0.099358723	-7.097000E+00	  0.099358723	5.901900E+01	  0.099358723	5.435900E+01	  0.099358723	5.114500E+01
398	  0.099559121	-7.098000E+00	  0.099559121	5.869600E+01	  0.099559121	5.467500E+01	  0.099559121	5.126000E+01
399	  0.099759519	-7.093000E+00	  0.099759519	5.841300E+01	  0.099759519	5.494100E+01	  0.099759519	5.139800E+01
400	  0.099959925	-7.093000E+00	  0.099959925	5.815200E+01	  0.099959925	5.519800E+01	  0.099959925	5.149800E+01
401	  0.100160323	-7.084000E+00	  0.100160323	5.784400E+01	  0.100160323	5.548500E+01	  0.100160323	5.166500E+01
402	  0.100360721	-7.082000E+00	  0.100360721	5.752700E+01	  0.100360721	5.579700E+01	  0.100360721	5.179900E+01
403	  0.100561127	-7.077000E+00	  0.100561127	5.734100E+01	  0.100561127	5.597400E+01	  0.100561127	5.189500E+01
404	  0.100761525	-7.074000E+00	  0.100761525	5.706300E+01	  0.100761525	5.624900E+01	  0.100761525	5.201600E+01
405	  0.100961931	-7.062000E+00	  0.100961931	5.675600E+01	  0.100961931	5.653700E+01	  0.100961931	5.220600E+01
406	  0.101162329	-7.053000E+00	  0.101162329	5.654800E+01	  0.101162329	5.672900E+01	  0.101162329	5.234300E+01
407	  0.101362728	-7.043000E+00	  0.101362728	5.632800E+01	  0.101362728	5.693600E+01	  0.101362728	5.248400E+01
408	  0.101563133	-7.039000E+00	  0.101563133	5.611000E+01	  0.101563133	5.715500E+01	  0.101563133	5.259300E+01
409	  0.101763532	-7.037000E+00	  0.101763532	5.584800E+01	  0.101763532	5.742600E+01	  0.101763532	5.269800E+01
410	  0.101963930	-7.034000E+00	  0.101963930	5.568800E+01	  0.101963930	5.758700E+01	  0.101963930	5.277500E+01
411	  0.102164336	-7.021000E+00	  0.102164336	5.555400E+01	  0.102164336	5.770100E+01	  0.102164336	5.291300E+01
412	  0.102364734	-7.015000E+00	  0.102364734	5.536700E+01	  0.102364734	5.788700E+01	  0.102364734	5.301700E+01
413	  0.102565132	-7.011000E+00	  0.102565132	5.517300E+01	  0.102565132	5.808700E+01	  0.102565132	5.311100E+01
414	  0.102765530	-7.014000E+00	  0.102765530	5.493700E+01	  0.102765530	5.834900E+01	  0.102765530	5.316900E+01
415	  0.102965929	-7.013000E+00	  0.102965929	5.483600E+01	  0.102965929	5.845600E+01	  0.102965929	5.321200E+01
416	  0.103166327	-7.015000E+00	  0.103166327	5.455700E+01	  0.103166327	5.876400E+01	  0.103166327	5.328800E+01
417	  0.103366733	-7.003000E+00	  0.103366733	5.442300E+01	  0.103366733	5.888600E+01	  0.103366733	5.341700E+01
418	  0.103567131	-7.006000E+00	  0.103567131	5.420600E+01	  0.103567131	5.913100E+01	  0.103567131	5.346600E+01
419	  0.103767529	-7.010000E+00	  0.103767529	5.395800E+01	  0.103767529	5.941500E+01	  0.103767529	5.351600E+01
420	  0.103967935	-7.028000E+00	  0.103967935	5.388500E+01	  0.103967935	5.953200E+01	  0.103967935	5.340900E+01
421	  0.104168333	-7.032000E+00	  0.104168333	5.362200E+01	  0.104168333	5.983400E+01	  0.104168333	5.346000E+01
422	  0.104368731	-7.042000E+00	  0.104368731	5.338500E+01	  0.104368731	6.011800E+01	  0.104368731	5.346600E+01
423	  0.104569137	-7.044000E+00	  0.104569137	5.315900E+01	  0.104569137	6.037700E+01	  0.104569137	5.351300E+01
424	  0.104769535	-7.055000E+00	  0.104769535	5.292700E+01	  0.104769535	6.066100E+01	  0.104769535	5.350400E+01
425	  0.104969934	-7.048000E+00	  0.104969934	5.259100E+01	  0.104969934	6.102900E+01	  0.104969934	5.365700E+01
426	  0.105170339	-7.054000E+00	  0.105170339	5.232900E+01	  0.105170339	6.134100E+01	  0.105170339	5.368200E+01
427	  0.105370738	-7.048000E+00	  0.105370738	5.203200E+01	  0.105370738	6.167300E+01	  0.105370738	5.381500E+01
428	  0.105571143	-7.061000E+00	  0.105571143	5.174200E+01	  0.105571143	6.203400E+01	  0.105571143	5.378800E+01
429	  0.105771542	-7.056000E+00	  0.105771542	5.150300E+01	  0.105771542	6.230400E+01	  0.105771542	5.389400E+01
430	  0.105971940	-7.052000E+00	  0.105971940	5.120400E+01	  0.105971940	6.264900E+01	  0.105971940	5.400400E+01
431	  0.106172346	-7.048000E+00	  0.106172346	5.094400E+01	  0.106172346	6.295000E+01	  0.106172346	5.410000E+01
432	  0.106372744	-7.044000E+00	  0.106372744	5.066100E+01	  0.106372744	6.328000E+01	  0.106372744	5.420700E+01
433	  0.106573142	-7.033000E+00	  0.106573142	5.043100E+01	  0.106573142	6.353800E+01	  0.106573142	5.435100E+01
434	  0.106773548	-7.031000E+00	  0.106773548	5.013200E+01	  0.106773548	6.389700E+01	  0.106773548	5.443800E+01
435	  0.106973946	-7.018000E+00	  0.106973946	4.990200E+01	  0.106973946	6.415700E+01	  0.106973946	5.460000E+01
436	  0.107174344	-7.010000E+00	  0.107174344	4.971700E+01	  0.107174344	6.437100E+01	  0.107174344	5.471000E+01
437	  0.107374750	-7.005000E+00	  0.107374750	4.951100E+01	  0.107374750	6.461800E+01	  0.107374750	5.479300E+01
438	  0.107575148	-6.998000E+00	  0.107575148	4.929600E+01	  0.107575148	6.487400E+01	  0.107575148	5.489900E+01
439	  0.107775547	-6.999000E+00	  0.107775547	4.917200E+01	  0.107775547	6.503000E+01	  0.107775547	5.492400E+01
440	  0.107975952	-6.997000E+00	  0.107975952	4.893500E+01	  0.107975952	6.532300E+01	  0.107975952	5.499100E+01
441	  0.108176351	-6.984000E+00	  0.108176351	4.871500E+01	  0.108176351	6.558000E+01	  0.108176351	5.515000E+01
442	  0.108376749	-6.980000E+00	  0.108376749	4.852200E+01	  0.108376749	6.582000E+01	  0.108376749	5.521800E+01
443	  0.108577155	-6.985000E+00	  0.108577155	4.841900E+01	  0.108577155	6.595800E+01	  0.108577155	5.520100E+01
444	  0.108777553	-6.987000E+00	  0.108777553	4.821000E+01	  0.108777553	6.622600E+01	  0.108777553	5.523000E+01
445	  0.108977959	-6.983000E+00	  0.108977959	4.804600E+01	  0.108977959	6.643100E+01	  0.108977959	5.529300E+01
446	  0.109178357	-6.987000E+00	  0.109178357	4.789800E+01	  0.109178357	6.662600E+01	  0.109178357	5.529000E+01
447	  0.109378755	-6.998000E+00	  0.109378755	4.768200E+01	  0.109378755	6.691800E+01	  0.109378755	5.523400E+01
448	  0.109579161	-7.004000E+00	  0.109579161	4.747300E+01	  0.109579161	6.719500E+01	  0.109579161	5.522500E+01
449	  0.109779559	-7.010000E+00	  0.109779559	4.725500E+01	  0.109779559	6.748600E+01	  0.109779559	5.520800E+01
450	  0.109979957	-7.015000E+00	  0.109979957	4.705900E+01	  0.109979957	6.774600E+01	  0.109979957	5.520400E+01
451	  0.110180363	-7.027000E+00	  0.110180363	4.679800E+01	  0.110180363	6.810100E+01	  0.110180363	5.514200E+01
452	  0.110380761	-7.033000E+00	  0.110380761	4.651400E+01	  0.110380761	6.848000E+01	  0.110380761	5.513300E+01
453	  0.110581160	-7.031000E+00	  0.110581160	4.627400E+01	  0.110581160	6.879600E+01	  0.110581160	5.518100E+01
454	  0.110781565	-7.045000E+00	  0.110781565	4.595300E+01	  0.110781565	6.923500E+01	  0.110781565	5.510200E+01
455	  0.110981964	-7.048000E+00	  0.110981964	4.565600E+01	  0.110981964	6.963300E+01	  0.110981964	5.511500E+01
456	  0.111182362	-7.045000E+00	  0.111182362	4.537700E+01	  0.111182362	7.000700E+01	  0.111182362	5.517900E+01
457	  0.111382768	-7.041000E+00	  0.111382768	4.511000E+01	  0.111382768	7.036500E+01	  0.111382768	5.523800E+01
458	  0.111583166	-7.043000E+00	  0.111583166	4.476200E+01	  0.111583166	7.084000E+01	  0.111583166	5.525500E+01
459	  0.111783572	-7.037000E+00	  0.111783572	4.453800E+01	  0.111783572	7.114300E+01	  0.111783572	5.533500E+01
460	  0.111983970	-7.028000E+00	  0.111983970	4.423400E+01	  0.111983970	7.155800E+01	  0.111983970	5.544100E+01
461	  0.112184368	-7.022000E+00	  0.112184368	4.396200E+01	  0.112184368	7.193200E+01	  0.112184368	5.551600E+01
462	  0.112384774	-7.022000E+00	  0.112384774	4.374300E+01	  0.112384774	7.223900E+01	  0.112384774	5.553300E+01
463	  0.112585172	-7.009000E+00	  0.112585172	4.343200E+01	  0.112585172	7.267100E+01	  0.112585172	5.567100E+01
464	  0.112785570	-6.998000E+00	  0.112785570	4.324300E+01	  0.112785570	7.293500E+01	  0.112785570	5.577700E+01
465	  0.112985976	-6.994000E+00	  0.112985976	4.299800E+01	  0.112985976	7.328200E+01	  0.112985976	5.583000E+01
466	  0.113186374	-6.978000E+00	  0.113186374	4.280500E+01	  0.113186374	7.355500E+01	  0.113186374	5.598500E+01
467	  0.113386773	-6.978000E+00	  0.113386773	4.264300E+01	  0.113386773	7.378700E+01	  0.113386773	5.599100E+01
468	  0.113587178	-6.973000E+00	  0.113587178	4.244100E+01	  0.113587178	7.407800E+01	  0.113587178	5.605100E+01
469	  0.113787577	-6.964000E+00	  0.113787577	4.231400E+01	  0.113787577	7.426200E+01	  0.113787577	5.613700E+01
470	  0.113987975	-6.961000E+00	  0.113987975	4.209400E+01	  0.113987975	7.458200E+01	  0.113987975	5.617200E+01
471	  0.114188381	-6.963000E+00	  0.114188381	4.200900E+01	  0.114188381	7.470700E+01	  0.114188381	5.615500E+01
472	  0.114388779	-6.958000E+00	  0.114388779	4.175200E+01	  0.114388779	7.508300E+01	  0.114388779	5.620400E+01
473	  0.114589177	-6.966000E+00	  0.114589177	4.157800E+01	  0.114589177	7.534000E+01	  0.114589177	5.612900E+01
474	  0.114789583	-6.973000E+00	  0.114789583	4.141600E+01	  0.114789583	7.558000E+01	  0.114789583	5.605800E+01
475	  0.114989981	-6.978000E+00	  0.114989981	4.123400E+01	  0.114989981	7.584900E+01	  0.114989981	5.599900E+01
476	  0.115190387	-6.983000E+00	  0.115190387	4.103800E+01	  0.115190387	7.613900E+01	  0.115190387	5.594900E+01
477	  0.115390785	-6.989000E+00	  0.115390785	4.082600E+01	  0.115390785	7.645200E+01	  0.115390785	5.588500E+01
478	  0.115591183	-6.997000E+00	  0.115591183	4.060800E+01	  0.115591183	7.677600E+01	  0.115591183	5.579200E+01
479	  0.115791589	-7.007000E+00	  0.115791589	4.032800E+01	  0.115791589	7.719200E+01	  0.115791589	5.568500E+01
480	  0.115991987	-7.009000E+00	  0.115991987	4.008000E+01	  0.115991987	7.756400E+01	  0.115991987	5.564000E+01
481	  0.116192386	-7.014000E+00	  0.116192386	3.982600E+01	  0.116192386	7.794500E+01	  0.116192386	5.557200E+01
482	  0.116392791	-7.025000E+00	  0.116392791	3.956700E+01	  0.116392791	7.833100E+01	  0.116392791	5.544600E+01
483	  0.116593190	-7.027000E+00	  0.116593190	3.926400E+01	  0.116593190	7.878900E+01	  0.116593190	5.539100E+01
484	  0.116793588	-7.027000E+00	  0.116793588	3.899100E+01	  0.116793588	7.920600E+01	  0.116793588	5.536000E+01
485	  0.116993994	-7.032000E+00	  0.116993994	3.870800E+01	  0.116993994	7.963600E+01	  0.116993994	5.527200E+01
486	  0.117194392	-7.027000E+00	  0.117194392	3.837900E+01	  0.117194392	8.014900E+01	  0.117194392	5.527800E+01
487	  0.117394790	-7.026000E+00	  0.117394790	3.811600E+01	  0.117394790	8.055700E+01	  0.117394790	5.523700E+01
488	  0.117595196	-7.021000E+00	  0.117595196	3.785300E+01	  0.117595196	8.097200E+01	  0.117595196	5.524800E+01
489	  0.117795594	-7.015000E+00	  0.117795594	3.762400E+01	  0.117795594	8.133800E+01	  0.117795594	5.527400E+01
490	  0.117995992	-7.009000E+00	  0.117995992	3.732700E+01	  0.117995992	8.181300E+01	  0.117995992	5.527700E+01
491	  0.118196398	-7.002000E+00	  0.118196398	3.705500E+01	  0.118196398	8.225200E+01	  0.118196398	5.529400E+01
492	  0.118396796	-7.004000E+00	  0.118396796	3.682800E+01	  0.118396796	8.261000E+01	  0.118396796	5.522500E+01
493	  0.118597202	-6.993000E+00	  0.118597202	3.659200E+01	  0.118597202	8.300300E+01	  0.118597202	5.528600E+01
494	  0.118797600	-6.984000E+00	  0.118797600	3.640400E+01	  0.118797600	8.332000E+01	  0.118797600	5.533900E+01
495	  0.118997999	-6.978000E+00	  0.118997999	3.621000E+01	  0.118997999	8.364300E+01	  0.118997999	5.535000E+01
496	  0.119198404	-6.971000E+00	  0.119198404	3.599300E+01	  0.119198404	8.400600E+01	  0.119198404	5.537600E+01
497	  0.119398803	-6.964000E+00	  0.119398803	3.576100E+01	  0.119398803	8.439700E+01	  0.119398803	5.538700E+01
498	  0.119599201	-6.965000E+00	  0.119599201	3.559100E+01	  0.119599201	8.467100E+01	  0.119599201	5.532600E+01
499	  0.119799607	-6.964000E+00	  0.119799607	3.544300E+01	  0.119799607	8.491500E+01	  0.119799607	5.529000E+01
500	  0.120000005	-6.965000E+00	  0.120000005	3.521600E+01	  0.120000005	8.528500E+01	  0.120000005	5.521400E+01
