! Anritsu VNA Master:             	Model: MS2036C/10/77
! SN:             	1601066
! /card0/usr/18may27.balun/5b.66.txt
! Existing Calibration Information:
! TYPE:             	Current Settings	Active Cal Settings
! TIME:             	05/27/2018 03:31:16 PM	05/27/2018 03:21:57 PM
! INTERNAL TEMP:    	52.8 C	52.3 C
! # POINTS:         	500	500
! START FREQ:       	20.000 MHz	20.000 MHz
! STOP FREQ:        	120.000 MHz	120.000 MHz
! SOURCE POWER:     	High	High
! IFBW:             	50 Hz	50 Hz
! AVG FACTOR:       	  1 	  1 
! REF PLANE 1:      	0 mm	0 mm
! REF PLANE 2:      	0 mm	0 mm
! CAL TYPE:         	Full S11	Full S11
! CAL METHOD:       	SOLT	SOLT
! CAL LINE TYPE:    	Coax	Coax
! DUT PORT 1:       	K-Conn(M)	K-Conn(M)
! DUT PORT 2:       	K-Conn(M)	K-Conn(M)
! CAL STATUS:       	OK: Accuracy High	--
! PROP-V:       	0.700
! CABLE LOSS:       	0.000 dB/m
! REF IMPEDANCE:       	50.0
! Trace Specific Parameters:	TR1	TR2	TR3	TR4
! TRACE.#.Y (GRAPH TYPE)	LOG MAG	PHASE	REAL IMPEDANCE	IMAGINARY IMPEDANCE
! TRACE.#.X 	FREQ.GHZ	FREQ.GHZ	FREQ.GHZ	FREQ.GHZ
! S-PARAMETER	S11	S11	S11	S11
! SMOOTH/APERTURE %	0	0	0	0
! WINDOW	NSL	NSL	NSL	NSL
! GATING	OFF	OFF	OFF	OFF
! FGTD	OFF	OFF	OFF	OFF
Marker Information per Trace:	TR1	TR2	TR3	TR4
!MK1	--	--	--	"MK1 TR4:  70.100 200 MHz,Z:(0.954 ohm, 6.760 ohm)"
!MK2	--	--	--	--
!MK3	--	--	--	--
!MK4	--	--	--	--
!MK5	--	--	--	--
!MK6	--	--	--	--
!MK7	--	--	--	--
!MK8	--	--	--	--
PNT	TR1.FREQ.GHZ	TR1.LOG MAG.dB	TR2.FREQ.GHZ	TR2.PHASE.deg	TR3.FREQ.GHZ	TR3.REAL IMPEDANCE.ohm	TR4.FREQ.GHZ	TR4.IMAGINARY IMPEDANCE.ohm
1	  0.020000000	-6.100000E-02	  0.020000000	-6.783200E+01	  0.020000000	5.690000E-01	  0.020000000	-7.435900E+01
2	  0.020200402	-5.700000E-02	  0.020200402	-6.845700E+01	  0.020200402	5.260000E-01	  0.020200402	-7.349000E+01
3	  0.020400802	-5.500000E-02	  0.020400802	-6.905100E+01	  0.020400802	4.960000E-01	  0.020400802	-7.267800E+01
4	  0.020601204	-5.100000E-02	  0.020601204	-6.966300E+01	  0.020601204	4.580000E-01	  0.020601204	-7.185300E+01
5	  0.020801604	-5.000000E-02	  0.020801604	-7.028800E+01	  0.020801604	4.360000E-01	  0.020801604	-7.102400E+01
6	  0.021002004	-5.000000E-02	  0.021002004	-7.091000E+01	  0.021002004	4.320000E-01	  0.021002004	-7.021100E+01
7	  0.021202406	-5.500000E-02	  0.021202406	-7.156100E+01	  0.021202406	4.680000E-01	  0.021202406	-6.937300E+01
8	  0.021402806	-6.100000E-02	  0.021402806	-7.221000E+01	  0.021402806	5.060000E-01	  0.021402806	-6.855100E+01
9	  0.021603208	-6.400000E-02	  0.021603208	-7.286000E+01	  0.021603208	5.300000E-01	  0.021603208	-6.774000E+01
10	  0.021803608	-6.900000E-02	  0.021803608	-7.350100E+01	  0.021803608	5.570000E-01	  0.021803608	-6.695300E+01
11	  0.022004008	-7.200000E-02	  0.022004008	-7.415400E+01	  0.022004008	5.700000E-01	  0.022004008	-6.616300E+01
12	  0.022204408	-7.600000E-02	  0.022204408	-7.483000E+01	  0.022204408	5.950000E-01	  0.022204408	-6.535700E+01
13	  0.022404809	-8.100000E-02	  0.022404809	-7.552100E+01	  0.022404809	6.230000E-01	  0.022404809	-6.454600E+01
14	  0.022605211	-8.500000E-02	  0.022605211	-7.620500E+01	  0.022605211	6.470000E-01	  0.022605211	-6.375700E+01
15	  0.022805611	-8.000000E-02	  0.022805611	-7.688400E+01	  0.022805611	5.990000E-01	  0.022805611	-6.298500E+01
16	  0.023006011	-7.000000E-02	  0.023006011	-7.757500E+01	  0.023006011	5.160000E-01	  0.023006011	-6.221100E+01
17	  0.023206413	-6.500000E-02	  0.023206413	-7.824600E+01	  0.023206413	4.720000E-01	  0.023206413	-6.147100E+01
18	  0.023406813	-6.200000E-02	  0.023406813	-7.889700E+01	  0.023406813	4.450000E-01	  0.023406813	-6.076300E+01
19	  0.023607215	-6.300000E-02	  0.023607215	-7.952500E+01	  0.023607215	4.430000E-01	  0.023607215	-6.008900E+01
20	  0.023807615	-6.300000E-02	  0.023807615	-8.012900E+01	  0.023807615	4.420000E-01	  0.023807615	-5.944800E+01
21	  0.024008015	-6.900000E-02	  0.024008015	-8.069100E+01	  0.024008015	4.780000E-01	  0.024008015	-5.886000E+01
22	  0.024208417	-7.300000E-02	  0.024208417	-8.125600E+01	  0.024208417	5.010000E-01	  0.024208417	-5.827500E+01
23	  0.024408817	-8.000000E-02	  0.024408817	-8.179800E+01	  0.024408817	5.390000E-01	  0.024408817	-5.772000E+01
24	  0.024609219	-8.600000E-02	  0.024609219	-8.235800E+01	  0.024609219	5.720000E-01	  0.024609219	-5.715200E+01
25	  0.024809619	-9.100000E-02	  0.024809619	-8.294700E+01	  0.024809619	5.990000E-01	  0.024809619	-5.656300E+01
26	  0.025010020	-9.200000E-02	  0.025010020	-8.355900E+01	  0.025010020	5.970000E-01	  0.025010020	-5.595800E+01
27	  0.025210422	-9.500000E-02	  0.025210422	-8.416400E+01	  0.025210422	6.110000E-01	  0.025210422	-5.536700E+01
28	  0.025410822	-9.500000E-02	  0.025410822	-8.479000E+01	  0.025410822	6.050000E-01	  0.025410822	-5.476200E+01
29	  0.025611224	-9.500000E-02	  0.025611224	-8.541800E+01	  0.025611224	5.970000E-01	  0.025611224	-5.416300E+01
30	  0.025811624	-9.100000E-02	  0.025811624	-8.602900E+01	  0.025811624	5.660000E-01	  0.025811624	-5.358700E+01
31	  0.026012026	-8.700000E-02	  0.026012026	-8.662100E+01	  0.026012026	5.360000E-01	  0.026012026	-5.303500E+01
32	  0.026212426	-8.500000E-02	  0.026212426	-8.721300E+01	  0.026212426	5.170000E-01	  0.026212426	-5.248900E+01
33	  0.026412826	-8.800000E-02	  0.026412826	-8.780100E+01	  0.026412826	5.320000E-01	  0.026412826	-5.195300E+01
34	  0.026613226	-9.300000E-02	  0.026613226	-8.841600E+01	  0.026613226	5.510000E-01	  0.026613226	-5.139800E+01
35	  0.026813626	-1.000000E-01	  0.026813626	-8.900300E+01	  0.026813626	5.890000E-01	  0.026813626	-5.087300E+01
36	  0.027014028	-1.050000E-01	  0.027014028	-8.957300E+01	  0.027014028	6.110000E-01	  0.027014028	-5.037000E+01
37	  0.027214428	-1.160000E-01	  0.027214428	-9.019900E+01	  0.027214428	6.650000E-01	  0.027214428	-4.982100E+01
38	  0.027414829	-1.260000E-01	  0.027414829	-9.086100E+01	  0.027414829	7.170000E-01	  0.027414829	-4.924800E+01
39	  0.027615231	-1.320000E-01	  0.027615231	-9.156300E+01	  0.027615231	7.440000E-01	  0.027615231	-4.864800E+01
40	  0.027815631	-1.340000E-01	  0.027815631	-9.227600E+01	  0.027815631	7.430000E-01	  0.027815631	-4.804500E+01
41	  0.028016033	-1.280000E-01	  0.028016033	-9.299900E+01	  0.028016033	7.000000E-01	  0.028016033	-4.744300E+01
42	  0.028216433	-1.200000E-01	  0.028216433	-9.371300E+01	  0.028216433	6.490000E-01	  0.028216433	-4.685500E+01
43	  0.028416833	-1.110000E-01	  0.028416833	-9.438100E+01	  0.028416833	5.950000E-01	  0.028416833	-4.631200E+01
44	  0.028617235	-1.010000E-01	  0.028617235	-9.504800E+01	  0.028617235	5.390000E-01	  0.028617235	-4.577400E+01
45	  0.028817635	-9.200000E-02	  0.028817635	-9.565200E+01	  0.028817635	4.840000E-01	  0.028817635	-4.529300E+01
46	  0.029018037	-8.600000E-02	  0.029018037	-9.618700E+01	  0.029018037	4.470000E-01	  0.029018037	-4.486900E+01
47	  0.029218437	-8.000000E-02	  0.029218437	-9.668600E+01	  0.029218437	4.140000E-01	  0.029218437	-4.447900E+01
48	  0.029418837	-7.700000E-02	  0.029418837	-9.716500E+01	  0.029418837	3.960000E-01	  0.029418837	-4.410600E+01
49	  0.029619239	-7.600000E-02	  0.029619239	-9.764100E+01	  0.029619239	3.860000E-01	  0.029619239	-4.373800E+01
50	  0.029819639	-7.900000E-02	  0.029819639	-9.810900E+01	  0.029819639	4.030000E-01	  0.029819639	-4.337800E+01
51	  0.030020041	-8.600000E-02	  0.030020041	-9.860900E+01	  0.030020041	4.320000E-01	  0.030020041	-4.299700E+01
52	  0.030220442	-9.600000E-02	  0.030220442	-9.914000E+01	  0.030220442	4.810000E-01	  0.030220442	-4.259500E+01
53	  0.030420844	-1.090000E-01	  0.030420844	-9.970600E+01	  0.030420844	5.410000E-01	  0.030420844	-4.217000E+01
54	  0.030621244	-1.170000E-01	  0.030621244	-1.002950E+02	  0.030621244	5.740000E-01	  0.030621244	-4.173200E+01
55	  0.030821644	-1.210000E-01	  0.030821644	-1.008950E+02	  0.030821644	5.880000E-01	  0.030821644	-4.128900E+01
56	  0.031022044	-1.180000E-01	  0.031022044	-1.014720E+02	  0.031022044	5.670000E-01	  0.031022044	-4.086800E+01
57	  0.031222444	-1.170000E-01	  0.031222444	-1.020520E+02	  0.031222444	5.600000E-01	  0.031222444	-4.044800E+01
58	  0.031422846	-1.160000E-01	  0.031422846	-1.026160E+02	  0.031422846	5.510000E-01	  0.031422846	-4.004200E+01
59	  0.031623244	-1.170000E-01	  0.031623244	-1.031720E+02	  0.031623244	5.480000E-01	  0.031623244	-3.964600E+01
60	  0.031823646	-1.180000E-01	  0.031823646	-1.037130E+02	  0.031823646	5.500000E-01	  0.031823646	-3.926300E+01
61	  0.032024048	-1.220000E-01	  0.032024048	-1.042450E+02	  0.032024048	5.640000E-01	  0.032024048	-3.888900E+01
62	  0.032224450	-1.300000E-01	  0.032224450	-1.047790E+02	  0.032224450	5.970000E-01	  0.032224450	-3.851600E+01
63	  0.032424849	-1.440000E-01	  0.032424849	-1.053520E+02	  0.032424849	6.550000E-01	  0.032424849	-3.811800E+01
64	  0.032625251	-1.530000E-01	  0.032625251	-1.059700E+02	  0.032625251	6.940000E-01	  0.032625251	-3.769300E+01
65	  0.032825653	-1.640000E-01	  0.032825653	-1.066080E+02	  0.032825653	7.370000E-01	  0.032825653	-3.725700E+01
66	  0.033026051	-1.690000E-01	  0.033026051	-1.072750E+02	  0.033026051	7.500000E-01	  0.033026051	-3.680700E+01
67	  0.033226453	-1.700000E-01	  0.033226453	-1.079380E+02	  0.033226453	7.520000E-01	  0.033226453	-3.636200E+01
68	  0.033426855	-1.690000E-01	  0.033426855	-1.086430E+02	  0.033426855	7.380000E-01	  0.033426855	-3.589400E+01
69	  0.033627257	-1.720000E-01	  0.033627257	-1.093210E+02	  0.033627257	7.480000E-01	  0.033627257	-3.544700E+01
70	  0.033827655	-1.710000E-01	  0.033827655	-1.099650E+02	  0.033827655	7.360000E-01	  0.033827655	-3.502700E+01
71	  0.034028057	-1.630000E-01	  0.034028057	-1.106190E+02	  0.034028057	6.950000E-01	  0.034028057	-3.460400E+01
72	  0.034228459	-1.550000E-01	  0.034228459	-1.112190E+02	  0.034228459	6.580000E-01	  0.034228459	-3.421900E+01
73	  0.034428857	-1.460000E-01	  0.034428857	-1.117980E+02	  0.034428857	6.160000E-01	  0.034428857	-3.384900E+01
74	  0.034629259	-1.320000E-01	  0.034629259	-1.123140E+02	  0.034629259	5.510000E-01	  0.034629259	-3.352300E+01
75	  0.034829661	-1.270000E-01	  0.034829661	-1.127950E+02	  0.034829661	5.280000E-01	  0.034829661	-3.322000E+01
76	  0.035030060	-1.230000E-01	  0.035030060	-1.132500E+02	  0.035030060	5.080000E-01	  0.035030060	-3.293400E+01
77	  0.035230462	-1.200000E-01	  0.035230462	-1.137170E+02	  0.035230462	4.940000E-01	  0.035230462	-3.264300E+01
78	  0.035430863	-1.240000E-01	  0.035430863	-1.141540E+02	  0.035430863	5.090000E-01	  0.035430863	-3.237200E+01
79	  0.035631265	-1.320000E-01	  0.035631265	-1.146330E+02	  0.035631265	5.380000E-01	  0.035631265	-3.207600E+01
80	  0.035831664	-1.420000E-01	  0.035831664	-1.151170E+02	  0.035831664	5.750000E-01	  0.035831664	-3.177800E+01
81	  0.036032066	-1.530000E-01	  0.036032066	-1.156520E+02	  0.036032066	6.140000E-01	  0.036032066	-3.145100E+01
82	  0.036232468	-1.630000E-01	  0.036232468	-1.162030E+02	  0.036232468	6.520000E-01	  0.036232468	-3.111600E+01
83	  0.036432866	-1.690000E-01	  0.036432866	-1.167960E+02	  0.036432866	6.730000E-01	  0.036432866	-3.075800E+01
84	  0.036633268	-1.720000E-01	  0.036633268	-1.173930E+02	  0.036633268	6.780000E-01	  0.036633268	-3.040000E+01
85	  0.036833670	-1.700000E-01	  0.036833670	-1.179490E+02	  0.036833670	6.660000E-01	  0.036833670	-3.006900E+01
86	  0.037034072	-1.610000E-01	  0.037034072	-1.185030E+02	  0.037034072	6.310000E-01	  0.037034072	-2.974100E+01
87	  0.037234470	-1.530000E-01	  0.037234470	-1.189890E+02	  0.037234470	5.960000E-01	  0.037234470	-2.945500E+01
88	  0.037434869	-1.510000E-01	  0.037434869	-1.194840E+02	  0.037434869	5.850000E-01	  0.037434869	-2.916500E+01
89	  0.037635271	-1.540000E-01	  0.037635271	-1.199720E+02	  0.037635271	5.940000E-01	  0.037635271	-2.888000E+01
90	  0.037835669	-1.620000E-01	  0.037835669	-1.205070E+02	  0.037835669	6.210000E-01	  0.037835669	-2.856900E+01
91	  0.038036071	-1.720000E-01	  0.038036071	-1.210720E+02	  0.038036071	6.530000E-01	  0.038036071	-2.824300E+01
92	  0.038236473	-1.790000E-01	  0.038236473	-1.216730E+02	  0.038236473	6.770000E-01	  0.038236473	-2.789800E+01
93	  0.038436871	-1.840000E-01	  0.038436871	-1.222540E+02	  0.038436871	6.920000E-01	  0.038436871	-2.756600E+01
94	  0.038637273	-1.890000E-01	  0.038637273	-1.228460E+02	  0.038637273	7.080000E-01	  0.038637273	-2.723000E+01
95	  0.038837675	-1.950000E-01	  0.038837675	-1.234610E+02	  0.038837675	7.250000E-01	  0.038837675	-2.688300E+01
96	  0.039038073	-1.990000E-01	  0.039038073	-1.240790E+02	  0.039038073	7.370000E-01	  0.039038073	-2.653600E+01
97	  0.039238475	-2.010000E-01	  0.039238475	-1.246880E+02	  0.039238475	7.390000E-01	  0.039238475	-2.619600E+01
98	  0.039438877	-2.000000E-01	  0.039438877	-1.252800E+02	  0.039438877	7.320000E-01	  0.039438877	-2.586800E+01
99	  0.039639279	-1.950000E-01	  0.039639279	-1.258370E+02	  0.039639279	7.090000E-01	  0.039639279	-2.556100E+01
100	  0.039839678	-1.850000E-01	  0.039839678	-1.263680E+02	  0.039839678	6.690000E-01	  0.039839678	-2.527000E+01
101	  0.040040080	-1.810000E-01	  0.040040080	-1.268660E+02	  0.040040080	6.540000E-01	  0.040040080	-2.499800E+01
102	  0.040240481	-1.760000E-01	  0.040240481	-1.273470E+02	  0.040240481	6.330000E-01	  0.040240481	-2.473600E+01
103	  0.040440880	-1.730000E-01	  0.040440880	-1.278360E+02	  0.040440880	6.180000E-01	  0.040440880	-2.447200E+01
104	  0.040641282	-1.700000E-01	  0.040641282	-1.283040E+02	  0.040641282	6.060000E-01	  0.040641282	-2.421900E+01
105	  0.040841684	-1.700000E-01	  0.040841684	-1.287580E+02	  0.040841684	6.030000E-01	  0.040841684	-2.397500E+01
106	  0.041042086	-1.730000E-01	  0.041042086	-1.291940E+02	  0.041042086	6.120000E-01	  0.041042086	-2.374100E+01
107	  0.041242484	-1.830000E-01	  0.041242484	-1.296310E+02	  0.041242484	6.430000E-01	  0.041242484	-2.350800E+01
108	  0.041442886	-1.970000E-01	  0.041442886	-1.300970E+02	  0.041442886	6.900000E-01	  0.041442886	-2.325900E+01
109	  0.041643288	-2.080000E-01	  0.041643288	-1.306400E+02	  0.041643288	7.270000E-01	  0.041643288	-2.297200E+01
110	  0.041843686	-2.130000E-01	  0.041843686	-1.311850E+02	  0.041843686	7.420000E-01	  0.041843686	-2.268400E+01
111	  0.042044088	-2.100000E-01	  0.042044088	-1.317330E+02	  0.042044088	7.280000E-01	  0.042044088	-2.239700E+01
112	  0.042244490	-2.050000E-01	  0.042244490	-1.322800E+02	  0.042244490	7.060000E-01	  0.042244490	-2.211100E+01
113	  0.042444889	-1.940000E-01	  0.042444889	-1.327950E+02	  0.042444889	6.670000E-01	  0.042444889	-2.184300E+01
114	  0.042645290	-1.930000E-01	  0.042645290	-1.332600E+02	  0.042645290	6.590000E-01	  0.042645290	-2.160200E+01
115	  0.042845692	-1.910000E-01	  0.042845692	-1.337490E+02	  0.042845692	6.500000E-01	  0.042845692	-2.134900E+01
116	  0.043046094	-1.960000E-01	  0.043046094	-1.342590E+02	  0.043046094	6.650000E-01	  0.043046094	-2.108700E+01
117	  0.043246493	-2.010000E-01	  0.043246493	-1.347890E+02	  0.043246493	6.800000E-01	  0.043246493	-2.081500E+01
118	  0.043446895	-2.060000E-01	  0.043446895	-1.353210E+02	  0.043446895	6.930000E-01	  0.043446895	-2.054300E+01
119	  0.043647297	-2.120000E-01	  0.043647297	-1.358510E+02	  0.043647297	7.110000E-01	  0.043647297	-2.027300E+01
120	  0.043847695	-2.150000E-01	  0.043847695	-1.363860E+02	  0.043847695	7.180000E-01	  0.043847695	-2.000100E+01
121	  0.044048097	-2.210000E-01	  0.044048097	-1.369300E+02	  0.044048097	7.370000E-01	  0.044048097	-1.972600E+01
122	  0.044248499	-2.270000E-01	  0.044248499	-1.375010E+02	  0.044248499	7.520000E-01	  0.044248499	-1.943900E+01
123	  0.044448901	-2.290000E-01	  0.044448901	-1.380760E+02	  0.044448901	7.570000E-01	  0.044448901	-1.915100E+01
124	  0.044649299	-2.300000E-01	  0.044649299	-1.386270E+02	  0.044649299	7.590000E-01	  0.044649299	-1.887600E+01
125	  0.044849701	-2.260000E-01	  0.044849701	-1.391640E+02	  0.044849701	7.420000E-01	  0.044849701	-1.860800E+01
126	  0.045050103	-2.230000E-01	  0.045050103	-1.396640E+02	  0.045050103	7.290000E-01	  0.045050103	-1.836000E+01
127	  0.045250501	-2.220000E-01	  0.045250501	-1.401760E+02	  0.045250501	7.230000E-01	  0.045250501	-1.810800E+01
128	  0.045450903	-2.170000E-01	  0.045450903	-1.406860E+02	  0.045450903	7.070000E-01	  0.045450903	-1.785600E+01
129	  0.045651305	-2.140000E-01	  0.045651305	-1.411980E+02	  0.045651305	6.940000E-01	  0.045651305	-1.760500E+01
130	  0.045851704	-2.120000E-01	  0.045851704	-1.416820E+02	  0.045851704	6.860000E-01	  0.045851704	-1.736800E+01
131	  0.046052106	-2.080000E-01	  0.046052106	-1.421530E+02	  0.046052106	6.710000E-01	  0.046052106	-1.713800E+01
132	  0.046252504	-2.110000E-01	  0.046252504	-1.425910E+02	  0.046252504	6.780000E-01	  0.046252504	-1.692500E+01
133	  0.046452906	-2.160000E-01	  0.046452906	-1.430120E+02	  0.046452906	6.920000E-01	  0.046452906	-1.672100E+01
134	  0.046653304	-2.250000E-01	  0.046653304	-1.434550E+02	  0.046653304	7.210000E-01	  0.046653304	-1.650500E+01
135	  0.046853706	-2.370000E-01	  0.046853706	-1.439320E+02	  0.046853706	7.570000E-01	  0.046853706	-1.627500E+01
136	  0.047054108	-2.440000E-01	  0.047054108	-1.444440E+02	  0.047054108	7.750000E-01	  0.047054108	-1.602800E+01
137	  0.047254506	-2.440000E-01	  0.047254506	-1.449610E+02	  0.047254506	7.730000E-01	  0.047254506	-1.577900E+01
138	  0.047454908	-2.380000E-01	  0.047454908	-1.454580E+02	  0.047454908	7.520000E-01	  0.047454908	-1.554200E+01
139	  0.047655310	-2.320000E-01	  0.047655310	-1.459350E+02	  0.047655310	7.310000E-01	  0.047655310	-1.531400E+01
140	  0.047855709	-2.300000E-01	  0.047855709	-1.463940E+02	  0.047855709	7.240000E-01	  0.047855709	-1.509500E+01
141	  0.048056111	-2.300000E-01	  0.048056111	-1.468540E+02	  0.048056111	7.200000E-01	  0.048056111	-1.487600E+01
142	  0.048256513	-2.320000E-01	  0.048256513	-1.473530E+02	  0.048256513	7.260000E-01	  0.048256513	-1.464000E+01
143	  0.048456915	-2.340000E-01	  0.048456915	-1.478460E+02	  0.048456915	7.310000E-01	  0.048456915	-1.440700E+01
144	  0.048657313	-2.370000E-01	  0.048657313	-1.483150E+02	  0.048657313	7.390000E-01	  0.048657313	-1.418500E+01
145	  0.048857715	-2.420000E-01	  0.048857715	-1.487940E+02	  0.048857715	7.510000E-01	  0.048857715	-1.396000E+01
146	  0.049058117	-2.460000E-01	  0.049058117	-1.492860E+02	  0.049058117	7.640000E-01	  0.049058117	-1.372800E+01
147	  0.049258515	-2.530000E-01	  0.049258515	-1.497960E+02	  0.049258515	7.840000E-01	  0.049258515	-1.348900E+01
148	  0.049458917	-2.560000E-01	  0.049458917	-1.503290E+02	  0.049458917	7.890000E-01	  0.049458917	-1.324000E+01
149	  0.049659319	-2.550000E-01	  0.049659319	-1.508500E+02	  0.049659319	7.850000E-01	  0.049659319	-1.299700E+01
150	  0.049859721	-2.550000E-01	  0.049859721	-1.513650E+02	  0.049859721	7.820000E-01	  0.049859721	-1.275800E+01
151	  0.050060119	-2.540000E-01	  0.050060119	-1.518450E+02	  0.050060119	7.780000E-01	  0.050060119	-1.253500E+01
152	  0.050260521	-2.540000E-01	  0.050260521	-1.523120E+02	  0.050260521	7.780000E-01	  0.050260521	-1.231800E+01
153	  0.050460923	-2.560000E-01	  0.050460923	-1.528080E+02	  0.050460923	7.800000E-01	  0.050460923	-1.208900E+01
154	  0.050661322	-2.550000E-01	  0.050661322	-1.532970E+02	  0.050661322	7.770000E-01	  0.050661322	-1.186400E+01
155	  0.050861724	-2.540000E-01	  0.050861724	-1.537840E+02	  0.050861724	7.720000E-01	  0.050861724	-1.163900E+01
156	  0.051062126	-2.490000E-01	  0.051062126	-1.542700E+02	  0.051062126	7.550000E-01	  0.051062126	-1.141600E+01
157	  0.051262524	-2.460000E-01	  0.051262524	-1.547290E+02	  0.051262524	7.450000E-01	  0.051262524	-1.120600E+01
158	  0.051462926	-2.480000E-01	  0.051462926	-1.551810E+02	  0.051462926	7.480000E-01	  0.051462926	-1.099900E+01
159	  0.051663328	-2.490000E-01	  0.051663328	-1.556050E+02	  0.051663328	7.510000E-01	  0.051663328	-1.080500E+01
160	  0.051863730	-2.550000E-01	  0.051863730	-1.560330E+02	  0.051863730	7.690000E-01	  0.051863730	-1.061000E+01
161	  0.052064128	-2.600000E-01	  0.052064128	-1.564940E+02	  0.052064128	7.830000E-01	  0.052064128	-1.040000E+01
162	  0.052264530	-2.640000E-01	  0.052264530	-1.569680E+02	  0.052264530	7.920000E-01	  0.052264530	-1.018400E+01
163	  0.052464932	-2.650000E-01	  0.052464932	-1.574450E+02	  0.052464932	7.940000E-01	  0.052464932	-9.968000E+00
164	  0.052665330	-2.630000E-01	  0.052665330	-1.579270E+02	  0.052665330	7.850000E-01	  0.052665330	-9.749000E+00
165	  0.052865732	-2.620000E-01	  0.052865732	-1.583920E+02	  0.052865732	7.810000E-01	  0.052865732	-9.539000E+00
166	  0.053066134	-2.590000E-01	  0.053066134	-1.588480E+02	  0.053066134	7.710000E-01	  0.053066134	-9.333000E+00
167	  0.053266536	-2.570000E-01	  0.053266536	-1.593030E+02	  0.053266536	7.660000E-01	  0.053266536	-9.128000E+00
168	  0.053466935	-2.580000E-01	  0.053466935	-1.597640E+02	  0.053466935	7.680000E-01	  0.053466935	-8.920000E+00
169	  0.053667337	-2.590000E-01	  0.053667337	-1.602200E+02	  0.053667337	7.700000E-01	  0.053667337	-8.715000E+00
170	  0.053867739	-2.590000E-01	  0.053867739	-1.606670E+02	  0.053867739	7.670000E-01	  0.053867739	-8.514000E+00
171	  0.054068137	-2.620000E-01	  0.054068137	-1.611200E+02	  0.054068137	7.750000E-01	  0.054068137	-8.311000E+00
172	  0.054268539	-2.660000E-01	  0.054268539	-1.615700E+02	  0.054268539	7.870000E-01	  0.054268539	-8.109000E+00
173	  0.054468941	-2.700000E-01	  0.054468941	-1.620470E+02	  0.054468941	7.960000E-01	  0.054468941	-7.896000E+00
174	  0.054669339	-2.730000E-01	  0.054669339	-1.625220E+02	  0.054669339	8.060000E-01	  0.054669339	-7.683000E+00
175	  0.054869737	-2.730000E-01	  0.054869737	-1.629800E+02	  0.054869737	8.050000E-01	  0.054869737	-7.479000E+00
176	  0.055070139	-2.720000E-01	  0.055070139	-1.634440E+02	  0.055070139	8.000000E-01	  0.055070139	-7.272000E+00
177	  0.055270538	-2.730000E-01	  0.055270538	-1.638850E+02	  0.055270538	8.030000E-01	  0.055270538	-7.076000E+00
178	  0.055470940	-2.770000E-01	  0.055470940	-1.643270E+02	  0.055470940	8.120000E-01	  0.055470940	-6.879000E+00
179	  0.055671342	-2.760000E-01	  0.055671342	-1.647870E+02	  0.055671342	8.100000E-01	  0.055671342	-6.675000E+00
180	  0.055871744	-2.770000E-01	  0.055871744	-1.652470E+02	  0.055871744	8.120000E-01	  0.055871744	-6.471000E+00
181	  0.056072142	-2.770000E-01	  0.056072142	-1.657160E+02	  0.056072142	8.100000E-01	  0.056072142	-6.263000E+00
182	  0.056272544	-2.770000E-01	  0.056272544	-1.661770E+02	  0.056272544	8.080000E-01	  0.056272544	-6.059000E+00
183	  0.056472946	-2.770000E-01	  0.056472946	-1.666210E+02	  0.056472946	8.080000E-01	  0.056472946	-5.862000E+00
184	  0.056673344	-2.750000E-01	  0.056673344	-1.670720E+02	  0.056673344	8.030000E-01	  0.056673344	-5.663000E+00
185	  0.056873746	-2.780000E-01	  0.056873746	-1.675040E+02	  0.056873746	8.110000E-01	  0.056873746	-5.472000E+00
186	  0.057074148	-2.770000E-01	  0.057074148	-1.679400E+02	  0.057074148	8.070000E-01	  0.057074148	-5.280000E+00
187	  0.057274550	-2.810000E-01	  0.057274550	-1.683850E+02	  0.057274550	8.190000E-01	  0.057274550	-5.083000E+00
188	  0.057474948	-2.840000E-01	  0.057474948	-1.688160E+02	  0.057474948	8.250000E-01	  0.057474948	-4.893000E+00
189	  0.057675350	-2.870000E-01	  0.057675350	-1.692770E+02	  0.057675350	8.330000E-01	  0.057675350	-4.690000E+00
190	  0.057875752	-2.860000E-01	  0.057875752	-1.697200E+02	  0.057875752	8.320000E-01	  0.057875752	-4.496000E+00
191	  0.058076151	-2.850000E-01	  0.058076151	-1.701680E+02	  0.058076151	8.270000E-01	  0.058076151	-4.299000E+00
192	  0.058276553	-2.840000E-01	  0.058276553	-1.706150E+02	  0.058276553	8.230000E-01	  0.058276553	-4.102000E+00
193	  0.058476955	-2.820000E-01	  0.058476955	-1.710500E+02	  0.058476955	8.170000E-01	  0.058476955	-3.911000E+00
194	  0.058677353	-2.820000E-01	  0.058677353	-1.715070E+02	  0.058677353	8.160000E-01	  0.058677353	-3.711000E+00
195	  0.058877755	-2.810000E-01	  0.058877755	-1.719380E+02	  0.058877755	8.150000E-01	  0.058877755	-3.522000E+00
196	  0.059078157	-2.840000E-01	  0.059078157	-1.723510E+02	  0.059078157	8.210000E-01	  0.059078157	-3.341000E+00
197	  0.059278559	-2.870000E-01	  0.059278559	-1.727990E+02	  0.059278559	8.290000E-01	  0.059278559	-3.145000E+00
198	  0.059478957	-2.880000E-01	  0.059478957	-1.732250E+02	  0.059478957	8.340000E-01	  0.059478957	-2.958000E+00
199	  0.059679359	-2.900000E-01	  0.059679359	-1.736630E+02	  0.059679359	8.390000E-01	  0.059679359	-2.766000E+00
200	  0.059879761	-2.920000E-01	  0.059879761	-1.740970E+02	  0.059879761	8.430000E-01	  0.059879761	-2.576000E+00
201	  0.060080159	-2.920000E-01	  0.060080159	-1.745140E+02	  0.060080159	8.440000E-01	  0.060080159	-2.394000E+00
202	  0.060280561	-2.920000E-01	  0.060280561	-1.749340E+02	  0.060280561	8.440000E-01	  0.060280561	-2.211000E+00
203	  0.060480963	-2.930000E-01	  0.060480963	-1.753450E+02	  0.060480963	8.440000E-01	  0.060480963	-2.031000E+00
204	  0.060681365	-2.960000E-01	  0.060681365	-1.757730E+02	  0.060681365	8.540000E-01	  0.060681365	-1.844000E+00
205	  0.060881764	-2.970000E-01	  0.060881764	-1.761960E+02	  0.060881764	8.570000E-01	  0.060881764	-1.659000E+00
206	  0.061082166	-2.990000E-01	  0.061082166	-1.766210E+02	  0.061082166	8.610000E-01	  0.061082166	-1.474000E+00
207	  0.061282568	-3.000000E-01	  0.061282568	-1.770420E+02	  0.061282568	8.640000E-01	  0.061282568	-1.290000E+00
208	  0.061482966	-3.000000E-01	  0.061482966	-1.774850E+02	  0.061482966	8.640000E-01	  0.061482966	-1.096000E+00
209	  0.061683368	-2.990000E-01	  0.061683368	-1.779180E+02	  0.061683368	8.620000E-01	  0.061683368	-9.080000E-01
210	  0.061883770	-3.000000E-01	  0.061883770	-1.783520E+02	  0.061883770	8.640000E-01	  0.061883770	-7.180000E-01
211	  0.062084168	-3.020000E-01	  0.062084168	-1.787830E+02	  0.062084168	8.690000E-01	  0.062084168	-5.300000E-01
212	  0.062284570	-3.020000E-01	  0.062284570	-1.792100E+02	  0.062284570	8.710000E-01	  0.062284570	-3.440000E-01
213	  0.062484972	-3.040000E-01	  0.062484972	-1.796180E+02	  0.062484972	8.760000E-01	  0.062484972	-1.660000E-01
214	  0.062685370	-3.040000E-01	  0.062685370	1.799580E+02	  0.062685370	8.750000E-01	  0.062685370	1.700000E-02
215	  0.062885776	-3.060000E-01	  0.062885776	1.795320E+02	  0.062885776	8.830000E-01	  0.062885776	2.030000E-01
216	  0.063086174	-3.070000E-01	  0.063086174	1.791080E+02	  0.063086174	8.850000E-01	  0.063086174	3.880000E-01
217	  0.063286573	-3.050000E-01	  0.063286573	1.786710E+02	  0.063286573	8.780000E-01	  0.063286573	5.790000E-01
218	  0.063486971	-3.060000E-01	  0.063486971	1.782580E+02	  0.063486971	8.810000E-01	  0.063486971	7.590000E-01
219	  0.063687377	-3.050000E-01	  0.063687377	1.778360E+02	  0.063687377	8.780000E-01	  0.063687377	9.430000E-01
220	  0.063887775	-3.030000E-01	  0.063887775	1.774220E+02	  0.063887775	8.720000E-01	  0.063887775	1.124000E+00
221	  0.064088173	-3.020000E-01	  0.064088173	1.770170E+02	  0.064088173	8.700000E-01	  0.064088173	1.301000E+00
222	  0.064288579	-3.050000E-01	  0.064288579	1.766110E+02	  0.064288579	8.800000E-01	  0.064288579	1.478000E+00
223	  0.064488977	-3.050000E-01	  0.064488977	1.761940E+02	  0.064488977	8.790000E-01	  0.064488977	1.660000E+00
224	  0.064689375	-3.070000E-01	  0.064689375	1.757610E+02	  0.064689375	8.850000E-01	  0.064689375	1.849000E+00
225	  0.064889781	-3.050000E-01	  0.064889781	1.753730E+02	  0.064889781	8.810000E-01	  0.064889781	2.019000E+00
226	  0.065090179	-3.070000E-01	  0.065090179	1.749510E+02	  0.065090179	8.860000E-01	  0.065090179	2.203000E+00
227	  0.065290578	-3.110000E-01	  0.065290578	1.745690E+02	  0.065290578	8.980000E-01	  0.065290578	2.370000E+00
228	  0.065490983	-3.100000E-01	  0.065490983	1.741730E+02	  0.065490983	8.950000E-01	  0.065490983	2.543000E+00
229	  0.065691382	-3.130000E-01	  0.065691382	1.737690E+02	  0.065691382	9.030000E-01	  0.065691382	2.720000E+00
230	  0.065891780	-3.140000E-01	  0.065891780	1.733610E+02	  0.065891780	9.080000E-01	  0.065891780	2.898000E+00
231	  0.066092186	-3.150000E-01	  0.066092186	1.729480E+02	  0.066092186	9.100000E-01	  0.066092186	3.079000E+00
232	  0.066292584	-3.170000E-01	  0.066292584	1.725600E+02	  0.066292584	9.180000E-01	  0.066292584	3.249000E+00
233	  0.066492982	-3.160000E-01	  0.066492982	1.721220E+02	  0.066492982	9.150000E-01	  0.066492982	3.441000E+00
234	  0.066693388	-3.200000E-01	  0.066693388	1.717190E+02	  0.066693388	9.250000E-01	  0.066693388	3.618000E+00
235	  0.066893786	-3.220000E-01	  0.066893786	1.712920E+02	  0.066893786	9.330000E-01	  0.066893786	3.805000E+00
236	  0.067094192	-3.230000E-01	  0.067094192	1.708560E+02	  0.067094192	9.380000E-01	  0.067094192	3.996000E+00
237	  0.067294590	-3.260000E-01	  0.067294590	1.704230E+02	  0.067294590	9.470000E-01	  0.067294590	4.186000E+00
238	  0.067494988	-3.280000E-01	  0.067494988	1.700020E+02	  0.067494988	9.530000E-01	  0.067494988	4.371000E+00
239	  0.067695394	-3.260000E-01	  0.067695394	1.695740E+02	  0.067695394	9.480000E-01	  0.067695394	4.559000E+00
240	  0.067895792	-3.300000E-01	  0.067895792	1.691600E+02	  0.067895792	9.580000E-01	  0.067895792	4.742000E+00
241	  0.068096191	-3.320000E-01	  0.068096191	1.687250E+02	  0.068096191	9.650000E-01	  0.068096191	4.933000E+00
242	  0.068296596	-3.310000E-01	  0.068296596	1.682630E+02	  0.068296596	9.630000E-01	  0.068296596	5.136000E+00
243	  0.068496995	-3.290000E-01	  0.068496995	1.678590E+02	  0.068496995	9.600000E-01	  0.068496995	5.315000E+00
244	  0.068697393	-3.280000E-01	  0.068697393	1.674420E+02	  0.068697393	9.570000E-01	  0.068697393	5.499000E+00
245	  0.068897791	-3.250000E-01	  0.068897791	1.670420E+02	  0.068897791	9.500000E-01	  0.068897791	5.676000E+00
246	  0.069098189	-3.240000E-01	  0.069098189	1.666260E+02	  0.069098189	9.480000E-01	  0.069098189	5.859000E+00
247	  0.069298595	-3.260000E-01	  0.069298595	1.662240E+02	  0.069298595	9.520000E-01	  0.069298595	6.037000E+00
248	  0.069498993	-3.290000E-01	  0.069498993	1.658150E+02	  0.069498993	9.610000E-01	  0.069498993	6.218000E+00
249	  0.069699399	-3.290000E-01	  0.069699399	1.653980E+02	  0.069699399	9.630000E-01	  0.069699399	6.403000E+00
250	  0.069899797	-3.300000E-01	  0.069899797	1.649850E+02	  0.069899797	9.670000E-01	  0.069899797	6.586000E+00
251	  0.070100196	-3.250000E-01	  0.070100196	1.645940E+02	  0.070100196	9.530000E-01	  0.070100196	6.760000E+00
252	  0.070300601	-3.270000E-01	  0.070300601	1.642190E+02	  0.070300601	9.600000E-01	  0.070300601	6.927000E+00
253	  0.070501000	-3.280000E-01	  0.070501000	1.638540E+02	  0.070501000	9.630000E-01	  0.070501000	7.089000E+00
254	  0.070701398	-3.240000E-01	  0.070701398	1.634760E+02	  0.070701398	9.540000E-01	  0.070701398	7.257000E+00
255	  0.070901804	-3.270000E-01	  0.070901804	1.631000E+02	  0.070901804	9.630000E-01	  0.070901804	7.425000E+00
256	  0.071102202	-3.290000E-01	  0.071102202	1.627470E+02	  0.071102202	9.700000E-01	  0.071102202	7.582000E+00
257	  0.071302600	-3.240000E-01	  0.071302600	1.623430E+02	  0.071302600	9.550000E-01	  0.071302600	7.762000E+00
258	  0.071503006	-3.270000E-01	  0.071503006	1.619800E+02	  0.071503006	9.670000E-01	  0.071503006	7.924000E+00
259	  0.071703404	-3.270000E-01	  0.071703404	1.615890E+02	  0.071703404	9.660000E-01	  0.071703404	8.099000E+00
260	  0.071903802	-3.280000E-01	  0.071903802	1.612210E+02	  0.071903802	9.700000E-01	  0.071903802	8.264000E+00
261	  0.072104208	-3.280000E-01	  0.072104208	1.608360E+02	  0.072104208	9.730000E-01	  0.072104208	8.437000E+00
262	  0.072304606	-3.310000E-01	  0.072304606	1.604570E+02	  0.072304606	9.820000E-01	  0.072304606	8.607000E+00
263	  0.072505005	-3.340000E-01	  0.072505005	1.600760E+02	  0.072505005	9.920000E-01	  0.072505005	8.778000E+00
264	  0.072705410	-3.410000E-01	  0.072705410	1.596840E+02	  0.072705410	1.012000E+00	  0.072705410	8.954000E+00
265	  0.072905809	-3.410000E-01	  0.072905809	1.592740E+02	  0.072905809	1.015000E+00	  0.072905809	9.139000E+00
266	  0.073106214	-3.400000E-01	  0.073106214	1.588470E+02	  0.073106214	1.013000E+00	  0.073106214	9.332000E+00
267	  0.073306613	-3.430000E-01	  0.073306613	1.584550E+02	  0.073306613	1.024000E+00	  0.073306613	9.509000E+00
268	  0.073507011	-3.410000E-01	  0.073507011	1.580120E+02	  0.073507011	1.020000E+00	  0.073507011	9.709000E+00
269	  0.073707417	-3.400000E-01	  0.073707417	1.576190E+02	  0.073707417	1.017000E+00	  0.073707417	9.887000E+00
270	  0.073907815	-3.380000E-01	  0.073907815	1.572260E+02	  0.073907815	1.013000E+00	  0.073907815	1.006500E+01
271	  0.074108213	-3.380000E-01	  0.074108213	1.568510E+02	  0.074108213	1.016000E+00	  0.074108213	1.023500E+01
272	  0.074308619	-3.390000E-01	  0.074308619	1.564590E+02	  0.074308619	1.020000E+00	  0.074308619	1.041400E+01
273	  0.074509017	-3.410000E-01	  0.074509017	1.560630E+02	  0.074509017	1.027000E+00	  0.074509017	1.059400E+01
274	  0.074709415	-3.440000E-01	  0.074709415	1.556520E+02	  0.074709415	1.036000E+00	  0.074709415	1.078100E+01
275	  0.074909821	-3.440000E-01	  0.074909821	1.552310E+02	  0.074909821	1.040000E+00	  0.074909821	1.097400E+01
276	  0.075110219	-3.470000E-01	  0.075110219	1.548530E+02	  0.075110219	1.050000E+00	  0.075110219	1.114700E+01
277	  0.075310618	-3.450000E-01	  0.075310618	1.544630E+02	  0.075310618	1.046000E+00	  0.075310618	1.132500E+01
278	  0.075511023	-3.470000E-01	  0.075511023	1.540910E+02	  0.075511023	1.051000E+00	  0.075511023	1.149600E+01
279	  0.075711422	-3.470000E-01	  0.075711422	1.537210E+02	  0.075711422	1.055000E+00	  0.075711422	1.166600E+01
280	  0.075911827	-3.480000E-01	  0.075911827	1.533620E+02	  0.075911827	1.059000E+00	  0.075911827	1.183100E+01
281	  0.076112226	-3.440000E-01	  0.076112226	1.529930E+02	  0.076112226	1.049000E+00	  0.076112226	1.200100E+01
282	  0.076312624	-3.440000E-01	  0.076312624	1.526040E+02	  0.076312624	1.049000E+00	  0.076312624	1.218100E+01
283	  0.076513030	-3.430000E-01	  0.076513030	1.522620E+02	  0.076513030	1.048000E+00	  0.076513030	1.233900E+01
284	  0.076713428	-3.400000E-01	  0.076713428	1.519050E+02	  0.076713428	1.039000E+00	  0.076713428	1.250500E+01
285	  0.076913826	-3.400000E-01	  0.076913826	1.515150E+02	  0.076913826	1.043000E+00	  0.076913826	1.268500E+01
286	  0.077114232	-3.400000E-01	  0.077114232	1.511600E+02	  0.077114232	1.044000E+00	  0.077114232	1.285000E+01
287	  0.077314630	-3.370000E-01	  0.077314630	1.507780E+02	  0.077314630	1.035000E+00	  0.077314630	1.302800E+01
288	  0.077515028	-3.370000E-01	  0.077515028	1.504240E+02	  0.077515028	1.038000E+00	  0.077515028	1.319300E+01
289	  0.077715434	-3.370000E-01	  0.077715434	1.500680E+02	  0.077715434	1.041000E+00	  0.077715434	1.335900E+01
290	  0.077915832	-3.420000E-01	  0.077915832	1.497170E+02	  0.077915832	1.056000E+00	  0.077915832	1.352400E+01
291	  0.078116231	-3.440000E-01	  0.078116231	1.493510E+02	  0.078116231	1.067000E+00	  0.078116231	1.369500E+01
292	  0.078316636	-3.500000E-01	  0.078316636	1.489630E+02	  0.078316636	1.086000E+00	  0.078316636	1.387700E+01
293	  0.078517035	-3.480000E-01	  0.078517035	1.485320E+02	  0.078517035	1.083000E+00	  0.078517035	1.408000E+01
294	  0.078717433	-3.470000E-01	  0.078717433	1.481270E+02	  0.078717433	1.083000E+00	  0.078717433	1.427100E+01
295	  0.078917839	-3.460000E-01	  0.078917839	1.477420E+02	  0.078917839	1.079000E+00	  0.078917839	1.445200E+01
296	  0.079118237	-3.450000E-01	  0.079118237	1.473700E+02	  0.079118237	1.079000E+00	  0.079118237	1.462800E+01
297	  0.079318643	-3.450000E-01	  0.079318643	1.470270E+02	  0.079318643	1.080000E+00	  0.079318643	1.479100E+01
298	  0.079519041	-3.420000E-01	  0.079519041	1.466590E+02	  0.079519041	1.075000E+00	  0.079519041	1.496500E+01
299	  0.079719439	-3.490000E-01	  0.079719439	1.462490E+02	  0.079719439	1.099000E+00	  0.079719439	1.516000E+01
300	  0.079919845	-3.490000E-01	  0.079919845	1.458610E+02	  0.079919845	1.101000E+00	  0.079919845	1.534500E+01
301	  0.080120243	-3.520000E-01	  0.080120243	1.454620E+02	  0.080120243	1.112000E+00	  0.080120243	1.553600E+01
302	  0.080320641	-3.520000E-01	  0.080320641	1.450950E+02	  0.080320641	1.114000E+00	  0.080320641	1.571100E+01
303	  0.080521047	-3.520000E-01	  0.080521047	1.447290E+02	  0.080521047	1.115000E+00	  0.080521047	1.588700E+01
304	  0.080721445	-3.570000E-01	  0.080721445	1.443800E+02	  0.080721445	1.134000E+00	  0.080721445	1.605500E+01
305	  0.080921844	-3.560000E-01	  0.080921844	1.440150E+02	  0.080921844	1.135000E+00	  0.080921844	1.623100E+01
306	  0.081122249	-3.560000E-01	  0.081122249	1.436490E+02	  0.081122249	1.137000E+00	  0.081122249	1.640700E+01
307	  0.081322648	-3.550000E-01	  0.081322648	1.432870E+02	  0.081322648	1.135000E+00	  0.081322648	1.658200E+01
308	  0.081523046	-3.500000E-01	  0.081523046	1.429510E+02	  0.081523046	1.121000E+00	  0.081523046	1.674500E+01
309	  0.081723452	-3.500000E-01	  0.081723452	1.425730E+02	  0.081723452	1.124000E+00	  0.081723452	1.692900E+01
310	  0.081923850	-3.480000E-01	  0.081923850	1.422320E+02	  0.081923850	1.118000E+00	  0.081923850	1.709500E+01
311	  0.082124248	-3.490000E-01	  0.082124248	1.418910E+02	  0.082124248	1.125000E+00	  0.082124248	1.726100E+01
312	  0.082324654	-3.440000E-01	  0.082324654	1.415530E+02	  0.082324654	1.111000E+00	  0.082324654	1.742600E+01
313	  0.082525052	-3.450000E-01	  0.082525052	1.412090E+02	  0.082525052	1.116000E+00	  0.082525052	1.759500E+01
314	  0.082725458	-3.410000E-01	  0.082725458	1.408900E+02	  0.082725458	1.107000E+00	  0.082725458	1.775200E+01
315	  0.082925856	-3.390000E-01	  0.082925856	1.405680E+02	  0.082925856	1.102000E+00	  0.082925856	1.791000E+01
316	  0.083126254	-3.420000E-01	  0.083126254	1.402690E+02	  0.083126254	1.114000E+00	  0.083126254	1.805700E+01
317	  0.083326660	-3.480000E-01	  0.083326660	1.399240E+02	  0.083326660	1.136000E+00	  0.083326660	1.822700E+01
318	  0.083527058	-3.520000E-01	  0.083527058	1.395710E+02	  0.083527058	1.151000E+00	  0.083527058	1.840100E+01
319	  0.083727457	-3.540000E-01	  0.083727457	1.391730E+02	  0.083727457	1.162000E+00	  0.083727457	1.859900E+01
320	  0.083927862	-3.530000E-01	  0.083927862	1.388140E+02	  0.083927862	1.160000E+00	  0.083927862	1.877700E+01
321	  0.084128261	-3.510000E-01	  0.084128261	1.384380E+02	  0.084128261	1.156000E+00	  0.084128261	1.896500E+01
322	  0.084328659	-3.530000E-01	  0.084328659	1.380900E+02	  0.084328659	1.167000E+00	  0.084328659	1.913800E+01
323	  0.084529065	-3.540000E-01	  0.084529065	1.377410E+02	  0.084529065	1.172000E+00	  0.084529065	1.931300E+01
324	  0.084729463	-3.560000E-01	  0.084729463	1.373760E+02	  0.084729463	1.181000E+00	  0.084729463	1.949600E+01
325	  0.084929861	-3.580000E-01	  0.084929861	1.369920E+02	  0.084929861	1.193000E+00	  0.084929861	1.968900E+01
326	  0.085130267	-3.600000E-01	  0.085130267	1.366230E+02	  0.085130267	1.202000E+00	  0.085130267	1.987500E+01
327	  0.085330658	-3.640000E-01	  0.085330658	1.362220E+02	  0.085330658	1.217000E+00	  0.085330658	2.007800E+01
328	  0.085531056	-3.650000E-01	  0.085531056	1.358720E+02	  0.085531056	1.223000E+00	  0.085531056	2.025500E+01
329	  0.085731462	-3.690000E-01	  0.085731462	1.354870E+02	  0.085731462	1.241000E+00	  0.085731462	2.045100E+01
330	  0.085931860	-3.740000E-01	  0.085931860	1.350970E+02	  0.085931860	1.262000E+00	  0.085931860	2.064900E+01
331	  0.086132258	-3.740000E-01	  0.086132258	1.347000E+02	  0.086132258	1.266000E+00	  0.086132258	2.085200E+01
332	  0.086332664	-3.770000E-01	  0.086332664	1.343270E+02	  0.086332664	1.277000E+00	  0.086332664	2.104300E+01
333	  0.086533062	-3.740000E-01	  0.086533062	1.339440E+02	  0.086533062	1.270000E+00	  0.086533062	2.124000E+01
334	  0.086733460	-3.680000E-01	  0.086733460	1.335510E+02	  0.086733460	1.254000E+00	  0.086733460	2.144300E+01
335	  0.086933866	-3.700000E-01	  0.086933866	1.331840E+02	  0.086933866	1.265000E+00	  0.086933866	2.163300E+01
336	  0.087134264	-3.700000E-01	  0.087134264	1.327940E+02	  0.087134264	1.268000E+00	  0.087134264	2.183500E+01
337	  0.087334670	-3.660000E-01	  0.087334670	1.324350E+02	  0.087334670	1.260000E+00	  0.087334670	2.202200E+01
338	  0.087535068	-3.600000E-01	  0.087535068	1.320720E+02	  0.087535068	1.241000E+00	  0.087535068	2.221200E+01
339	  0.087735467	-3.570000E-01	  0.087735467	1.317350E+02	  0.087735467	1.236000E+00	  0.087735467	2.238800E+01
340	  0.087935872	-3.520000E-01	  0.087935872	1.313930E+02	  0.087935872	1.222000E+00	  0.087935872	2.256800E+01
341	  0.088136271	-3.500000E-01	  0.088136271	1.310900E+02	  0.088136271	1.217000E+00	  0.088136271	2.272700E+01
342	  0.088336669	-3.470000E-01	  0.088336669	1.307840E+02	  0.088336669	1.208000E+00	  0.088336669	2.288900E+01
343	  0.088537075	-3.500000E-01	  0.088537075	1.304560E+02	  0.088537075	1.221000E+00	  0.088537075	2.306200E+01
344	  0.088737473	-3.490000E-01	  0.088737473	1.301260E+02	  0.088737473	1.222000E+00	  0.088737473	2.323700E+01
345	  0.088937871	-3.490000E-01	  0.088937871	1.297840E+02	  0.088937871	1.226000E+00	  0.088937871	2.341800E+01
346	  0.089138277	-3.480000E-01	  0.089138277	1.294570E+02	  0.089138277	1.224000E+00	  0.089138277	2.359200E+01
347	  0.089338675	-3.470000E-01	  0.089338675	1.291300E+02	  0.089338675	1.225000E+00	  0.089338675	2.376700E+01
348	  0.089539073	-3.470000E-01	  0.089539073	1.288170E+02	  0.089539073	1.228000E+00	  0.089539073	2.393400E+01
349	  0.089739479	-3.450000E-01	  0.089739479	1.284790E+02	  0.089739479	1.227000E+00	  0.089739479	2.411600E+01
350	  0.089939877	-3.510000E-01	  0.089939877	1.281700E+02	  0.089939877	1.250000E+00	  0.089939877	2.428200E+01
351	  0.090140276	-3.480000E-01	  0.090140276	1.278210E+02	  0.090140276	1.244000E+00	  0.090140276	2.447000E+01
352	  0.090340681	-3.480000E-01	  0.090340681	1.274930E+02	  0.090340681	1.247000E+00	  0.090340681	2.464800E+01
353	  0.090541080	-3.530000E-01	  0.090541080	1.271750E+02	  0.090541080	1.266000E+00	  0.090541080	2.482000E+01
354	  0.090741485	-3.510000E-01	  0.090741485	1.268250E+02	  0.090741485	1.265000E+00	  0.090741485	2.501100E+01
355	  0.090941884	-3.570000E-01	  0.090941884	1.264980E+02	  0.090941884	1.290000E+00	  0.090941884	2.518900E+01
356	  0.091142282	-3.600000E-01	  0.091142282	1.261570E+02	  0.091142282	1.306000E+00	  0.091142282	2.537600E+01
357	  0.091342688	-3.670000E-01	  0.091342688	1.258000E+02	  0.091342688	1.332000E+00	  0.091342688	2.557100E+01
358	  0.091543086	-3.660000E-01	  0.091543086	1.254450E+02	  0.091543086	1.334000E+00	  0.091543086	2.576700E+01
359	  0.091743484	-3.690000E-01	  0.091743484	1.250590E+02	  0.091743484	1.351000E+00	  0.091743484	2.598000E+01
360	  0.091943890	-3.660000E-01	  0.091943890	1.246790E+02	  0.091943890	1.345000E+00	  0.091943890	2.619100E+01
361	  0.092144288	-3.720000E-01	  0.092144288	1.243120E+02	  0.092144288	1.369000E+00	  0.092144288	2.639500E+01
362	  0.092344686	-3.690000E-01	  0.092344686	1.239310E+02	  0.092344686	1.365000E+00	  0.092344686	2.660800E+01
363	  0.092545092	-3.680000E-01	  0.092545092	1.235570E+02	  0.092545092	1.364000E+00	  0.092545092	2.681700E+01
364	  0.092745490	-3.680000E-01	  0.092745490	1.231800E+02	  0.092745490	1.370000E+00	  0.092745490	2.702900E+01
365	  0.092945889	-3.620000E-01	  0.092945889	1.228170E+02	  0.092945889	1.353000E+00	  0.092945889	2.723500E+01
366	  0.093146294	-3.610000E-01	  0.093146294	1.224880E+02	  0.093146294	1.354000E+00	  0.093146294	2.742100E+01
367	  0.093346693	-3.550000E-01	  0.093346693	1.221440E+02	  0.093346693	1.337000E+00	  0.093346693	2.761800E+01
368	  0.093547091	-3.610000E-01	  0.093547091	1.218220E+02	  0.093547091	1.363000E+00	  0.093547091	2.780100E+01
369	  0.093747497	-3.550000E-01	  0.093747497	1.215050E+02	  0.093747497	1.345000E+00	  0.093747497	2.798200E+01
370	  0.093947895	-3.590000E-01	  0.093947895	1.211660E+02	  0.093947895	1.363000E+00	  0.093947895	2.817700E+01
371	  0.094148301	-3.570000E-01	  0.094148301	1.208280E+02	  0.094148301	1.359000E+00	  0.094148301	2.837100E+01
372	  0.094348699	-3.570000E-01	  0.094348699	1.205220E+02	  0.094348699	1.365000E+00	  0.094348699	2.854800E+01
373	  0.094549097	-3.530000E-01	  0.094549097	1.201930E+02	  0.094549097	1.352000E+00	  0.094549097	2.873900E+01
374	  0.094749503	-3.550000E-01	  0.094749503	1.199050E+02	  0.094749503	1.365000E+00	  0.094749503	2.890600E+01
375	  0.094949901	-3.500000E-01	  0.094949901	1.195860E+02	  0.094949901	1.348000E+00	  0.094949901	2.909200E+01
376	  0.095150299	-3.510000E-01	  0.095150299	1.192800E+02	  0.095150299	1.357000E+00	  0.095150299	2.927100E+01
377	  0.095350705	-3.480000E-01	  0.095350705	1.189610E+02	  0.095350705	1.350000E+00	  0.095350705	2.945800E+01
378	  0.095551103	-3.470000E-01	  0.095551103	1.186570E+02	  0.095551103	1.350000E+00	  0.095551103	2.963700E+01
379	  0.095751502	-3.450000E-01	  0.095751502	1.183670E+02	  0.095751502	1.348000E+00	  0.095751502	2.980900E+01
380	  0.095951907	-3.460000E-01	  0.095951907	1.180680E+02	  0.095951907	1.354000E+00	  0.095951907	2.998600E+01
381	  0.096152306	-3.500000E-01	  0.096152306	1.177750E+02	  0.096152306	1.376000E+00	  0.096152306	3.015900E+01
382	  0.096352704	-3.530000E-01	  0.096352704	1.174550E+02	  0.096352704	1.390000E+00	  0.096352704	3.035000E+01
383	  0.096553110	-3.550000E-01	  0.096553110	1.171580E+02	  0.096553110	1.404000E+00	  0.096553110	3.052700E+01
384	  0.096753508	-3.570000E-01	  0.096753508	1.168040E+02	  0.096753508	1.419000E+00	  0.096753508	3.073900E+01
385	  0.096953906	-3.590000E-01	  0.096953906	1.164840E+02	  0.096953906	1.429000E+00	  0.096953906	3.093200E+01
386	  0.097154312	-3.600000E-01	  0.097154312	1.161350E+02	  0.097154312	1.438000E+00	  0.097154312	3.114200E+01
387	  0.097354710	-3.610000E-01	  0.097354710	1.157780E+02	  0.097354710	1.449000E+00	  0.097354710	3.135900E+01
388	  0.097555116	-3.650000E-01	  0.097555116	1.154070E+02	  0.097555116	1.472000E+00	  0.097555116	3.158400E+01
389	  0.097755514	-3.640000E-01	  0.097755514	1.150580E+02	  0.097755514	1.473000E+00	  0.097755514	3.179700E+01
390	  0.097955912	-3.650000E-01	  0.097955912	1.146920E+02	  0.097955912	1.484000E+00	  0.097955912	3.202200E+01
391	  0.098156318	-3.600000E-01	  0.098156318	1.143270E+02	  0.098156318	1.469000E+00	  0.098156318	3.224700E+01
392	  0.098356716	-3.590000E-01	  0.098356716	1.139760E+02	  0.098356716	1.470000E+00	  0.098356716	3.246500E+01
393	  0.098557115	-3.580000E-01	  0.098557115	1.136210E+02	  0.098557115	1.473000E+00	  0.098557115	3.268500E+01
394	  0.098757520	-3.570000E-01	  0.098757520	1.132580E+02	  0.098757520	1.474000E+00	  0.098757520	3.291200E+01
395	  0.098957919	-3.560000E-01	  0.098957919	1.129310E+02	  0.098957919	1.477000E+00	  0.098957919	3.311700E+01
396	  0.099158317	-3.530000E-01	  0.099158317	1.125510E+02	  0.099158317	1.471000E+00	  0.099158317	3.335600E+01
397	  0.099358723	-3.540000E-01	  0.099358723	1.122380E+02	  0.099358723	1.480000E+00	  0.099358723	3.355300E+01
398	  0.099559121	-3.490000E-01	  0.099559121	1.118940E+02	  0.099559121	1.466000E+00	  0.099559121	3.377200E+01
399	  0.099759519	-3.520000E-01	  0.099759519	1.115670E+02	  0.099759519	1.481000E+00	  0.099759519	3.398000E+01
400	  0.099959925	-3.590000E-01	  0.099959925	1.112360E+02	  0.099959925	1.518000E+00	  0.099959925	3.419000E+01
401	  0.100160323	-3.510000E-01	  0.100160323	1.109270E+02	  0.100160323	1.491000E+00	  0.100160323	3.439000E+01
402	  0.100360721	-3.580000E-01	  0.100360721	1.105970E+02	  0.100360721	1.527000E+00	  0.100360721	3.460100E+01
403	  0.100561127	-3.470000E-01	  0.100561127	1.103050E+02	  0.100561127	1.485000E+00	  0.100561127	3.479100E+01
404	  0.100761525	-3.540000E-01	  0.100761525	1.099940E+02	  0.100761525	1.518000E+00	  0.100761525	3.499200E+01
405	  0.100961931	-3.460000E-01	  0.100961931	1.096860E+02	  0.100961931	1.490000E+00	  0.100961931	3.519300E+01
406	  0.101162329	-3.480000E-01	  0.101162329	1.094040E+02	  0.101162329	1.504000E+00	  0.101162329	3.537700E+01
407	  0.101362728	-3.490000E-01	  0.101362728	1.091280E+02	  0.101362728	1.514000E+00	  0.101362728	3.555800E+01
408	  0.101563133	-3.480000E-01	  0.101563133	1.088300E+02	  0.101563133	1.517000E+00	  0.101563133	3.575400E+01
409	  0.101763532	-3.520000E-01	  0.101763532	1.085410E+02	  0.101763532	1.538000E+00	  0.101763532	3.594400E+01
410	  0.101963930	-3.530000E-01	  0.101963930	1.082400E+02	  0.101963930	1.549000E+00	  0.101963930	3.614400E+01
411	  0.102164336	-3.510000E-01	  0.102164336	1.079110E+02	  0.102164336	1.549000E+00	  0.102164336	3.636300E+01
412	  0.102364734	-3.550000E-01	  0.102364734	1.076330E+02	  0.102364734	1.571000E+00	  0.102364734	3.654800E+01
413	  0.102565132	-3.510000E-01	  0.102565132	1.073000E+02	  0.102565132	1.556000E+00	  0.102565132	3.677200E+01
414	  0.102765530	-3.620000E-01	  0.102765530	1.069570E+02	  0.102765530	1.615000E+00	  0.102765530	3.700100E+01
415	  0.102965929	-3.570000E-01	  0.102965929	1.066530E+02	  0.102965929	1.600000E+00	  0.102965929	3.720800E+01
416	  0.103166327	-3.570000E-01	  0.103166327	1.063380E+02	  0.103166327	1.607000E+00	  0.103166327	3.742100E+01
417	  0.103366733	-3.510000E-01	  0.103366733	1.059710E+02	  0.103366733	1.586000E+00	  0.103366733	3.767300E+01
418	  0.103567131	-3.540000E-01	  0.103567131	1.056520E+02	  0.103567131	1.604000E+00	  0.103567131	3.789100E+01
419	  0.103767529	-3.550000E-01	  0.103767529	1.052980E+02	  0.103767529	1.620000E+00	  0.103767529	3.813400E+01
420	  0.103967935	-3.590000E-01	  0.103967935	1.050050E+02	  0.103967935	1.643000E+00	  0.103967935	3.833600E+01
421	  0.104168333	-3.550000E-01	  0.104168333	1.046540E+02	  0.104168333	1.634000E+00	  0.104168333	3.858000E+01
422	  0.104368731	-3.570000E-01	  0.104368731	1.043350E+02	  0.104368731	1.650000E+00	  0.104368731	3.880200E+01
423	  0.104569137	-3.540000E-01	  0.104569137	1.040010E+02	  0.104569137	1.643000E+00	  0.104569137	3.903600E+01
424	  0.104769535	-3.630000E-01	  0.104769535	1.036730E+02	  0.104769535	1.690000E+00	  0.104769535	3.926600E+01
425	  0.104969934	-3.610000E-01	  0.104969934	1.033470E+02	  0.104969934	1.689000E+00	  0.104969934	3.949700E+01
426	  0.105170339	-3.630000E-01	  0.105170339	1.030310E+02	  0.105170339	1.706000E+00	  0.105170339	3.972100E+01
427	  0.105370738	-3.650000E-01	  0.105370738	1.026850E+02	  0.105370738	1.723000E+00	  0.105370738	3.996700E+01
428	  0.105571143	-3.630000E-01	  0.105571143	1.023780E+02	  0.105571143	1.723000E+00	  0.105571143	4.018700E+01
429	  0.105771542	-3.610000E-01	  0.105771542	1.020340E+02	  0.105771542	1.722000E+00	  0.105771542	4.043500E+01
430	  0.105971940	-3.630000E-01	  0.105971940	1.016710E+02	  0.105971940	1.740000E+00	  0.105971940	4.069700E+01
431	  0.106172346	-3.510000E-01	  0.106172346	1.014470E+02	  0.106172346	1.685000E+00	  0.106172346	4.086200E+01
432	  0.106372744	-3.570000E-01	  0.106372744	1.011000E+02	  0.106372744	1.725000E+00	  0.106372744	4.111400E+01
433	  0.106573142	-3.530000E-01	  0.106573142	1.008120E+02	  0.106573142	1.712000E+00	  0.106573142	4.132500E+01
434	  0.106773548	-3.550000E-01	  0.106773548	1.005110E+02	  0.106773548	1.730000E+00	  0.106773548	4.154600E+01
435	  0.106973946	-3.530000E-01	  0.106973946	1.001650E+02	  0.106973946	1.726000E+00	  0.106973946	4.180200E+01
436	  0.107174344	-3.510000E-01	  0.107174344	9.991300E+01	  0.107174344	1.723000E+00	  0.107174344	4.199000E+01
437	  0.107374750	-3.490000E-01	  0.107374750	9.961200E+01	  0.107374750	1.720000E+00	  0.107374750	4.221400E+01
438	  0.107575148	-3.470000E-01	  0.107575148	9.932400E+01	  0.107575148	1.722000E+00	  0.107575148	4.243000E+01
439	  0.107775547	-3.480000E-01	  0.107775547	9.898600E+01	  0.107775547	1.735000E+00	  0.107775547	4.268400E+01
440	  0.107975952	-3.490000E-01	  0.107975952	9.868400E+01	  0.107975952	1.745000E+00	  0.107975952	4.291200E+01
441	  0.108176351	-3.460000E-01	  0.108176351	9.834100E+01	  0.108176351	1.741000E+00	  0.108176351	4.317300E+01
442	  0.108376749	-3.520000E-01	  0.108376749	9.803000E+01	  0.108376749	1.781000E+00	  0.108376749	4.340900E+01
443	  0.108577155	-3.440000E-01	  0.108577155	9.769700E+01	  0.108577155	1.746000E+00	  0.108577155	4.366600E+01
444	  0.108777553	-3.420000E-01	  0.108777553	9.741700E+01	  0.108777553	1.747000E+00	  0.108777553	4.388200E+01
445	  0.108977959	-3.440000E-01	  0.108977959	9.705000E+01	  0.108977959	1.763000E+00	  0.108977959	4.416600E+01
446	  0.109178357	-3.400000E-01	  0.109178357	9.671900E+01	  0.109178357	1.753000E+00	  0.109178357	4.442400E+01
447	  0.109378755	-3.340000E-01	  0.109378755	9.637100E+01	  0.109378755	1.731000E+00	  0.109378755	4.469700E+01
448	  0.109579161	-3.380000E-01	  0.109579161	9.607700E+01	  0.109579161	1.759000E+00	  0.109579161	4.492800E+01
449	  0.109779559	-3.360000E-01	  0.109779559	9.575500E+01	  0.109779559	1.757000E+00	  0.109779559	4.518300E+01
450	  0.109979957	-3.360000E-01	  0.109979957	9.542500E+01	  0.109979957	1.768000E+00	  0.109979957	4.544400E+01
451	  0.110180363	-3.350000E-01	  0.110180363	9.512700E+01	  0.110180363	1.772000E+00	  0.110180363	4.568200E+01
452	  0.110380761	-3.330000E-01	  0.110380761	9.479200E+01	  0.110380761	1.772000E+00	  0.110380761	4.595200E+01
453	  0.110581160	-3.340000E-01	  0.110581160	9.452700E+01	  0.110581160	1.786000E+00	  0.110581160	4.616500E+01
454	  0.110781565	-3.390000E-01	  0.110781565	9.419600E+01	  0.110781565	1.821000E+00	  0.110781565	4.643200E+01
455	  0.110981964	-3.300000E-01	  0.110981964	9.389900E+01	  0.110981964	1.780000E+00	  0.110981964	4.667500E+01
456	  0.111182362	-3.360000E-01	  0.111182362	9.356000E+01	  0.111182362	1.823000E+00	  0.111182362	4.695200E+01
457	  0.111382768	-3.320000E-01	  0.111382768	9.327200E+01	  0.111382768	1.810000E+00	  0.111382768	4.718900E+01
458	  0.111583166	-3.340000E-01	  0.111583166	9.294800E+01	  0.111583166	1.831000E+00	  0.111583166	4.745700E+01
459	  0.111783572	-3.390000E-01	  0.111783572	9.267100E+01	  0.111783572	1.865000E+00	  0.111783572	4.768600E+01
460	  0.111983970	-3.380000E-01	  0.111983970	9.240300E+01	  0.111983970	1.871000E+00	  0.111983970	4.791000E+01
461	  0.112184368	-3.390000E-01	  0.112184368	9.213100E+01	  0.112184368	1.882000E+00	  0.112184368	4.813800E+01
462	  0.112384774	-3.410000E-01	  0.112384774	9.181700E+01	  0.112384774	1.906000E+00	  0.112384774	4.840200E+01
463	  0.112585172	-3.370000E-01	  0.112585172	9.151100E+01	  0.112585172	1.889000E+00	  0.112585172	4.866200E+01
464	  0.112785570	-3.390000E-01	  0.112785570	9.117700E+01	  0.112785570	1.912000E+00	  0.112785570	4.894600E+01
465	  0.112985976	-3.390000E-01	  0.112985976	9.091000E+01	  0.112985976	1.920000E+00	  0.112985976	4.917400E+01
466	  0.113186374	-3.410000E-01	  0.113186374	9.057500E+01	  0.113186374	1.947000E+00	  0.113186374	4.946200E+01
467	  0.113386773	-3.420000E-01	  0.113386773	9.028400E+01	  0.113386773	1.962000E+00	  0.113386773	4.971300E+01
468	  0.113587178	-3.460000E-01	  0.113587178	8.997200E+01	  0.113587178	1.995000E+00	  0.113587178	4.998400E+01
469	  0.113787577	-3.440000E-01	  0.113787577	8.962600E+01	  0.113787577	1.997000E+00	  0.113787577	5.028700E+01
470	  0.113987975	-3.410000E-01	  0.113987975	8.935100E+01	  0.113987975	1.987000E+00	  0.113987975	5.052900E+01
471	  0.114188381	-3.410000E-01	  0.114188381	8.905000E+01	  0.114188381	1.999000E+00	  0.114188381	5.079500E+01
472	  0.114388779	-3.480000E-01	  0.114388779	8.871400E+01	  0.114388779	2.049000E+00	  0.114388779	5.109200E+01
473	  0.114589177	-3.350000E-01	  0.114589177	8.839500E+01	  0.114589177	1.988000E+00	  0.114589177	5.138000E+01
474	  0.114789583	-3.420000E-01	  0.114789583	8.806700E+01	  0.114789583	2.040000E+00	  0.114789583	5.167300E+01
475	  0.114989981	-3.390000E-01	  0.114989981	8.777400E+01	  0.114989981	2.032000E+00	  0.114989981	5.193900E+01
476	  0.115190387	-3.310000E-01	  0.115190387	8.746300E+01	  0.115190387	1.997000E+00	  0.115190387	5.222300E+01
477	  0.115390785	-3.350000E-01	  0.115390785	8.719500E+01	  0.115390785	2.032000E+00	  0.115390785	5.246800E+01
478	  0.115591183	-3.340000E-01	  0.115591183	8.689800E+01	  0.115591183	2.036000E+00	  0.115591183	5.274100E+01
479	  0.115791589	-3.320000E-01	  0.115791589	8.661600E+01	  0.115791589	2.034000E+00	  0.115791589	5.300200E+01
480	  0.115991987	-3.340000E-01	  0.115991987	8.630300E+01	  0.115991987	2.056000E+00	  0.115991987	5.329200E+01
481	  0.116192386	-3.320000E-01	  0.116192386	8.602600E+01	  0.116192386	2.057000E+00	  0.116192386	5.355100E+01
482	  0.116392791	-3.280000E-01	  0.116392791	8.571600E+01	  0.116392791	2.043000E+00	  0.116392791	5.384300E+01
483	  0.116593190	-3.330000E-01	  0.116593190	8.545200E+01	  0.116593190	2.083000E+00	  0.116593190	5.409100E+01
484	  0.116793588	-3.320000E-01	  0.116793588	8.514100E+01	  0.116793588	2.088000E+00	  0.116793588	5.438600E+01
485	  0.116993994	-3.330000E-01	  0.116993994	8.487700E+01	  0.116993994	2.104000E+00	  0.116993994	5.463800E+01
486	  0.117194392	-3.340000E-01	  0.117194392	8.458100E+01	  0.117194392	2.128000E+00	  0.117194392	5.492200E+01
487	  0.117394790	-3.330000E-01	  0.117394790	8.433300E+01	  0.117394790	2.130000E+00	  0.117394790	5.516100E+01
488	  0.117595196	-3.340000E-01	  0.117595196	8.400500E+01	  0.117595196	2.148000E+00	  0.117595196	5.547900E+01
489	  0.117795594	-3.280000E-01	  0.117795594	8.373400E+01	  0.117795594	2.120000E+00	  0.117795594	5.574500E+01
490	  0.117995992	-3.300000E-01	  0.117995992	8.344600E+01	  0.117995992	2.145000E+00	  0.117995992	5.602700E+01
491	  0.118196398	-3.320000E-01	  0.118196398	8.314600E+01	  0.118196398	2.169000E+00	  0.118196398	5.632200E+01
492	  0.118396796	-3.280000E-01	  0.118396796	8.289100E+01	  0.118396796	2.154000E+00	  0.118396796	5.657600E+01
493	  0.118597202	-3.340000E-01	  0.118597202	8.255100E+01	  0.118597202	2.209000E+00	  0.118597202	5.691300E+01
494	  0.118797600	-3.270000E-01	  0.118797600	8.223700E+01	  0.118797600	2.181000E+00	  0.118797600	5.723000E+01
495	  0.118997999	-3.300000E-01	  0.118997999	8.195900E+01	  0.118997999	2.207000E+00	  0.118997999	5.751100E+01
496	  0.119198404	-3.250000E-01	  0.119198404	8.165100E+01	  0.119198404	2.189000E+00	  0.119198404	5.782500E+01
497	  0.119398803	-3.280000E-01	  0.119398803	8.132600E+01	  0.119398803	2.227000E+00	  0.119398803	5.815600E+01
498	  0.119599201	-3.260000E-01	  0.119599201	8.102200E+01	  0.119599201	2.226000E+00	  0.119599201	5.847000E+01
499	  0.119799607	-3.270000E-01	  0.119799607	8.072700E+01	  0.119799607	2.246000E+00	  0.119799607	5.877400E+01
500	  0.120000005	-3.280000E-01	  0.120000005	8.037000E+01	  0.120000005	2.268000E+00	  0.120000005	5.914700E+01
