! Anritsu VNA Master:             	Model: MS2036C/10/77
! SN:             	1601066
! /card0/usr/18may27.balun/5b.m3.txt
! Existing Calibration Information:
! TYPE:             	Current Settings	Active Cal Settings
! TIME:             	05/27/2018 03:55:42 PM	05/27/2018 03:52:12 PM
! INTERNAL TEMP:    	52.3 C	52.5 C
! # POINTS:         	500	500
! START FREQ:       	20.000 MHz	20.000 MHz
! STOP FREQ:        	120.000 MHz	120.000 MHz
! SOURCE POWER:     	High	High
! IFBW:             	50 Hz	50 Hz
! AVG FACTOR:       	  1 	  1 
! REF PLANE 1:      	0 mm	0 mm
! REF PLANE 2:      	0 mm	0 mm
! CAL TYPE:         	Full S11	Full S11
! CAL METHOD:       	SOLT	SOLT
! CAL LINE TYPE:    	Coax	Coax
! DUT PORT 1:       	K-Conn(M)	K-Conn(M)
! DUT PORT 2:       	K-Conn(M)	K-Conn(M)
! CAL STATUS:       	OK: Accuracy High	--
! PROP-V:       	0.700
! CABLE LOSS:       	0.000 dB/m
! REF IMPEDANCE:       	50.0
! Trace Specific Parameters:	TR1	TR2	TR3	TR4
! TRACE.#.Y (GRAPH TYPE)	LOG MAG	PHASE	REAL IMPEDANCE	IMAGINARY IMPEDANCE
! TRACE.#.X 	FREQ.GHZ	FREQ.GHZ	FREQ.GHZ	FREQ.GHZ
! S-PARAMETER	S11	S11	S11	S11
! SMOOTH/APERTURE %	0	0	0	0
! WINDOW	NSL	NSL	NSL	NSL
! GATING	OFF	OFF	OFF	OFF
! FGTD	OFF	OFF	OFF	OFF
Marker Information per Trace:	TR1	TR2	TR3	TR4
!MK1	--	--	--	"MK1 TR4:  70.100 200 MHz,Z:(17.267 ohm, -1.812 ohm)"
!MK2	--	--	--	--
!MK3	--	--	--	--
!MK4	--	--	--	--
!MK5	--	--	--	--
!MK6	--	--	--	--
!MK7	--	--	--	--
!MK8	--	--	--	--
PNT	TR1.FREQ.GHZ	TR1.LOG MAG.dB	TR2.FREQ.GHZ	TR2.PHASE.deg	TR3.FREQ.GHZ	TR3.REAL IMPEDANCE.ohm	TR4.FREQ.GHZ	TR4.IMAGINARY IMPEDANCE.ohm
1	  0.020000000	-7.230000E-01	  0.020000000	-1.255370E+02	  0.020000000	2.632000E+00	  0.020000000	-2.567400E+01
2	  0.020200402	-7.250000E-01	  0.020200402	-1.270020E+02	  0.020200402	2.604000E+00	  0.020200402	-2.487300E+01
3	  0.020400802	-7.250000E-01	  0.020400802	-1.284590E+02	  0.020400802	2.570000E+00	  0.020400802	-2.408600E+01
4	  0.020601204	-7.270000E-01	  0.020601204	-1.299060E+02	  0.020601204	2.549000E+00	  0.020601204	-2.331500E+01
5	  0.020801604	-7.350000E-01	  0.020801604	-1.313740E+02	  0.020801604	2.547000E+00	  0.020801604	-2.254000E+01
6	  0.021002004	-7.420000E-01	  0.021002004	-1.328900E+02	  0.021002004	2.540000E+00	  0.021002004	-2.175000E+01
7	  0.021202406	-7.480000E-01	  0.021202406	-1.344110E+02	  0.021202406	2.533000E+00	  0.021202406	-2.096600E+01
8	  0.021402806	-7.570000E-01	  0.021402806	-1.359300E+02	  0.021402806	2.535000E+00	  0.021402806	-2.019200E+01
9	  0.021603208	-7.620000E-01	  0.021603208	-1.374430E+02	  0.021603208	2.526000E+00	  0.021603208	-1.942900E+01
10	  0.021803608	-7.680000E-01	  0.021803608	-1.389660E+02	  0.021803608	2.520000E+00	  0.021803608	-1.866900E+01
11	  0.022004008	-7.740000E-01	  0.022004008	-1.405110E+02	  0.022004008	2.513000E+00	  0.022004008	-1.790500E+01
12	  0.022204408	-7.800000E-01	  0.022204408	-1.420860E+02	  0.022204408	2.507000E+00	  0.022204408	-1.713500E+01
13	  0.022404809	-7.830000E-01	  0.022404809	-1.436680E+02	  0.022404809	2.495000E+00	  0.022404809	-1.636800E+01
14	  0.022605211	-7.880000E-01	  0.022605211	-1.452220E+02	  0.022605211	2.488000E+00	  0.022605211	-1.562200E+01
15	  0.022805611	-7.880000E-01	  0.022805611	-1.467890E+02	  0.022805611	2.470000E+00	  0.022805611	-1.487700E+01
16	  0.023006011	-7.920000E-01	  0.023006011	-1.483530E+02	  0.023006011	2.462000E+00	  0.023006011	-1.413800E+01
17	  0.023206413	-8.000000E-01	  0.023206413	-1.499380E+02	  0.023206413	2.468000E+00	  0.023206413	-1.339500E+01
18	  0.023406813	-8.090000E-01	  0.023406813	-1.515370E+02	  0.023406813	2.477000E+00	  0.023406813	-1.265100E+01
19	  0.023607215	-8.180000E-01	  0.023607215	-1.531500E+02	  0.023607215	2.487000E+00	  0.023607215	-1.190600E+01
20	  0.023807615	-8.270000E-01	  0.023807615	-1.547610E+02	  0.023807615	2.499000E+00	  0.023807615	-1.116700E+01
21	  0.024008015	-8.350000E-01	  0.024008015	-1.563830E+02	  0.024008015	2.507000E+00	  0.024008015	-1.042700E+01
22	  0.024208417	-8.470000E-01	  0.024208417	-1.580060E+02	  0.024208417	2.527000E+00	  0.024208417	-9.692000E+00
23	  0.024408817	-8.590000E-01	  0.024408817	-1.596410E+02	  0.024408817	2.550000E+00	  0.024408817	-8.955000E+00
24	  0.024609219	-8.720000E-01	  0.024609219	-1.613050E+02	  0.024609219	2.576000E+00	  0.024609219	-8.208000E+00
25	  0.024809619	-8.800000E-01	  0.024809619	-1.629920E+02	  0.024809619	2.589000E+00	  0.024809619	-7.456000E+00
26	  0.025010020	-8.900000E-01	  0.025010020	-1.646730E+02	  0.025010020	2.606000E+00	  0.025010020	-6.709000E+00
27	  0.025210422	-8.970000E-01	  0.025210422	-1.663460E+02	  0.025210422	2.618000E+00	  0.025210422	-5.969000E+00
28	  0.025410822	-9.100000E-01	  0.025410822	-1.680310E+02	  0.025410822	2.647000E+00	  0.025410822	-5.226000E+00
29	  0.025611224	-9.220000E-01	  0.025611224	-1.697180E+02	  0.025611224	2.673000E+00	  0.025611224	-4.485000E+00
30	  0.025811624	-9.340000E-01	  0.025811624	-1.714220E+02	  0.025811624	2.703000E+00	  0.025811624	-3.738000E+00
31	  0.026012026	-9.480000E-01	  0.026012026	-1.731390E+02	  0.026012026	2.735000E+00	  0.026012026	-2.988000E+00
32	  0.026212426	-9.650000E-01	  0.026212426	-1.748640E+02	  0.026212426	2.780000E+00	  0.026212426	-2.235000E+00
33	  0.026412826	-9.830000E-01	  0.026412826	-1.766060E+02	  0.026412826	2.829000E+00	  0.026412826	-1.476000E+00
34	  0.026613226	-1.003000E+00	  0.026613226	-1.783490E+02	  0.026613226	2.884000E+00	  0.026613226	-7.170000E-01
35	  0.026813626	-1.021000E+00	  0.026813626	1.798950E+02	  0.026813626	2.936000E+00	  0.026813626	4.500000E-02
36	  0.027014028	-1.038000E+00	  0.027014028	1.781590E+02	  0.027014028	2.987000E+00	  0.027014028	8.000000E-01
37	  0.027214428	-1.055000E+00	  0.027214428	1.763950E+02	  0.027214428	3.036000E+00	  0.027214428	1.567000E+00
38	  0.027414829	-1.073000E+00	  0.027414829	1.746440E+02	  0.027414829	3.091000E+00	  0.027414829	2.329000E+00
39	  0.027615231	-1.092000E+00	  0.027615231	1.728690E+02	  0.027615231	3.153000E+00	  0.027615231	3.102000E+00
40	  0.027815631	-1.116000E+00	  0.027815631	1.710760E+02	  0.027815631	3.227000E+00	  0.027815631	3.885000E+00
41	  0.028016033	-1.136000E+00	  0.028016033	1.692600E+02	  0.028016033	3.294000E+00	  0.028016033	4.679000E+00
42	  0.028216433	-1.159000E+00	  0.028216433	1.674350E+02	  0.028216433	3.371000E+00	  0.028216433	5.479000E+00
43	  0.028416833	-1.182000E+00	  0.028416833	1.656080E+02	  0.028416833	3.453000E+00	  0.028416833	6.282000E+00
44	  0.028617235	-1.206000E+00	  0.028617235	1.637820E+02	  0.028617235	3.538000E+00	  0.028617235	7.089000E+00
45	  0.028817635	-1.234000E+00	  0.028817635	1.619310E+02	  0.028817635	3.636000E+00	  0.028817635	7.908000E+00
46	  0.029018037	-1.262000E+00	  0.029018037	1.600490E+02	  0.029018037	3.737000E+00	  0.029018037	8.746000E+00
47	  0.029218437	-1.287000E+00	  0.029218437	1.581540E+02	  0.029218437	3.836000E+00	  0.029218437	9.594000E+00
48	  0.029418837	-1.310000E+00	  0.029418837	1.562650E+02	  0.029418837	3.929000E+00	  0.029418837	1.044400E+01
49	  0.029619239	-1.334000E+00	  0.029619239	1.544000E+02	  0.029619239	4.028000E+00	  0.029619239	1.128900E+01
50	  0.029819639	-1.360000E+00	  0.029819639	1.525310E+02	  0.029819639	4.138000E+00	  0.029819639	1.214100E+01
51	  0.030020041	-1.386000E+00	  0.030020041	1.506770E+02	  0.030020041	4.253000E+00	  0.030020041	1.299200E+01
52	  0.030220442	-1.419000E+00	  0.030220442	1.488060E+02	  0.030220442	4.391000E+00	  0.030220442	1.385700E+01
53	  0.030420844	-1.456000E+00	  0.030420844	1.469130E+02	  0.030420844	4.547000E+00	  0.030420844	1.473800E+01
54	  0.030621244	-1.496000E+00	  0.030621244	1.449620E+02	  0.030621244	4.721000E+00	  0.030621244	1.565400E+01
55	  0.030821644	-1.532000E+00	  0.030821644	1.429800E+02	  0.030821644	4.888000E+00	  0.030821644	1.659500E+01
56	  0.031022044	-1.566000E+00	  0.031022044	1.409910E+02	  0.031022044	5.055000E+00	  0.031022044	1.754900E+01
57	  0.031222444	-1.593000E+00	  0.031222444	1.389960E+02	  0.031222444	5.208000E+00	  0.031222444	1.851700E+01
58	  0.031422846	-1.621000E+00	  0.031422846	1.369970E+02	  0.031422846	5.369000E+00	  0.031422846	1.950000E+01
59	  0.031623244	-1.645000E+00	  0.031623244	1.350090E+02	  0.031623244	5.524000E+00	  0.031623244	2.048900E+01
60	  0.031823646	-1.672000E+00	  0.031823646	1.330560E+02	  0.031823646	5.692000E+00	  0.031823646	2.147400E+01
61	  0.032024048	-1.696000E+00	  0.032024048	1.311140E+02	  0.032024048	5.863000E+00	  0.032024048	2.246600E+01
62	  0.032224450	-1.724000E+00	  0.032224450	1.291720E+02	  0.032224450	6.052000E+00	  0.032224450	2.347200E+01
63	  0.032424849	-1.756000E+00	  0.032424849	1.272580E+02	  0.032424849	6.260000E+00	  0.032424849	2.447500E+01
64	  0.032625251	-1.793000E+00	  0.032625251	1.253080E+02	  0.032625251	6.501000E+00	  0.032625251	2.551100E+01
65	  0.032825653	-1.834000E+00	  0.032825653	1.233550E+02	  0.032825653	6.768000E+00	  0.032825653	2.656300E+01
66	  0.033026051	-1.880000E+00	  0.033026051	1.213880E+02	  0.033026051	7.063000E+00	  0.033026051	2.763700E+01
67	  0.033226453	-1.928000E+00	  0.033226453	1.194150E+02	  0.033226453	7.384000E+00	  0.033226453	2.873100E+01
68	  0.033426855	-1.973000E+00	  0.033426855	1.174030E+02	  0.033426855	7.709000E+00	  0.033426855	2.986800E+01
69	  0.033627257	-2.021000E+00	  0.033627257	1.153520E+02	  0.033627257	8.068000E+00	  0.033627257	3.104600E+01
70	  0.033827655	-2.066000E+00	  0.033827655	1.132940E+02	  0.033827655	8.433000E+00	  0.033827655	3.225200E+01
71	  0.034028057	-2.113000E+00	  0.034028057	1.112060E+02	  0.034028057	8.828000E+00	  0.034028057	3.350000E+01
72	  0.034228459	-2.159000E+00	  0.034228459	1.091160E+02	  0.034228459	9.242000E+00	  0.034228459	3.477400E+01
73	  0.034428857	-2.205000E+00	  0.034428857	1.070320E+02	  0.034428857	9.683000E+00	  0.034428857	3.607100E+01
74	  0.034629259	-2.245000E+00	  0.034629259	1.049560E+02	  0.034629259	1.011800E+01	  0.034629259	3.739700E+01
75	  0.034829661	-2.284000E+00	  0.034829661	1.029060E+02	  0.034829661	1.057400E+01	  0.034829661	3.873600E+01
76	  0.035030060	-2.325000E+00	  0.035030060	1.008890E+02	  0.035030060	1.105900E+01	  0.035030060	4.008200E+01
77	  0.035230462	-2.371000E+00	  0.035230462	9.889100E+01	  0.035230462	1.159600E+01	  0.035230462	4.143900E+01
78	  0.035430863	-2.426000E+00	  0.035430863	9.690100E+01	  0.035430863	1.220300E+01	  0.035430863	4.281200E+01
79	  0.035631265	-2.484000E+00	  0.035631265	9.486300E+01	  0.035631265	1.287400E+01	  0.035631265	4.424600E+01
80	  0.035831664	-2.547000E+00	  0.035831664	9.279500E+01	  0.035831664	1.361900E+01	  0.035831664	4.572900E+01
81	  0.036032066	-2.608000E+00	  0.036032066	9.069600E+01	  0.036032066	1.441200E+01	  0.036032066	4.727300E+01
82	  0.036232468	-2.667000E+00	  0.036232468	8.852100E+01	  0.036232468	1.526800E+01	  0.036232468	4.891900E+01
83	  0.036432866	-2.723000E+00	  0.036432866	8.637400E+01	  0.036432866	1.615700E+01	  0.036432866	5.059100E+01
84	  0.036633268	-2.771000E+00	  0.036633268	8.419900E+01	  0.036633268	1.707700E+01	  0.036633268	5.234500E+01
85	  0.036833670	-2.818000E+00	  0.036833670	8.206500E+01	  0.036833670	1.804200E+01	  0.036833670	5.411700E+01
86	  0.037034072	-2.861000E+00	  0.037034072	7.995100E+01	  0.037034072	1.905000E+01	  0.037034072	5.593000E+01
87	  0.037234470	-2.902000E+00	  0.037234470	7.784600E+01	  0.037234470	2.012300E+01	  0.037234470	5.778900E+01
88	  0.037434869	-2.940000E+00	  0.037434869	7.579100E+01	  0.037434869	2.123300E+01	  0.037434869	5.966300E+01
89	  0.037635271	-2.977000E+00	  0.037635271	7.371400E+01	  0.037635271	2.243800E+01	  0.037635271	6.161600E+01
90	  0.037835669	-3.017000E+00	  0.037835669	7.160100E+01	  0.037835669	2.377400E+01	  0.037835669	6.365600E+01
91	  0.038036071	-3.069000E+00	  0.038036071	6.944100E+01	  0.038036071	2.533600E+01	  0.038036071	6.576000E+01
92	  0.038236473	-3.135000E+00	  0.038236473	6.730200E+01	  0.038236473	2.712600E+01	  0.038236473	6.783200E+01
93	  0.038436871	-3.209000E+00	  0.038436871	6.521700E+01	  0.038436871	2.907800E+01	  0.038436871	6.985400E+01
94	  0.038637273	-3.280000E+00	  0.038637273	6.316000E+01	  0.038637273	3.115700E+01	  0.038637273	7.187600E+01
95	  0.038837675	-3.354000E+00	  0.038837675	6.104100E+01	  0.038837675	3.347600E+01	  0.038837675	7.398000E+01
96	  0.039038073	-3.418000E+00	  0.039038073	5.891600E+01	  0.039038073	3.591800E+01	  0.039038073	7.616900E+01
97	  0.039238475	-3.477000E+00	  0.039238475	5.676400E+01	  0.039238475	3.855900E+01	  0.039238475	7.844300E+01
98	  0.039438877	-3.527000E+00	  0.039438877	5.465400E+01	  0.039438877	4.131700E+01	  0.039438877	8.074400E+01
99	  0.039639279	-3.577000E+00	  0.039639279	5.255200E+01	  0.039639279	4.430800E+01	  0.039639279	8.305000E+01
100	  0.039839678	-3.619000E+00	  0.039839678	5.047700E+01	  0.039839678	4.747100E+01	  0.039839678	8.538600E+01
101	  0.040040080	-3.669000E+00	  0.040040080	4.847000E+01	  0.040040080	5.088400E+01	  0.040040080	8.754600E+01
102	  0.040240481	-3.719000E+00	  0.040240481	4.646300E+01	  0.040240481	5.459500E+01	  0.040240481	8.965600E+01
103	  0.040440880	-3.779000E+00	  0.040440880	4.443900E+01	  0.040440880	5.874000E+01	  0.040440880	9.160100E+01
104	  0.040641282	-3.838000E+00	  0.040641282	4.238000E+01	  0.040641282	6.329800E+01	  0.040641282	9.346800E+01
105	  0.040841684	-3.897000E+00	  0.040841684	4.033500E+01	  0.040841684	6.820700E+01	  0.040841684	9.515000E+01
106	  0.041042086	-3.957000E+00	  0.041042086	3.826300E+01	  0.041042086	7.358300E+01	  0.041042086	9.662700E+01
107	  0.041242484	-4.013000E+00	  0.041242484	3.619900E+01	  0.041242484	7.933300E+01	  0.041242484	9.786900E+01
108	  0.041442886	-4.068000E+00	  0.041442886	3.412000E+01	  0.041442886	8.555800E+01	  0.041442886	9.880000E+01
109	  0.041643288	-4.121000E+00	  0.041643288	3.203400E+01	  0.041643288	9.223700E+01	  0.041643288	9.934500E+01
110	  0.041843686	-4.171000E+00	  0.041843686	2.995700E+01	  0.041843686	9.932400E+01	  0.041843686	9.940400E+01
111	  0.042044088	-4.220000E+00	  0.042044088	2.791400E+01	  0.042044088	1.067060E+02	  0.042044088	9.886300E+01
112	  0.042244490	-4.265000E+00	  0.042244490	2.587500E+01	  0.042244490	1.144410E+02	  0.042244490	9.772300E+01
113	  0.042444889	-4.313000E+00	  0.042444889	2.384400E+01	  0.042444889	1.224490E+02	  0.042444889	9.570700E+01
114	  0.042645290	-4.356000E+00	  0.042645290	2.183900E+01	  0.042645290	1.305740E+02	  0.042645290	9.289900E+01
115	  0.042845692	-4.406000E+00	  0.042845692	1.983700E+01	  0.042845692	1.387100E+02	  0.042845692	8.891300E+01
116	  0.043046094	-4.450000E+00	  0.043046094	1.784100E+01	  0.043046094	1.468030E+02	  0.043046094	8.406300E+01
117	  0.043246493	-4.497000E+00	  0.043246493	1.586300E+01	  0.043246493	1.545020E+02	  0.043246493	7.803600E+01
118	  0.043446895	-4.544000E+00	  0.043446895	1.387600E+01	  0.043446895	1.617650E+02	  0.043446895	7.087900E+01
119	  0.043647297	-4.592000E+00	  0.043647297	1.191200E+01	  0.043647297	1.681890E+02	  0.043647297	6.269100E+01
120	  0.043847695	-4.639000E+00	  0.043847695	9.935000E+00	  0.043847695	1.737890E+02	  0.043847695	5.355200E+01
121	  0.044048097	-4.687000E+00	  0.044048097	7.976000E+00	  0.044048097	1.782280E+02	  0.044048097	4.367800E+01
122	  0.044248499	-4.729000E+00	  0.044248499	6.008000E+00	  0.044248499	1.816120E+02	  0.044248499	3.325000E+01
123	  0.044448901	-4.768000E+00	  0.044448901	4.031000E+00	  0.044448901	1.837530E+02	  0.044448901	2.238800E+01
124	  0.044649299	-4.808000E+00	  0.044649299	2.103000E+00	  0.044649299	1.844220E+02	  0.044649299	1.162500E+01
125	  0.044849701	-4.849000E+00	  0.044849701	1.880000E-01	  0.044849701	1.837450E+02	  0.044849701	1.028000E+00
126	  0.045050103	-4.889000E+00	  0.045050103	-1.730000E+00	  0.045050103	1.817940E+02	  0.045050103	-9.253000E+00
127	  0.045250501	-4.931000E+00	  0.045250501	-3.632000E+00	  0.045250501	1.786750E+02	  0.045250501	-1.890800E+01
128	  0.045450903	-4.967000E+00	  0.045450903	-5.544000E+00	  0.045450903	1.747340E+02	  0.045450903	-2.797000E+01
129	  0.045651305	-5.004000E+00	  0.045651305	-7.456000E+00	  0.045651305	1.699230E+02	  0.045651305	-3.623600E+01
130	  0.045851704	-5.039000E+00	  0.045851704	-9.347000E+00	  0.045851704	1.645440E+02	  0.045851704	-4.357800E+01
131	  0.046052106	-5.076000E+00	  0.046052106	-1.124900E+01	  0.046052106	1.585910E+02	  0.046052106	-5.003100E+01
132	  0.046252504	-5.110000E+00	  0.046252504	-1.313900E+01	  0.046252504	1.524430E+02	  0.046252504	-5.563500E+01
133	  0.046452906	-5.142000E+00	  0.046452906	-1.499500E+01	  0.046452906	1.462150E+02	  0.046452906	-6.031400E+01
134	  0.046653304	-5.176000E+00	  0.046653304	-1.683800E+01	  0.046653304	1.399320E+02	  0.046653304	-6.414900E+01
135	  0.046853706	-5.211000E+00	  0.046853706	-1.867300E+01	  0.046853706	1.336880E+02	  0.046853706	-6.723200E+01
136	  0.047054108	-5.244000E+00	  0.047054108	-2.053100E+01	  0.047054108	1.275150E+02	  0.047054108	-6.975500E+01
137	  0.047254506	-5.274000E+00	  0.047254506	-2.236300E+01	  0.047254506	1.215960E+02	  0.047254506	-7.169700E+01
138	  0.047454908	-5.306000E+00	  0.047454908	-2.421300E+01	  0.047454908	1.158130E+02	  0.047454908	-7.311400E+01
139	  0.047655310	-5.335000E+00	  0.047655310	-2.600300E+01	  0.047655310	1.104440E+02	  0.047655310	-7.407800E+01
140	  0.047855709	-5.365000E+00	  0.047855709	-2.785200E+01	  0.047855709	1.051490E+02	  0.047855709	-7.468800E+01
141	  0.048056111	-5.392000E+00	  0.048056111	-2.963500E+01	  0.048056111	1.002860E+02	  0.048056111	-7.496900E+01
142	  0.048256513	-5.422000E+00	  0.048256513	-3.142500E+01	  0.048256513	9.564800E+01	  0.048256513	-7.491800E+01
143	  0.048456915	-5.446000E+00	  0.048456915	-3.325300E+01	  0.048456915	9.117100E+01	  0.048456915	-7.473000E+01
144	  0.048657313	-5.469000E+00	  0.048657313	-3.502700E+01	  0.048657313	8.706100E+01	  0.048657313	-7.433700E+01
145	  0.048857715	-5.492000E+00	  0.048857715	-3.679900E+01	  0.048857715	8.318000E+01	  0.048857715	-7.378600E+01
146	  0.049058117	-5.513000E+00	  0.049058117	-3.852900E+01	  0.049058117	7.960100E+01	  0.049058117	-7.310900E+01
147	  0.049258515	-5.532000E+00	  0.049258515	-4.022300E+01	  0.049258515	7.628800E+01	  0.049258515	-7.234700E+01
148	  0.049458917	-5.556000E+00	  0.049458917	-4.191500E+01	  0.049458917	7.317200E+01	  0.049458917	-7.143400E+01
149	  0.049659319	-5.582000E+00	  0.049659319	-4.359000E+01	  0.049659319	7.026700E+01	  0.049659319	-7.044000E+01
150	  0.049859721	-5.606000E+00	  0.049859721	-4.529100E+01	  0.049859721	6.748400E+01	  0.049859721	-6.938100E+01
151	  0.050060119	-5.634000E+00	  0.050060119	-4.700100E+01	  0.050060119	6.485600E+01	  0.050060119	-6.824100E+01
152	  0.050260521	-5.660000E+00	  0.050260521	-4.867500E+01	  0.050260521	6.243100E+01	  0.050260521	-6.709700E+01
153	  0.050460923	-5.681000E+00	  0.050460923	-5.038100E+01	  0.050460923	6.008300E+01	  0.050460923	-6.595200E+01
154	  0.050661322	-5.701000E+00	  0.050661322	-5.205200E+01	  0.050661322	5.790700E+01	  0.050661322	-6.481600E+01
155	  0.050861724	-5.716000E+00	  0.050861724	-5.375400E+01	  0.050861724	5.579800E+01	  0.050861724	-6.367700E+01
156	  0.051062126	-5.729000E+00	  0.051062126	-5.543200E+01	  0.051062126	5.382400E+01	  0.051062126	-6.255500E+01
157	  0.051262524	-5.742000E+00	  0.051262524	-5.708400E+01	  0.051262524	5.198400E+01	  0.051262524	-6.143700E+01
158	  0.051462926	-5.753000E+00	  0.051462926	-5.869800E+01	  0.051462926	5.027600E+01	  0.051462926	-6.034300E+01
159	  0.051663328	-5.769000E+00	  0.051663328	-6.029100E+01	  0.051663328	4.869900E+01	  0.051663328	-5.922600E+01
160	  0.051863730	-5.786000E+00	  0.051863730	-6.186700E+01	  0.051863730	4.722400E+01	  0.051863730	-5.811200E+01
161	  0.052064128	-5.803000E+00	  0.052064128	-6.344400E+01	  0.052064128	4.581800E+01	  0.052064128	-5.700700E+01
162	  0.052264530	-5.824000E+00	  0.052264530	-6.503000E+01	  0.052264530	4.449800E+01	  0.052264530	-5.586900E+01
163	  0.052464932	-5.838000E+00	  0.052464932	-6.662000E+01	  0.052464932	4.320800E+01	  0.052464932	-5.478600E+01
164	  0.052665330	-5.851000E+00	  0.052665330	-6.817900E+01	  0.052665330	4.200400E+01	  0.052665330	-5.372900E+01
165	  0.052865732	-5.870000E+00	  0.052865732	-6.974000E+01	  0.052865732	4.088500E+01	  0.052865732	-5.264500E+01
166	  0.053066134	-5.885000E+00	  0.053066134	-7.131200E+01	  0.053066134	3.979400E+01	  0.053066134	-5.158700E+01
167	  0.053266536	-5.895000E+00	  0.053266536	-7.286400E+01	  0.053266536	3.874700E+01	  0.053266536	-5.057600E+01
168	  0.053466935	-5.909000E+00	  0.053466935	-7.444700E+01	  0.053466935	3.774600E+01	  0.053466935	-4.953500E+01
169	  0.053667337	-5.913000E+00	  0.053667337	-7.598400E+01	  0.053667337	3.677900E+01	  0.053667337	-4.857800E+01
170	  0.053867739	-5.921000E+00	  0.053867739	-7.751900E+01	  0.053867739	3.587600E+01	  0.053867739	-4.760900E+01
171	  0.054068137	-5.929000E+00	  0.054068137	-7.898300E+01	  0.054068137	3.505600E+01	  0.054068137	-4.669000E+01
172	  0.054268539	-5.936000E+00	  0.054268539	-8.045000E+01	  0.054268539	3.426000E+01	  0.054268539	-4.578700E+01
173	  0.054468941	-5.947000E+00	  0.054468941	-8.191100E+01	  0.054468941	3.352300E+01	  0.054468941	-4.487700E+01
174	  0.054669339	-5.959000E+00	  0.054669339	-8.332700E+01	  0.054669339	3.284000E+01	  0.054669339	-4.400200E+01
175	  0.054869737	-5.973000E+00	  0.054869737	-8.475300E+01	  0.054869737	3.218600E+01	  0.054869737	-4.312800E+01
176	  0.055070139	-5.981000E+00	  0.055070139	-8.621700E+01	  0.055070139	3.152500E+01	  0.055070139	-4.225500E+01
177	  0.055270538	-5.997000E+00	  0.055270538	-8.764700E+01	  0.055270538	3.093300E+01	  0.055270538	-4.138900E+01
178	  0.055470940	-6.011000E+00	  0.055470940	-8.909100E+01	  0.055470940	3.035300E+01	  0.055470940	-4.053300E+01
179	  0.055671342	-6.020000E+00	  0.055671342	-9.055900E+01	  0.055671342	2.976800E+01	  0.055671342	-3.968700E+01
180	  0.055871744	-6.026000E+00	  0.055871744	-9.200100E+01	  0.055871744	2.920500E+01	  0.055871744	-3.887300E+01
181	  0.056072142	-6.032000E+00	  0.056072142	-9.341300E+01	  0.056072142	2.867900E+01	  0.056072142	-3.808300E+01
182	  0.056272544	-6.033000E+00	  0.056272544	-9.485400E+01	  0.056272544	2.814400E+01	  0.056272544	-3.729700E+01
183	  0.056472946	-6.034000E+00	  0.056472946	-9.624000E+01	  0.056472946	2.765000E+01	  0.056472946	-3.654800E+01
184	  0.056673344	-6.036000E+00	  0.056673344	-9.760900E+01	  0.056673344	2.718100E+01	  0.056673344	-3.581400E+01
185	  0.056873746	-6.039000E+00	  0.056873746	-9.894900E+01	  0.056873746	2.674400E+01	  0.056873746	-3.509900E+01
186	  0.057074148	-6.043000E+00	  0.057074148	-1.002530E+02	  0.057074148	2.634000E+01	  0.057074148	-3.440600E+01
187	  0.057274550	-6.050000E+00	  0.057274550	-1.015990E+02	  0.057274550	2.594400E+01	  0.057274550	-3.369300E+01
188	  0.057474948	-6.050000E+00	  0.057474948	-1.029160E+02	  0.057474948	2.555100E+01	  0.057474948	-3.301400E+01
189	  0.057675350	-6.060000E+00	  0.057675350	-1.042790E+02	  0.057675350	2.519000E+01	  0.057675350	-3.230000E+01
190	  0.057875752	-6.068000E+00	  0.057875752	-1.055890E+02	  0.057875752	2.484900E+01	  0.057875752	-3.162500E+01
191	  0.058076151	-6.072000E+00	  0.058076151	-1.069440E+02	  0.058076151	2.449900E+01	  0.058076151	-3.093700E+01
192	  0.058276553	-6.074000E+00	  0.058276553	-1.082850E+02	  0.058276553	2.415500E+01	  0.058276553	-3.027000E+01
193	  0.058476955	-6.076000E+00	  0.058476955	-1.096360E+02	  0.058476955	2.382500E+01	  0.058476955	-2.960000E+01
194	  0.058677353	-6.079000E+00	  0.058677353	-1.109420E+02	  0.058677353	2.351900E+01	  0.058677353	-2.895800E+01
195	  0.058877755	-6.076000E+00	  0.058877755	-1.122650E+02	  0.058877755	2.320000E+01	  0.058877755	-2.832200E+01
196	  0.059078157	-6.076000E+00	  0.059078157	-1.135610E+02	  0.059078157	2.290700E+01	  0.059078157	-2.769900E+01
197	  0.059278559	-6.073000E+00	  0.059278559	-1.148200E+02	  0.059278559	2.262500E+01	  0.059278559	-2.710300E+01
198	  0.059478957	-6.076000E+00	  0.059478957	-1.160650E+02	  0.059478957	2.237100E+01	  0.059478957	-2.651000E+01
199	  0.059679359	-6.079000E+00	  0.059679359	-1.173080E+02	  0.059679359	2.212800E+01	  0.059679359	-2.592100E+01
200	  0.059879761	-6.083000E+00	  0.059879761	-1.185430E+02	  0.059879761	2.189700E+01	  0.059879761	-2.534000E+01
201	  0.060080159	-6.087000E+00	  0.060080159	-1.197910E+02	  0.060080159	2.167000E+01	  0.060080159	-2.475800E+01
202	  0.060280561	-6.093000E+00	  0.060280561	-1.210410E+02	  0.060280561	2.145800E+01	  0.060280561	-2.417600E+01
203	  0.060480963	-6.097000E+00	  0.060480963	-1.222800E+02	  0.060480963	2.125000E+01	  0.060480963	-2.360600E+01
204	  0.060681365	-6.103000E+00	  0.060681365	-1.235440E+02	  0.060681365	2.104900E+01	  0.060681365	-2.302600E+01
205	  0.060881764	-6.109000E+00	  0.060881764	-1.247890E+02	  0.060881764	2.086200E+01	  0.060881764	-2.245900E+01
206	  0.061082166	-6.110000E+00	  0.061082166	-1.260110E+02	  0.061082166	2.066700E+01	  0.061082166	-2.191200E+01
207	  0.061282568	-6.116000E+00	  0.061282568	-1.272450E+02	  0.061282568	2.049300E+01	  0.061282568	-2.135800E+01
208	  0.061482966	-6.116000E+00	  0.061482966	-1.284640E+02	  0.061482966	2.031000E+01	  0.061482966	-2.082000E+01
209	  0.061683368	-6.116000E+00	  0.061683368	-1.296950E+02	  0.061683368	2.013100E+01	  0.061683368	-2.028000E+01
210	  0.061883770	-6.119000E+00	  0.061883770	-1.308940E+02	  0.061883770	1.997200E+01	  0.061883770	-1.975400E+01
211	  0.062084168	-6.121000E+00	  0.062084168	-1.320860E+02	  0.062084168	1.981700E+01	  0.062084168	-1.923600E+01
212	  0.062284570	-6.125000E+00	  0.062284570	-1.332580E+02	  0.062284570	1.967600E+01	  0.062284570	-1.872600E+01
213	  0.062484972	-6.120000E+00	  0.062484972	-1.343870E+02	  0.062484972	1.951900E+01	  0.062484972	-1.824600E+01
214	  0.062685370	-6.123000E+00	  0.062685370	-1.355490E+02	  0.062685370	1.938500E+01	  0.062685370	-1.774800E+01
215	  0.062885776	-6.130000E+00	  0.062885776	-1.366960E+02	  0.062885776	1.926900E+01	  0.062885776	-1.725500E+01
216	  0.063086174	-6.141000E+00	  0.063086174	-1.378790E+02	  0.063086174	1.916400E+01	  0.063086174	-1.674800E+01
217	  0.063286573	-6.141000E+00	  0.063286573	-1.390540E+02	  0.063286573	1.903600E+01	  0.063286573	-1.625400E+01
218	  0.063486971	-6.142000E+00	  0.063486971	-1.402260E+02	  0.063486971	1.891400E+01	  0.063486971	-1.576300E+01
219	  0.063687377	-6.147000E+00	  0.063687377	-1.413800E+02	  0.063687377	1.881000E+01	  0.063687377	-1.527900E+01
220	  0.063887775	-6.147000E+00	  0.063887775	-1.425430E+02	  0.063887775	1.869400E+01	  0.063887775	-1.479800E+01
221	  0.064088173	-6.144000E+00	  0.064088173	-1.436780E+02	  0.064088173	1.857900E+01	  0.064088173	-1.433100E+01
222	  0.064288579	-6.149000E+00	  0.064288579	-1.447930E+02	  0.064288579	1.849200E+01	  0.064288579	-1.386900E+01
223	  0.064488977	-6.152000E+00	  0.064488977	-1.459360E+02	  0.064488977	1.839800E+01	  0.064488977	-1.340000E+01
224	  0.064689375	-6.152000E+00	  0.064689375	-1.470340E+02	  0.064689375	1.830700E+01	  0.064689375	-1.295200E+01
225	  0.064889781	-6.154000E+00	  0.064889781	-1.481170E+02	  0.064889781	1.822400E+01	  0.064889781	-1.251000E+01
226	  0.065090179	-6.157000E+00	  0.065090179	-1.492430E+02	  0.065090179	1.814400E+01	  0.065090179	-1.205300E+01
227	  0.065290578	-6.155000E+00	  0.065290578	-1.503200E+02	  0.065290578	1.805800E+01	  0.065290578	-1.161900E+01
228	  0.065490983	-6.160000E+00	  0.065490983	-1.513940E+02	  0.065490983	1.799300E+01	  0.065490983	-1.118500E+01
229	  0.065691382	-6.164000E+00	  0.065691382	-1.525200E+02	  0.065691382	1.792600E+01	  0.065691382	-1.073200E+01
230	  0.065891780	-6.166000E+00	  0.065891780	-1.535770E+02	  0.065891780	1.786400E+01	  0.065891780	-1.030800E+01
231	  0.066092186	-6.170000E+00	  0.066092186	-1.546320E+02	  0.066092186	1.780700E+01	  0.066092186	-9.886000E+00
232	  0.066292584	-6.173000E+00	  0.066292584	-1.557310E+02	  0.066292584	1.774800E+01	  0.066292584	-9.448000E+00
233	  0.066492982	-6.172000E+00	  0.066492982	-1.568050E+02	  0.066492982	1.768400E+01	  0.066492982	-9.023000E+00
234	  0.066693388	-6.178000E+00	  0.066693388	-1.578550E+02	  0.066693388	1.764400E+01	  0.066693388	-8.605000E+00
235	  0.066893786	-6.183000E+00	  0.066893786	-1.589140E+02	  0.066893786	1.760100E+01	  0.066893786	-8.186000E+00
236	  0.067094192	-6.185000E+00	  0.067094192	-1.599490E+02	  0.067094192	1.755600E+01	  0.067094192	-7.778000E+00
237	  0.067294590	-6.187000E+00	  0.067294590	-1.610250E+02	  0.067294590	1.751200E+01	  0.067294590	-7.355000E+00
238	  0.067494988	-6.190000E+00	  0.067494988	-1.620570E+02	  0.067494988	1.747400E+01	  0.067494988	-6.950000E+00
239	  0.067695394	-6.197000E+00	  0.067695394	-1.630830E+02	  0.067695394	1.744900E+01	  0.067695394	-6.546000E+00
240	  0.067895792	-6.194000E+00	  0.067895792	-1.640910E+02	  0.067895792	1.740400E+01	  0.067895792	-6.154000E+00
241	  0.068096191	-6.203000E+00	  0.068096191	-1.651460E+02	  0.068096191	1.738800E+01	  0.068096191	-5.741000E+00
242	  0.068296596	-6.204000E+00	  0.068296596	-1.661650E+02	  0.068296596	1.735700E+01	  0.068296596	-5.344000E+00
243	  0.068496995	-6.215000E+00	  0.068496995	-1.671930E+02	  0.068496995	1.735200E+01	  0.068496995	-4.942000E+00
244	  0.068697393	-6.219000E+00	  0.068697393	-1.682390E+02	  0.068697393	1.733300E+01	  0.068697393	-4.536000E+00
245	  0.068897791	-6.221000E+00	  0.068897791	-1.692670E+02	  0.068897791	1.731100E+01	  0.068897791	-4.138000E+00
246	  0.069098189	-6.221000E+00	  0.069098189	-1.702820E+02	  0.069098189	1.728800E+01	  0.069098189	-3.745000E+00
247	  0.069298595	-6.226000E+00	  0.069298595	-1.712920E+02	  0.069298595	1.727900E+01	  0.069298595	-3.354000E+00
248	  0.069498993	-6.227000E+00	  0.069498993	-1.723100E+02	  0.069498993	1.726300E+01	  0.069498993	-2.961000E+00
249	  0.069699399	-6.237000E+00	  0.069699399	-1.733030E+02	  0.069699399	1.727100E+01	  0.069699399	-2.577000E+00
250	  0.069899797	-6.244000E+00	  0.069899797	-1.742830E+02	  0.069899797	1.727400E+01	  0.069899797	-2.199000E+00
251	  0.070100196	-6.246000E+00	  0.070100196	-1.752880E+02	  0.070100196	1.726600E+01	  0.070100196	-1.812000E+00
252	  0.070300601	-6.250000E+00	  0.070300601	-1.762600E+02	  0.070300601	1.726700E+01	  0.070300601	-1.437000E+00
253	  0.070501000	-6.254000E+00	  0.070501000	-1.772760E+02	  0.070501000	1.727000E+01	  0.070501000	-1.046000E+00
254	  0.070701398	-6.254000E+00	  0.070701398	-1.782540E+02	  0.070701398	1.726600E+01	  0.070701398	-6.700000E-01
255	  0.070901804	-6.259000E+00	  0.070901804	-1.792280E+02	  0.070901804	1.727600E+01	  0.070901804	-2.960000E-01
256	  0.071102202	-6.263000E+00	  0.071102202	1.797910E+02	  0.071102202	1.728400E+01	  0.071102202	7.900000E-02
257	  0.071302600	-6.266000E+00	  0.071302600	1.788090E+02	  0.071302600	1.729300E+01	  0.071302600	4.570000E-01
258	  0.071503006	-6.267000E+00	  0.071503006	1.778390E+02	  0.071503006	1.729900E+01	  0.071503006	8.290000E-01
259	  0.071703404	-6.274000E+00	  0.071703404	1.768890E+02	  0.071703404	1.732300E+01	  0.071703404	1.194000E+00
260	  0.071903802	-6.276000E+00	  0.071903802	1.759050E+02	  0.071903802	1.733800E+01	  0.071903802	1.572000E+00
261	  0.072104208	-6.286000E+00	  0.072104208	1.749640E+02	  0.072104208	1.737200E+01	  0.072104208	1.933000E+00
262	  0.072304606	-6.292000E+00	  0.072304606	1.740140E+02	  0.072304606	1.739900E+01	  0.072304606	2.298000E+00
263	  0.072505005	-6.300000E+00	  0.072505005	1.730840E+02	  0.072505005	1.743400E+01	  0.072505005	2.654000E+00
264	  0.072705410	-6.298000E+00	  0.072705410	1.721510E+02	  0.072705410	1.744600E+01	  0.072705410	3.013000E+00
265	  0.072905809	-6.310000E+00	  0.072905809	1.712160E+02	  0.072905809	1.749400E+01	  0.072905809	3.372000E+00
266	  0.073106214	-6.316000E+00	  0.073106214	1.702670E+02	  0.073106214	1.753000E+01	  0.073106214	3.736000E+00
267	  0.073306613	-6.326000E+00	  0.073306613	1.693150E+02	  0.073306613	1.757900E+01	  0.073306613	4.101000E+00
268	  0.073507011	-6.332000E+00	  0.073507011	1.683780E+02	  0.073507011	1.761800E+01	  0.073507011	4.462000E+00
269	  0.073707417	-6.335000E+00	  0.073707417	1.674680E+02	  0.073707417	1.765200E+01	  0.073707417	4.812000E+00
270	  0.073907815	-6.342000E+00	  0.073907815	1.665560E+02	  0.073907815	1.769800E+01	  0.073907815	5.163000E+00
271	  0.074108213	-6.350000E+00	  0.074108213	1.656430E+02	  0.074108213	1.774700E+01	  0.074108213	5.514000E+00
272	  0.074308619	-6.360000E+00	  0.074308619	1.647130E+02	  0.074308619	1.780500E+01	  0.074308619	5.871000E+00
273	  0.074509017	-6.369000E+00	  0.074509017	1.637770E+02	  0.074509017	1.786400E+01	  0.074509017	6.232000E+00
274	  0.074709415	-6.381000E+00	  0.074709415	1.629050E+02	  0.074709415	1.792900E+01	  0.074709415	6.567000E+00
275	  0.074909821	-6.392000E+00	  0.074909821	1.619800E+02	  0.074909821	1.799700E+01	  0.074909821	6.922000E+00
276	  0.075110219	-6.398000E+00	  0.075110219	1.610980E+02	  0.075110219	1.805100E+01	  0.075110219	7.263000E+00
277	  0.075310618	-6.410000E+00	  0.075310618	1.602190E+02	  0.075310618	1.812400E+01	  0.075310618	7.601000E+00
278	  0.075511023	-6.419000E+00	  0.075511023	1.592840E+02	  0.075511023	1.819300E+01	  0.075511023	7.963000E+00
279	  0.075711422	-6.433000E+00	  0.075711422	1.583980E+02	  0.075711422	1.827400E+01	  0.075711422	8.303000E+00
280	  0.075911827	-6.440000E+00	  0.075911827	1.575030E+02	  0.075911827	1.834100E+01	  0.075911827	8.650000E+00
281	  0.076112226	-6.452000E+00	  0.076112226	1.566200E+02	  0.076112226	1.842400E+01	  0.076112226	8.990000E+00
282	  0.076312624	-6.463000E+00	  0.076312624	1.557370E+02	  0.076312624	1.850200E+01	  0.076312624	9.332000E+00
283	  0.076513030	-6.473000E+00	  0.076513030	1.548490E+02	  0.076513030	1.858300E+01	  0.076513030	9.676000E+00
284	  0.076713428	-6.484000E+00	  0.076713428	1.539690E+02	  0.076713428	1.866900E+01	  0.076713428	1.001700E+01
285	  0.076913826	-6.493000E+00	  0.076913826	1.530950E+02	  0.076913826	1.875100E+01	  0.076913826	1.035600E+01
286	  0.077114232	-6.506000E+00	  0.077114232	1.522200E+02	  0.077114232	1.884500E+01	  0.077114232	1.069600E+01
287	  0.077314630	-6.518000E+00	  0.077314630	1.513650E+02	  0.077314630	1.893600E+01	  0.077314630	1.102800E+01
288	  0.077515028	-6.529000E+00	  0.077515028	1.505140E+02	  0.077515028	1.902800E+01	  0.077515028	1.135900E+01
289	  0.077715434	-6.544000E+00	  0.077715434	1.496680E+02	  0.077715434	1.913400E+01	  0.077715434	1.168600E+01
290	  0.077915832	-6.562000E+00	  0.077915832	1.488270E+02	  0.077915832	1.924600E+01	  0.077915832	1.201000E+01
291	  0.078116231	-6.578000E+00	  0.078116231	1.479330E+02	  0.078116231	1.936100E+01	  0.078116231	1.235600E+01
292	  0.078316636	-6.587000E+00	  0.078316636	1.470650E+02	  0.078316636	1.945900E+01	  0.078316636	1.269700E+01
293	  0.078517035	-6.604000E+00	  0.078517035	1.462000E+02	  0.078517035	1.958100E+01	  0.078517035	1.303100E+01
294	  0.078717433	-6.617000E+00	  0.078717433	1.453490E+02	  0.078717433	1.969000E+01	  0.078717433	1.336400E+01
295	  0.078917839	-6.626000E+00	  0.078917839	1.445070E+02	  0.078917839	1.979200E+01	  0.078917839	1.369600E+01
296	  0.079118237	-6.639000E+00	  0.079118237	1.436710E+02	  0.079118237	1.990800E+01	  0.079118237	1.402300E+01
297	  0.079318643	-6.651000E+00	  0.079318643	1.428480E+02	  0.079318643	2.002100E+01	  0.079318643	1.434500E+01
298	  0.079519041	-6.667000E+00	  0.079519041	1.419750E+02	  0.079519041	2.015200E+01	  0.079519041	1.468600E+01
299	  0.079719439	-6.681000E+00	  0.079719439	1.411960E+02	  0.079719439	2.027100E+01	  0.079719439	1.499100E+01
300	  0.079919845	-6.698000E+00	  0.079919845	1.403630E+02	  0.079919845	2.040600E+01	  0.079919845	1.531500E+01
301	  0.080120243	-6.714000E+00	  0.080120243	1.395510E+02	  0.080120243	2.053800E+01	  0.080120243	1.563300E+01
302	  0.080320641	-6.734000E+00	  0.080320641	1.387250E+02	  0.080320641	2.068600E+01	  0.080320641	1.595300E+01
303	  0.080521047	-6.752000E+00	  0.080521047	1.379020E+02	  0.080521047	2.083100E+01	  0.080521047	1.627300E+01
304	  0.080721445	-6.772000E+00	  0.080721445	1.370940E+02	  0.080721445	2.098200E+01	  0.080721445	1.658600E+01
305	  0.080921844	-6.786000E+00	  0.080921844	1.363000E+02	  0.080921844	2.111700E+01	  0.080921844	1.689900E+01
306	  0.081122249	-6.804000E+00	  0.081122249	1.354700E+02	  0.081122249	2.126900E+01	  0.081122249	1.722400E+01
307	  0.081322648	-6.821000E+00	  0.081322648	1.346530E+02	  0.081322648	2.142200E+01	  0.081322648	1.754300E+01
308	  0.081523046	-6.835000E+00	  0.081523046	1.338670E+02	  0.081523046	2.156400E+01	  0.081523046	1.785400E+01
309	  0.081723452	-6.849000E+00	  0.081723452	1.330550E+02	  0.081723452	2.171300E+01	  0.081723452	1.817500E+01
310	  0.081923850	-6.871000E+00	  0.081923850	1.322760E+02	  0.081923850	2.188000E+01	  0.081923850	1.847600E+01
311	  0.082124248	-6.886000E+00	  0.082124248	1.315290E+02	  0.082124248	2.202800E+01	  0.082124248	1.877000E+01
312	  0.082324654	-6.903000E+00	  0.082324654	1.307440E+02	  0.082324654	2.218800E+01	  0.082324654	1.907900E+01
313	  0.082525052	-6.923000E+00	  0.082525052	1.299670E+02	  0.082525052	2.236000E+01	  0.082525052	1.938000E+01
314	  0.082725458	-6.934000E+00	  0.082725458	1.291990E+02	  0.082725458	2.250900E+01	  0.082725458	1.968800E+01
315	  0.082925856	-6.963000E+00	  0.082925856	1.284780E+02	  0.082925856	2.269900E+01	  0.082925856	1.995800E+01
316	  0.083126254	-6.984000E+00	  0.083126254	1.277360E+02	  0.083126254	2.287700E+01	  0.083126254	2.024500E+01
317	  0.083326660	-7.009000E+00	  0.083326660	1.269850E+02	  0.083326660	2.306900E+01	  0.083326660	2.053000E+01
318	  0.083527058	-7.030000E+00	  0.083527058	1.261880E+02	  0.083527058	2.326000E+01	  0.083527058	2.084000E+01
319	  0.083727457	-7.049000E+00	  0.083727457	1.254100E+02	  0.083727457	2.344400E+01	  0.083727457	2.114400E+01
320	  0.083927862	-7.070000E+00	  0.083927862	1.246320E+02	  0.083927862	2.363800E+01	  0.083927862	2.144600E+01
321	  0.084128261	-7.088000E+00	  0.084128261	1.238770E+02	  0.084128261	2.382400E+01	  0.084128261	2.174100E+01
322	  0.084328659	-7.109000E+00	  0.084328659	1.231400E+02	  0.084328659	2.401700E+01	  0.084328659	2.202500E+01
323	  0.084529065	-7.131000E+00	  0.084529065	1.224590E+02	  0.084529065	2.420500E+01	  0.084529065	2.228400E+01
324	  0.084729463	-7.149000E+00	  0.084729463	1.216790E+02	  0.084729463	2.440200E+01	  0.084729463	2.259100E+01
325	  0.084929861	-7.169000E+00	  0.084929861	1.209500E+02	  0.084929861	2.459900E+01	  0.084929861	2.287300E+01
326	  0.085130267	-7.193000E+00	  0.085130267	1.202420E+02	  0.085130267	2.480900E+01	  0.085130267	2.313900E+01
327	  0.085330658	-7.213000E+00	  0.085330658	1.195350E+02	  0.085330658	2.500600E+01	  0.085330658	2.341200E+01
328	  0.085531056	-7.245000E+00	  0.085531056	1.188200E+02	  0.085531056	2.524400E+01	  0.085531056	2.367000E+01
329	  0.085731462	-7.271000E+00	  0.085731462	1.180950E+02	  0.085731462	2.546900E+01	  0.085731462	2.394100E+01
330	  0.085931860	-7.292000E+00	  0.085931860	1.173760E+02	  0.085931860	2.568200E+01	  0.085931860	2.421500E+01
331	  0.086132258	-7.314000E+00	  0.086132258	1.166860E+02	  0.086132258	2.589500E+01	  0.086132258	2.447600E+01
332	  0.086332664	-7.339000E+00	  0.086332664	1.159510E+02	  0.086332664	2.612700E+01	  0.086332664	2.475200E+01
333	  0.086533062	-7.364000E+00	  0.086533062	1.152190E+02	  0.086533062	2.636600E+01	  0.086533062	2.502400E+01
334	  0.086733460	-7.385000E+00	  0.086733460	1.145140E+02	  0.086733460	2.658900E+01	  0.086733460	2.529100E+01
335	  0.086933866	-7.411000E+00	  0.086933866	1.138360E+02	  0.086933866	2.682300E+01	  0.086933866	2.553800E+01
336	  0.087134264	-7.432000E+00	  0.087134264	1.131390E+02	  0.087134264	2.705000E+01	  0.087134264	2.580000E+01
337	  0.087334670	-7.451000E+00	  0.087334670	1.124610E+02	  0.087334670	2.726900E+01	  0.087334670	2.605800E+01
338	  0.087535068	-7.475000E+00	  0.087535068	1.118370E+02	  0.087535068	2.749200E+01	  0.087535068	2.628400E+01
339	  0.087735467	-7.498000E+00	  0.087735467	1.111680E+02	  0.087735467	2.772800E+01	  0.087735467	2.652900E+01
340	  0.087935872	-7.526000E+00	  0.087935872	1.105480E+02	  0.087935872	2.796600E+01	  0.087935872	2.674500E+01
341	  0.088136271	-7.554000E+00	  0.088136271	1.098840E+02	  0.088136271	2.821800E+01	  0.088136271	2.697900E+01
342	  0.088336669	-7.578000E+00	  0.088336669	1.092940E+02	  0.088336669	2.844500E+01	  0.088336669	2.718600E+01
343	  0.088537075	-7.608000E+00	  0.088537075	1.086410E+02	  0.088537075	2.870600E+01	  0.088537075	2.740900E+01
344	  0.088737473	-7.633000E+00	  0.088737473	1.079820E+02	  0.088737473	2.896000E+01	  0.088737473	2.764200E+01
345	  0.088937871	-7.659000E+00	  0.088937871	1.073610E+02	  0.088937871	2.920700E+01	  0.088937871	2.785600E+01
346	  0.089138277	-7.682000E+00	  0.089138277	1.067260E+02	  0.089138277	2.945200E+01	  0.089138277	2.808200E+01
347	  0.089338675	-7.707000E+00	  0.089338675	1.060860E+02	  0.089338675	2.970700E+01	  0.089338675	2.830500E+01
348	  0.089539073	-7.732000E+00	  0.089539073	1.054650E+02	  0.089539073	2.996100E+01	  0.089539073	2.851700E+01
349	  0.089739479	-7.753000E+00	  0.089739479	1.048500E+02	  0.089739479	3.020400E+01	  0.089739479	2.873500E+01
350	  0.089939877	-7.784000E+00	  0.089939877	1.042400E+02	  0.089939877	3.047700E+01	  0.089939877	2.893000E+01
351	  0.090140276	-7.802000E+00	  0.090140276	1.036650E+02	  0.090140276	3.070500E+01	  0.090140276	2.913300E+01
352	  0.090340681	-7.824000E+00	  0.090340681	1.030430E+02	  0.090340681	3.096100E+01	  0.090340681	2.935000E+01
353	  0.090541080	-7.853000E+00	  0.090541080	1.024620E+02	  0.090541080	3.122800E+01	  0.090541080	2.953100E+01
354	  0.090741485	-7.879000E+00	  0.090741485	1.019280E+02	  0.090741485	3.147100E+01	  0.090741485	2.970000E+01
355	  0.090941884	-7.906000E+00	  0.090941884	1.013240E+02	  0.090941884	3.174300E+01	  0.090941884	2.989400E+01
356	  0.091142282	-7.931000E+00	  0.091142282	1.007840E+02	  0.091142282	3.199300E+01	  0.091142282	3.006200E+01
357	  0.091342688	-7.962000E+00	  0.091342688	1.001680E+02	  0.091342688	3.228700E+01	  0.091342688	3.024800E+01
358	  0.091543086	-7.983000E+00	  0.091543086	9.957000E+01	  0.091543086	3.255000E+01	  0.091543086	3.044700E+01
359	  0.091743484	-8.014000E+00	  0.091743484	9.897000E+01	  0.091743484	3.284200E+01	  0.091743484	3.062500E+01
360	  0.091943890	-8.037000E+00	  0.091943890	9.840200E+01	  0.091943890	3.310600E+01	  0.091943890	3.080400E+01
361	  0.092144288	-8.068000E+00	  0.092144288	9.782800E+01	  0.092144288	3.339600E+01	  0.092144288	3.096700E+01
362	  0.092344686	-8.090000E+00	  0.092344686	9.729000E+01	  0.092344686	3.364900E+01	  0.092344686	3.113400E+01
363	  0.092545092	-8.114000E+00	  0.092545092	9.675600E+01	  0.092545092	3.391100E+01	  0.092545092	3.129300E+01
364	  0.092745490	-8.132000E+00	  0.092745490	9.618100E+01	  0.092745490	3.417400E+01	  0.092745490	3.148200E+01
365	  0.092945889	-8.155000E+00	  0.092945889	9.568900E+01	  0.092945889	3.442200E+01	  0.092945889	3.162300E+01
366	  0.093146294	-8.187000E+00	  0.093146294	9.513600E+01	  0.093146294	3.471700E+01	  0.093146294	3.176600E+01
367	  0.093346693	-8.211000E+00	  0.093346693	9.461700E+01	  0.093346693	3.498300E+01	  0.093346693	3.191200E+01
368	  0.093547091	-8.244000E+00	  0.093547091	9.409300E+01	  0.093547091	3.527500E+01	  0.093547091	3.203600E+01
369	  0.093747497	-8.270000E+00	  0.093747497	9.359400E+01	  0.093747497	3.554100E+01	  0.093747497	3.216700E+01
370	  0.093947895	-8.297000E+00	  0.093947895	9.304100E+01	  0.093947895	3.583400E+01	  0.093947895	3.231300E+01
371	  0.094148301	-8.315000E+00	  0.094148301	9.249800E+01	  0.094148301	3.610200E+01	  0.094148301	3.247900E+01
372	  0.094348699	-8.345000E+00	  0.094348699	9.200000E+01	  0.094348699	3.638300E+01	  0.094348699	3.259300E+01
373	  0.094549097	-8.371000E+00	  0.094549097	9.148200E+01	  0.094549097	3.666500E+01	  0.094549097	3.272500E+01
374	  0.094749503	-8.395000E+00	  0.094749503	9.099500E+01	  0.094749503	3.693200E+01	  0.094749503	3.284700E+01
375	  0.094949901	-8.410000E+00	  0.094949901	9.046500E+01	  0.094949901	3.719800E+01	  0.094949901	3.300700E+01
376	  0.095150299	-8.431000E+00	  0.095150299	8.995300E+01	  0.095150299	3.747000E+01	  0.095150299	3.314500E+01
377	  0.095350705	-8.448000E+00	  0.095350705	8.946300E+01	  0.095350705	3.772700E+01	  0.095350705	3.328300E+01
378	  0.095551103	-8.472000E+00	  0.095551103	8.898500E+01	  0.095551103	3.799900E+01	  0.095551103	3.339400E+01
379	  0.095751502	-8.485000E+00	  0.095751502	8.850400E+01	  0.095751502	3.824500E+01	  0.095751502	3.353800E+01
380	  0.095951907	-8.503000E+00	  0.095951907	8.806100E+01	  0.095951907	3.849000E+01	  0.095951907	3.365100E+01
381	  0.096152306	-8.524000E+00	  0.096152306	8.758800E+01	  0.096152306	3.875400E+01	  0.096152306	3.376800E+01
382	  0.096352704	-8.540000E+00	  0.096352704	8.715200E+01	  0.096352704	3.899400E+01	  0.096352704	3.388100E+01
383	  0.096553110	-8.563000E+00	  0.096553110	8.665600E+01	  0.096553110	3.927900E+01	  0.096553110	3.399500E+01
384	  0.096753508	-8.578000E+00	  0.096753508	8.617600E+01	  0.096753508	3.954100E+01	  0.096753508	3.412500E+01
385	  0.096953906	-8.593000E+00	  0.096953906	8.568500E+01	  0.096953906	3.981100E+01	  0.096953906	3.425500E+01
386	  0.097154312	-8.609000E+00	  0.097154312	8.527400E+01	  0.097154312	4.004700E+01	  0.097154312	3.435400E+01
387	  0.097354710	-8.621000E+00	  0.097354710	8.483000E+01	  0.097354710	4.029000E+01	  0.097354710	3.447600E+01
388	  0.097555116	-8.629000E+00	  0.097555116	8.438100E+01	  0.097555116	4.052600E+01	  0.097555116	3.461400E+01
389	  0.097755514	-8.633000E+00	  0.097755514	8.391000E+01	  0.097755514	4.076800E+01	  0.097755514	3.476700E+01
390	  0.097955912	-8.647000E+00	  0.097955912	8.349600E+01	  0.097955912	4.100600E+01	  0.097955912	3.487000E+01
391	  0.098156318	-8.657000E+00	  0.098156318	8.304800E+01	  0.098156318	4.125600E+01	  0.098156318	3.499400E+01
392	  0.098356716	-8.667000E+00	  0.098356716	8.265200E+01	  0.098356716	4.147700E+01	  0.098356716	3.510300E+01
393	  0.098557115	-8.679000E+00	  0.098557115	8.220800E+01	  0.098557115	4.173200E+01	  0.098557115	3.521800E+01
394	  0.098757520	-8.684000E+00	  0.098757520	8.181300E+01	  0.098757520	4.194700E+01	  0.098757520	3.533700E+01
395	  0.098957919	-8.700000E+00	  0.098957919	8.134500E+01	  0.098957919	4.222600E+01	  0.098957919	3.544600E+01
396	  0.099158317	-8.707000E+00	  0.099158317	8.094400E+01	  0.099158317	4.245400E+01	  0.099158317	3.555600E+01
397	  0.099358723	-8.714000E+00	  0.099358723	8.051700E+01	  0.099358723	4.269500E+01	  0.099358723	3.567900E+01
398	  0.099559121	-8.721000E+00	  0.099559121	8.009000E+01	  0.099559121	4.293800E+01	  0.099559121	3.580000E+01
399	  0.099759519	-8.730000E+00	  0.099759519	7.964600E+01	  0.099759519	4.319800E+01	  0.099759519	3.591700E+01
400	  0.099959925	-8.718000E+00	  0.099959925	7.917600E+01	  0.099959925	4.342700E+01	  0.099959925	3.611900E+01
401	  0.100160323	-8.734000E+00	  0.100160323	7.883400E+01	  0.100160323	4.365000E+01	  0.100160323	3.617400E+01
402	  0.100360721	-8.734000E+00	  0.100360721	7.836800E+01	  0.100360721	4.390800E+01	  0.100360721	3.632900E+01
403	  0.100561127	-8.730000E+00	  0.100561127	7.790200E+01	  0.100561127	4.416200E+01	  0.100561127	3.649500E+01
404	  0.100761525	-8.731000E+00	  0.100761525	7.752500E+01	  0.100761525	4.437700E+01	  0.100761525	3.661500E+01
405	  0.100961931	-8.744000E+00	  0.100961931	7.710200E+01	  0.100961931	4.464500E+01	  0.100961931	3.670600E+01
406	  0.101162329	-8.739000E+00	  0.101162329	7.669900E+01	  0.101162329	4.486500E+01	  0.101162329	3.685500E+01
407	  0.101362728	-8.736000E+00	  0.101362728	7.634500E+01	  0.101362728	4.506400E+01	  0.101362728	3.697900E+01
408	  0.101563133	-8.746000E+00	  0.101563133	7.588800E+01	  0.101563133	4.535400E+01	  0.101563133	3.708500E+01
409	  0.101763532	-8.736000E+00	  0.101763532	7.540300E+01	  0.101763532	4.561800E+01	  0.101763532	3.728000E+01
410	  0.101963930	-8.730000E+00	  0.101963930	7.497400E+01	  0.101963930	4.586100E+01	  0.101963930	3.743900E+01
411	  0.102164336	-8.727000E+00	  0.102164336	7.461900E+01	  0.102164336	4.607000E+01	  0.102164336	3.756000E+01
412	  0.102364734	-8.731000E+00	  0.102364734	7.419800E+01	  0.102364734	4.633300E+01	  0.102364734	3.767500E+01
413	  0.102565132	-8.713000E+00	  0.102565132	7.371000E+01	  0.102565132	4.659600E+01	  0.102565132	3.789800E+01
414	  0.102765530	-8.721000E+00	  0.102765530	7.324600E+01	  0.102765530	4.689900E+01	  0.102765530	3.800800E+01
415	  0.102965929	-8.701000E+00	  0.102965929	7.275900E+01	  0.102965929	4.716400E+01	  0.102965929	3.823800E+01
416	  0.103166327	-8.692000E+00	  0.103166327	7.240800E+01	  0.103166327	4.736700E+01	  0.103166327	3.838300E+01
417	  0.103366733	-8.681000E+00	  0.103366733	7.190900E+01	  0.103366733	4.766400E+01	  0.103366733	3.857800E+01
418	  0.103567131	-8.671000E+00	  0.103567131	7.144400E+01	  0.103567131	4.794500E+01	  0.103567131	3.875800E+01
419	  0.103767529	-8.663000E+00	  0.103767529	7.096700E+01	  0.103767529	4.823900E+01	  0.103767529	3.893700E+01
420	  0.103967935	-8.641000E+00	  0.103967935	7.048700E+01	  0.103967935	4.851300E+01	  0.103967935	3.917300E+01
421	  0.104168333	-8.633000E+00	  0.104168333	6.990900E+01	  0.104168333	4.888400E+01	  0.104168333	3.937600E+01
422	  0.104368731	-8.623000E+00	  0.104368731	6.946600E+01	  0.104368731	4.916500E+01	  0.104368731	3.954700E+01
423	  0.104569137	-8.607000E+00	  0.104569137	6.890100E+01	  0.104569137	4.952100E+01	  0.104569137	3.978000E+01
424	  0.104769535	-8.603000E+00	  0.104769535	6.842800E+01	  0.104769535	4.983900E+01	  0.104769535	3.993500E+01
425	  0.104969934	-8.573000E+00	  0.104969934	6.784000E+01	  0.104969934	5.019500E+01	  0.104969934	4.024000E+01
426	  0.105170339	-8.565000E+00	  0.105170339	6.727400E+01	  0.105170339	5.058200E+01	  0.105170339	4.043400E+01
427	  0.105370738	-8.548000E+00	  0.105370738	6.675900E+01	  0.105370738	5.092100E+01	  0.105370738	4.065500E+01
428	  0.105571143	-8.543000E+00	  0.105571143	6.611700E+01	  0.105571143	5.138000E+01	  0.105571143	4.085200E+01
429	  0.105771542	-8.524000E+00	  0.105771542	6.556900E+01	  0.105771542	5.175200E+01	  0.105771542	4.108700E+01
430	  0.105971940	-8.523000E+00	  0.105971940	6.497800E+01	  0.105971940	5.219100E+01	  0.105971940	4.124700E+01
431	  0.106172346	-8.504000E+00	  0.106172346	6.442200E+01	  0.106172346	5.257900E+01	  0.106172346	4.148600E+01
432	  0.106372744	-8.496000E+00	  0.106372744	6.386600E+01	  0.106372744	5.299200E+01	  0.106372744	4.166300E+01
433	  0.106573142	-8.487000E+00	  0.106573142	6.326200E+01	  0.106573142	5.344600E+01	  0.106573142	4.186000E+01
434	  0.106773548	-8.473000E+00	  0.106773548	6.272100E+01	  0.106773548	5.384900E+01	  0.106773548	4.206100E+01
435	  0.106973946	-8.468000E+00	  0.106973946	6.220500E+01	  0.106973946	5.425000E+01	  0.106973946	4.221300E+01
436	  0.107174344	-8.461000E+00	  0.107174344	6.158900E+01	  0.107174344	5.473600E+01	  0.107174344	4.238900E+01
437	  0.107374750	-8.449000E+00	  0.107374750	6.104100E+01	  0.107374750	5.516500E+01	  0.107374750	4.257800E+01
438	  0.107575148	-8.436000E+00	  0.107575148	6.049800E+01	  0.107575148	5.559300E+01	  0.107575148	4.277000E+01
439	  0.107775547	-8.434000E+00	  0.107775547	5.984900E+01	  0.107775547	5.613400E+01	  0.107775547	4.291300E+01
440	  0.107975952	-8.428000E+00	  0.107975952	5.925500E+01	  0.107975952	5.662800E+01	  0.107975952	4.307100E+01
441	  0.108176351	-8.416000E+00	  0.108176351	5.868100E+01	  0.108176351	5.710500E+01	  0.108176351	4.324900E+01
442	  0.108376749	-8.412000E+00	  0.108376749	5.803100E+01	  0.108376749	5.766400E+01	  0.108376749	4.339600E+01
443	  0.108577155	-8.404000E+00	  0.108577155	5.749500E+01	  0.108577155	5.812500E+01	  0.108577155	4.354000E+01
444	  0.108777553	-8.389000E+00	  0.108777553	5.685300E+01	  0.108777553	5.867900E+01	  0.108777553	4.374100E+01
445	  0.108977959	-8.382000E+00	  0.108977959	5.617400E+01	  0.108977959	5.928400E+01	  0.108977959	4.389200E+01
446	  0.109178357	-8.373000E+00	  0.109178357	5.552100E+01	  0.109178357	5.987200E+01	  0.109178357	4.404900E+01
447	  0.109378755	-8.363000E+00	  0.109378755	5.489500E+01	  0.109378755	6.044200E+01	  0.109378755	4.419700E+01
448	  0.109579161	-8.358000E+00	  0.109579161	5.423900E+01	  0.109579161	6.105300E+01	  0.109579161	4.432200E+01
449	  0.109779559	-8.352000E+00	  0.109779559	5.356600E+01	  0.109779559	6.168800E+01	  0.109779559	4.444000E+01
450	  0.109979957	-8.345000E+00	  0.109979957	5.290600E+01	  0.109979957	6.231800E+01	  0.109979957	4.455900E+01
451	  0.110180363	-8.329000E+00	  0.110180363	5.223200E+01	  0.110180363	6.296700E+01	  0.110180363	4.472900E+01
452	  0.110380761	-8.323000E+00	  0.110380761	5.147300E+01	  0.110380761	6.371500E+01	  0.110380761	4.482900E+01
453	  0.110581160	-8.317000E+00	  0.110581160	5.077000E+01	  0.110581160	6.441700E+01	  0.110581160	4.492300E+01
454	  0.110781565	-8.301000E+00	  0.110781565	5.000600E+01	  0.110781565	6.518800E+01	  0.110781565	4.507300E+01
455	  0.110981964	-8.294000E+00	  0.110981964	4.930800E+01	  0.110981964	6.590700E+01	  0.110981964	4.514800E+01
456	  0.111182362	-8.293000E+00	  0.111182362	4.856800E+01	  0.111182362	6.668100E+01	  0.111182362	4.517300E+01
457	  0.111382768	-8.279000E+00	  0.111382768	4.785900E+01	  0.111382768	6.743000E+01	  0.111382768	4.528100E+01
458	  0.111583166	-8.280000E+00	  0.111583166	4.707800E+01	  0.111583166	6.826800E+01	  0.111583166	4.526600E+01
459	  0.111783572	-8.279000E+00	  0.111783572	4.632300E+01	  0.111783572	6.908700E+01	  0.111783572	4.525200E+01
460	  0.111983970	-8.269000E+00	  0.111983970	4.556900E+01	  0.111983970	6.991900E+01	  0.111983970	4.528300E+01
461	  0.112184368	-8.268000E+00	  0.112184368	4.478900E+01	  0.112184368	7.078600E+01	  0.112184368	4.523700E+01
462	  0.112384774	-8.277000E+00	  0.112384774	4.407600E+01	  0.112384774	7.158100E+01	  0.112384774	4.510500E+01
463	  0.112585172	-8.267000E+00	  0.112585172	4.328600E+01	  0.112585172	7.248400E+01	  0.112585172	4.508900E+01
464	  0.112785570	-8.280000E+00	  0.112785570	4.249400E+01	  0.112785570	7.337900E+01	  0.112785570	4.488200E+01
465	  0.112985976	-8.283000E+00	  0.112985976	4.173300E+01	  0.112985976	7.425400E+01	  0.112985976	4.473100E+01
466	  0.113186374	-8.289000E+00	  0.113186374	4.088100E+01	  0.113186374	7.523800E+01	  0.113186374	4.452300E+01
467	  0.113386773	-8.303000E+00	  0.113386773	4.006300E+01	  0.113386773	7.617900E+01	  0.113386773	4.423900E+01
468	  0.113587178	-8.314000E+00	  0.113587178	3.920000E+01	  0.113587178	7.717900E+01	  0.113587178	4.393800E+01
469	  0.113787577	-8.320000E+00	  0.113787577	3.836200E+01	  0.113787577	7.816100E+01	  0.113787577	4.364800E+01
470	  0.113987975	-8.339000E+00	  0.113987975	3.750700E+01	  0.113987975	7.914400E+01	  0.113987975	4.323500E+01
471	  0.114188381	-8.352000E+00	  0.114188381	3.661300E+01	  0.114188381	8.018200E+01	  0.114188381	4.281900E+01
472	  0.114388779	-8.375000E+00	  0.114388779	3.569800E+01	  0.114388779	8.122100E+01	  0.114388779	4.228200E+01
473	  0.114589177	-8.390000E+00	  0.114589177	3.481300E+01	  0.114589177	8.224000E+01	  0.114589177	4.179400E+01
474	  0.114789583	-8.399000E+00	  0.114789583	3.391000E+01	  0.114789583	8.329900E+01	  0.114789583	4.131300E+01
475	  0.114989981	-8.429000E+00	  0.114989981	3.288100E+01	  0.114989981	8.443300E+01	  0.114989981	4.056100E+01
476	  0.115190387	-8.444000E+00	  0.115190387	3.201600E+01	  0.115190387	8.541400E+01	  0.115190387	3.997700E+01
477	  0.115390785	-8.459000E+00	  0.115390785	3.105100E+01	  0.115390785	8.650300E+01	  0.115390785	3.930100E+01
478	  0.115591183	-8.485000E+00	  0.115591183	3.009000E+01	  0.115591183	8.752900E+01	  0.115591183	3.849600E+01
479	  0.115791589	-8.509000E+00	  0.115791589	2.909300E+01	  0.115791589	8.859100E+01	  0.115791589	3.764700E+01
480	  0.115991987	-8.527000E+00	  0.115991987	2.814200E+01	  0.115991987	8.961000E+01	  0.115991987	3.684000E+01
481	  0.116192386	-8.556000E+00	  0.116192386	2.716800E+01	  0.116192386	9.058300E+01	  0.116192386	3.589500E+01
482	  0.116392791	-8.586000E+00	  0.116392791	2.618800E+01	  0.116392791	9.152900E+01	  0.116392791	3.489500E+01
483	  0.116593190	-8.614000E+00	  0.116593190	2.515700E+01	  0.116593190	9.251400E+01	  0.116593190	3.383100E+01
484	  0.116793588	-8.648000E+00	  0.116793588	2.416400E+01	  0.116793588	9.338900E+01	  0.116793588	3.271600E+01
485	  0.116993994	-8.680000E+00	  0.116993994	2.313600E+01	  0.116993994	9.427500E+01	  0.116993994	3.154700E+01
486	  0.117194392	-8.715000E+00	  0.117194392	2.207500E+01	  0.117194392	9.513300E+01	  0.117194392	3.028500E+01
487	  0.117394790	-8.753000E+00	  0.117394790	2.107600E+01	  0.117394790	9.587600E+01	  0.117394790	2.904200E+01
488	  0.117595196	-8.800000E+00	  0.117595196	2.004900E+01	  0.117595196	9.653000E+01	  0.117595196	2.767800E+01
489	  0.117795594	-8.844000E+00	  0.117795594	1.896900E+01	  0.117795594	9.720300E+01	  0.117795594	2.625300E+01
490	  0.117995992	-8.889000E+00	  0.117995992	1.790300E+01	  0.117995992	9.780200E+01	  0.117995992	2.481400E+01
491	  0.118196398	-8.945000E+00	  0.118196398	1.678400E+01	  0.118196398	9.829800E+01	  0.118196398	2.323100E+01
492	  0.118396796	-9.006000E+00	  0.118396796	1.573400E+01	  0.118396796	9.864000E+01	  0.118396796	2.169600E+01
493	  0.118597202	-9.060000E+00	  0.118597202	1.464100E+01	  0.118597202	9.900600E+01	  0.118597202	2.013700E+01
494	  0.118797600	-9.130000E+00	  0.118797600	1.354300E+01	  0.118797600	9.917900E+01	  0.118797600	1.849700E+01
495	  0.118997999	-9.201000E+00	  0.118997999	1.232100E+01	  0.118997999	9.934600E+01	  0.118997999	1.670600E+01
496	  0.119198404	-9.267000E+00	  0.119198404	1.115500E+01	  0.119198404	9.944400E+01	  0.119198404	1.501500E+01
497	  0.119398803	-9.335000E+00	  0.119398803	9.979000E+00	  0.119398803	9.946300E+01	  0.119398803	1.332000E+01
498	  0.119599201	-9.420000E+00	  0.119599201	8.759000E+00	  0.119599201	9.927900E+01	  0.119599201	1.154000E+01
499	  0.119799607	-9.502000E+00	  0.119799607	7.508000E+00	  0.119799607	9.905900E+01	  0.119799607	9.764000E+00
500	  0.120000005	-9.595000E+00	  0.120000005	6.253000E+00	  0.120000005	9.867500E+01	  0.120000005	7.999000E+00
