! Anritsu VNA Master:             	Model: MS2036C/10/77
! SN:             	1601066
! /card0/usr/18may27.balun/5b.m4.txt
! Existing Calibration Information:
! TYPE:             	Current Settings	Active Cal Settings
! TIME:             	05/27/2018 04:10:38 PM	05/27/2018 03:52:12 PM
! INTERNAL TEMP:    	51.5 C	52.5 C
! # POINTS:         	500	500
! START FREQ:       	20.000 MHz	20.000 MHz
! STOP FREQ:        	120.000 MHz	120.000 MHz
! SOURCE POWER:     	High	High
! IFBW:             	50 Hz	50 Hz
! AVG FACTOR:       	  1 	  1 
! REF PLANE 1:      	0 mm	0 mm
! REF PLANE 2:      	0 mm	0 mm
! CAL TYPE:         	Full S11	Full S11
! CAL METHOD:       	SOLT	SOLT
! CAL LINE TYPE:    	Coax	Coax
! DUT PORT 1:       	K-Conn(M)	K-Conn(M)
! DUT PORT 2:       	K-Conn(M)	K-Conn(M)
! CAL STATUS:       	OK: Accuracy High	--
! PROP-V:       	0.700
! CABLE LOSS:       	0.000 dB/m
! REF IMPEDANCE:       	50.0
! Trace Specific Parameters:	TR1	TR2	TR3	TR4
! TRACE.#.Y (GRAPH TYPE)	LOG MAG	PHASE	REAL IMPEDANCE	IMAGINARY IMPEDANCE
! TRACE.#.X 	FREQ.GHZ	FREQ.GHZ	FREQ.GHZ	FREQ.GHZ
! S-PARAMETER	S11	S11	S11	S11
! SMOOTH/APERTURE %	0	0	0	0
! WINDOW	NSL	NSL	NSL	NSL
! GATING	OFF	OFF	OFF	OFF
! FGTD	OFF	OFF	OFF	OFF
Marker Information per Trace:	TR1	TR2	TR3	TR4
!MK1	--	--	--	"MK1 TR4:  70.100 200 MHz,Z:(17.303 ohm, -2.233 ohm)"
!MK2	--	--	--	--
!MK3	--	--	--	--
!MK4	--	--	--	--
!MK5	--	--	--	--
!MK6	--	--	--	--
!MK7	--	--	--	--
!MK8	--	--	--	--
PNT	TR1.FREQ.GHZ	TR1.LOG MAG.dB	TR2.FREQ.GHZ	TR2.PHASE.deg	TR3.FREQ.GHZ	TR3.REAL IMPEDANCE.ohm	TR4.FREQ.GHZ	TR4.IMAGINARY IMPEDANCE.ohm
1	  0.020000000	-7.170000E-01	  0.020000000	-1.252390E+02	  0.020000000	2.616000E+00	  0.020000000	-2.583900E+01
2	  0.020200402	-7.180000E-01	  0.020200402	-1.266990E+02	  0.020200402	2.587000E+00	  0.020200402	-2.503900E+01
3	  0.020400802	-7.200000E-01	  0.020400802	-1.281480E+02	  0.020400802	2.559000E+00	  0.020400802	-2.425400E+01
4	  0.020601204	-7.240000E-01	  0.020601204	-1.295850E+02	  0.020601204	2.543000E+00	  0.020601204	-2.348600E+01
5	  0.020801604	-7.320000E-01	  0.020801604	-1.310520E+02	  0.020801604	2.541000E+00	  0.020801604	-2.271000E+01
6	  0.021002004	-7.380000E-01	  0.021002004	-1.325660E+02	  0.021002004	2.532000E+00	  0.021002004	-2.191800E+01
7	  0.021202406	-7.460000E-01	  0.021202406	-1.340880E+02	  0.021202406	2.531000E+00	  0.021202406	-2.113200E+01
8	  0.021402806	-7.540000E-01	  0.021402806	-1.356190E+02	  0.021402806	2.532000E+00	  0.021402806	-2.034900E+01
9	  0.021603208	-7.600000E-01	  0.021603208	-1.371390E+02	  0.021603208	2.524000E+00	  0.021603208	-1.958200E+01
10	  0.021803608	-7.650000E-01	  0.021803608	-1.386690E+02	  0.021803608	2.515000E+00	  0.021803608	-1.881600E+01
11	  0.022004008	-7.730000E-01	  0.022004008	-1.402360E+02	  0.022004008	2.515000E+00	  0.022004008	-1.804100E+01
12	  0.022204408	-7.770000E-01	  0.022204408	-1.418140E+02	  0.022204408	2.504000E+00	  0.022204408	-1.726800E+01
13	  0.022404809	-7.800000E-01	  0.022404809	-1.434120E+02	  0.022404809	2.489000E+00	  0.022404809	-1.649200E+01
14	  0.022605211	-7.850000E-01	  0.022605211	-1.449700E+02	  0.022605211	2.482000E+00	  0.022605211	-1.574300E+01
15	  0.022805611	-7.880000E-01	  0.022805611	-1.465310E+02	  0.022805611	2.472000E+00	  0.022805611	-1.499900E+01
16	  0.023006011	-7.910000E-01	  0.023006011	-1.481020E+02	  0.023006011	2.460000E+00	  0.023006011	-1.425600E+01
17	  0.023206413	-7.970000E-01	  0.023206413	-1.496870E+02	  0.023206413	2.461000E+00	  0.023206413	-1.351300E+01
18	  0.023406813	-8.060000E-01	  0.023406813	-1.512850E+02	  0.023406813	2.472000E+00	  0.023406813	-1.276800E+01
19	  0.023607215	-8.130000E-01	  0.023607215	-1.528890E+02	  0.023607215	2.474000E+00	  0.023607215	-1.202700E+01
20	  0.023807615	-8.240000E-01	  0.023807615	-1.544950E+02	  0.023807615	2.491000E+00	  0.023807615	-1.128900E+01
21	  0.024008015	-8.310000E-01	  0.024008015	-1.561060E+02	  0.024008015	2.498000E+00	  0.024008015	-1.055400E+01
22	  0.024208417	-8.430000E-01	  0.024208417	-1.577180E+02	  0.024208417	2.519000E+00	  0.024208417	-9.822000E+00
23	  0.024408817	-8.550000E-01	  0.024408817	-1.593510E+02	  0.024408817	2.543000E+00	  0.024408817	-9.085000E+00
24	  0.024609219	-8.680000E-01	  0.024609219	-1.609980E+02	  0.024609219	2.568000E+00	  0.024609219	-8.346000E+00
25	  0.024809619	-8.780000E-01	  0.024809619	-1.626840E+02	  0.024809619	2.584000E+00	  0.024809619	-7.593000E+00
26	  0.025010020	-8.860000E-01	  0.025010020	-1.643630E+02	  0.025010020	2.596000E+00	  0.025010020	-6.847000E+00
27	  0.025210422	-8.950000E-01	  0.025210422	-1.660320E+02	  0.025210422	2.614000E+00	  0.025210422	-6.108000E+00
28	  0.025410822	-9.100000E-01	  0.025410822	-1.677200E+02	  0.025410822	2.647000E+00	  0.025410822	-5.363000E+00
29	  0.025611224	-9.220000E-01	  0.025611224	-1.694100E+02	  0.025611224	2.675000E+00	  0.025611224	-4.620000E+00
30	  0.025811624	-9.350000E-01	  0.025811624	-1.711170E+02	  0.025811624	2.706000E+00	  0.025811624	-3.872000E+00
31	  0.026012026	-9.490000E-01	  0.026012026	-1.728470E+02	  0.026012026	2.741000E+00	  0.026012026	-3.115000E+00
32	  0.026212426	-9.660000E-01	  0.026212426	-1.745810E+02	  0.026212426	2.784000E+00	  0.026212426	-2.358000E+00
33	  0.026412826	-9.840000E-01	  0.026412826	-1.763220E+02	  0.026412826	2.832000E+00	  0.026412826	-1.599000E+00
34	  0.026613226	-1.003000E+00	  0.026613226	-1.780710E+02	  0.026613226	2.886000E+00	  0.026613226	-8.380000E-01
35	  0.026813626	-1.021000E+00	  0.026813626	-1.798290E+02	  0.026813626	2.937000E+00	  0.026813626	-7.300000E-02
36	  0.027014028	-1.038000E+00	  0.027014028	1.784300E+02	  0.027014028	2.986000E+00	  0.027014028	6.820000E-01
37	  0.027214428	-1.053000E+00	  0.027214428	1.766700E+02	  0.027214428	3.030000E+00	  0.027214428	1.447000E+00
38	  0.027414829	-1.071000E+00	  0.027414829	1.749270E+02	  0.027414829	3.086000E+00	  0.027414829	2.206000E+00
39	  0.027615231	-1.089000E+00	  0.027615231	1.731600E+02	  0.027615231	3.141000E+00	  0.027615231	2.975000E+00
40	  0.027815631	-1.112000E+00	  0.027815631	1.713900E+02	  0.027815631	3.215000E+00	  0.027815631	3.748000E+00
41	  0.028016033	-1.132000E+00	  0.028016033	1.695900E+02	  0.028016033	3.281000E+00	  0.028016033	4.535000E+00
42	  0.028216433	-1.153000E+00	  0.028216433	1.677870E+02	  0.028216433	3.352000E+00	  0.028216433	5.325000E+00
43	  0.028416833	-1.177000E+00	  0.028416833	1.659830E+02	  0.028416833	3.433000E+00	  0.028416833	6.117000E+00
44	  0.028617235	-1.201000E+00	  0.028617235	1.641860E+02	  0.028617235	3.518000E+00	  0.028617235	6.910000E+00
45	  0.028817635	-1.228000E+00	  0.028817635	1.623660E+02	  0.028817635	3.615000E+00	  0.028817635	7.715000E+00
46	  0.029018037	-1.256000E+00	  0.029018037	1.605130E+02	  0.029018037	3.716000E+00	  0.029018037	8.539000E+00
47	  0.029218437	-1.282000E+00	  0.029218437	1.586400E+02	  0.029218437	3.814000E+00	  0.029218437	9.376000E+00
48	  0.029418837	-1.306000E+00	  0.029418837	1.567770E+02	  0.029418837	3.910000E+00	  0.029418837	1.021300E+01
49	  0.029619239	-1.331000E+00	  0.029619239	1.549220E+02	  0.029619239	4.012000E+00	  0.029619239	1.105100E+01
50	  0.029819639	-1.358000E+00	  0.029819639	1.530640E+02	  0.029819639	4.124000E+00	  0.029819639	1.189700E+01
51	  0.030020041	-1.387000E+00	  0.030020041	1.512090E+02	  0.030020041	4.245000E+00	  0.030020041	1.274600E+01
52	  0.030220442	-1.420000E+00	  0.030220442	1.493310E+02	  0.030220442	4.383000E+00	  0.030220442	1.361200E+01
53	  0.030420844	-1.458000E+00	  0.030420844	1.474250E+02	  0.030420844	4.543000E+00	  0.030420844	1.449700E+01
54	  0.030621244	-1.499000E+00	  0.030621244	1.454600E+02	  0.030621244	4.718000E+00	  0.030621244	1.541800E+01
55	  0.030821644	-1.537000E+00	  0.030821644	1.434650E+02	  0.030821644	4.889000E+00	  0.030821644	1.636100E+01
56	  0.031022044	-1.571000E+00	  0.031022044	1.414620E+02	  0.031022044	5.055000E+00	  0.031022044	1.731900E+01
57	  0.031222444	-1.596000E+00	  0.031222444	1.394510E+02	  0.031222444	5.202000E+00	  0.031222444	1.829400E+01
58	  0.031422846	-1.625000E+00	  0.031422846	1.374370E+02	  0.031422846	5.365000E+00	  0.031422846	1.928000E+01
59	  0.031623244	-1.649000E+00	  0.031623244	1.354420E+02	  0.031623244	5.519000E+00	  0.031623244	2.027000E+01
60	  0.031823646	-1.674000E+00	  0.031823646	1.334590E+02	  0.031823646	5.684000E+00	  0.031823646	2.126700E+01
61	  0.032024048	-1.698000E+00	  0.032024048	1.315230E+02	  0.032024048	5.850000E+00	  0.032024048	2.225400E+01
62	  0.032224450	-1.724000E+00	  0.032224450	1.295820E+02	  0.032224450	6.030000E+00	  0.032224450	2.325600E+01
63	  0.032424849	-1.754000E+00	  0.032424849	1.276690E+02	  0.032424849	6.233000E+00	  0.032424849	2.425600E+01
64	  0.032625251	-1.789000E+00	  0.032625251	1.257410E+02	  0.032625251	6.463000E+00	  0.032625251	2.527800E+01
65	  0.032825653	-1.830000E+00	  0.032825653	1.238080E+02	  0.032825653	6.725000E+00	  0.032825653	2.631500E+01
66	  0.033026051	-1.874000E+00	  0.033026051	1.218670E+02	  0.033026051	7.008000E+00	  0.033026051	2.737200E+01
67	  0.033226453	-1.920000E+00	  0.033226453	1.199320E+02	  0.033226453	7.315000E+00	  0.033226453	2.844000E+01
68	  0.033426855	-1.967000E+00	  0.033426855	1.179330E+02	  0.033426855	7.643000E+00	  0.033426855	2.956400E+01
69	  0.033627257	-2.012000E+00	  0.033627257	1.159350E+02	  0.033627257	7.983000E+00	  0.033627257	3.070600E+01
70	  0.033827655	-2.059000E+00	  0.033827655	1.138960E+02	  0.033827655	8.348000E+00	  0.033827655	3.189300E+01
71	  0.034028057	-2.108000E+00	  0.034028057	1.118600E+02	  0.034028057	8.742000E+00	  0.034028057	3.310000E+01
72	  0.034228459	-2.155000E+00	  0.034228459	1.097630E+02	  0.034228459	9.156000E+00	  0.034228459	3.436900E+01
73	  0.034428857	-2.203000E+00	  0.034428857	1.077220E+02	  0.034428857	9.589000E+00	  0.034428857	3.562900E+01
74	  0.034629259	-2.246000E+00	  0.034629259	1.056470E+02	  0.034629259	1.003300E+01	  0.034629259	3.694000E+01
75	  0.034829661	-2.286000E+00	  0.034829661	1.036010E+02	  0.034829661	1.048400E+01	  0.034829661	3.826500E+01
76	  0.035030060	-2.330000E+00	  0.035030060	1.015780E+02	  0.035030060	1.097400E+01	  0.035030060	3.960000E+01
77	  0.035230462	-2.379000E+00	  0.035230462	9.957200E+01	  0.035230462	1.151700E+01	  0.035230462	4.094800E+01
78	  0.035430863	-2.434000E+00	  0.035430863	9.756300E+01	  0.035430863	1.212100E+01	  0.035430863	4.232100E+01
79	  0.035631265	-2.494000E+00	  0.035631265	9.550500E+01	  0.035631265	1.279800E+01	  0.035631265	4.375400E+01
80	  0.035831664	-2.558000E+00	  0.035831664	9.340900E+01	  0.035831664	1.354600E+01	  0.035831664	4.524300E+01
81	  0.036032066	-2.618000E+00	  0.036032066	9.128300E+01	  0.036032066	1.432500E+01	  0.036032066	4.679600E+01
82	  0.036232468	-2.677000E+00	  0.036232468	8.908500E+01	  0.036232468	1.517300E+01	  0.036232468	4.844600E+01
83	  0.036432866	-2.733000E+00	  0.036432866	8.692800E+01	  0.036432866	1.605200E+01	  0.036432866	5.011100E+01
84	  0.036633268	-2.779000E+00	  0.036633268	8.472100E+01	  0.036633268	1.696000E+01	  0.036633268	5.188100E+01
85	  0.036833670	-2.821000E+00	  0.036833670	8.258400E+01	  0.036833670	1.788700E+01	  0.036833670	5.364900E+01
86	  0.037034072	-2.863000E+00	  0.037034072	8.046700E+01	  0.037034072	1.887400E+01	  0.037034072	5.545200E+01
87	  0.037234470	-2.900000E+00	  0.037234470	7.838300E+01	  0.037234470	1.989700E+01	  0.037234470	5.728700E+01
88	  0.037434869	-2.935000E+00	  0.037434869	7.634100E+01	  0.037434869	2.096100E+01	  0.037434869	5.914100E+01
89	  0.037635271	-2.966000E+00	  0.037635271	7.430400E+01	  0.037635271	2.208400E+01	  0.037635271	6.105600E+01
90	  0.037835669	-3.001000E+00	  0.037835669	7.221000E+01	  0.037835669	2.334700E+01	  0.037835669	6.307800E+01
91	  0.038036071	-3.047000E+00	  0.038036071	7.009200E+01	  0.038036071	2.481200E+01	  0.038036071	6.514100E+01
92	  0.038236473	-3.112000E+00	  0.038236473	6.798700E+01	  0.038236473	2.651900E+01	  0.038236473	6.717400E+01
93	  0.038436871	-3.187000E+00	  0.038436871	6.593600E+01	  0.038436871	2.841000E+01	  0.038436871	6.913900E+01
94	  0.038637273	-3.258000E+00	  0.038637273	6.391300E+01	  0.038637273	3.040900E+01	  0.038637273	7.111200E+01
95	  0.038837675	-3.333000E+00	  0.038837675	6.183400E+01	  0.038837675	3.263600E+01	  0.038837675	7.315500E+01
96	  0.039038073	-3.401000E+00	  0.039038073	5.974100E+01	  0.039038073	3.500800E+01	  0.039038073	7.526900E+01
97	  0.039238475	-3.465000E+00	  0.039238475	5.763200E+01	  0.039238475	3.756000E+01	  0.039238475	7.744700E+01
98	  0.039438877	-3.518000E+00	  0.039438877	5.552500E+01	  0.039438877	4.024900E+01	  0.039438877	7.970300E+01
99	  0.039639279	-3.573000E+00	  0.039639279	5.344300E+01	  0.039639279	4.315800E+01	  0.039639279	8.192700E+01
100	  0.039839678	-3.620000E+00	  0.039839678	5.136400E+01	  0.039839678	4.624800E+01	  0.039839678	8.421700E+01
101	  0.040040080	-3.674000E+00	  0.040040080	4.934100E+01	  0.040040080	4.960200E+01	  0.040040080	8.634500E+01
102	  0.040240481	-3.727000E+00	  0.040240481	4.730400E+01	  0.040240481	5.325100E+01	  0.040240481	8.846600E+01
103	  0.040440880	-3.791000E+00	  0.040440880	4.524700E+01	  0.040440880	5.735500E+01	  0.040440880	9.040500E+01
104	  0.040641282	-3.854000E+00	  0.040641282	4.314300E+01	  0.040641282	6.188300E+01	  0.040641282	9.229200E+01
105	  0.040841684	-3.915000E+00	  0.040841684	4.104900E+01	  0.040841684	6.675600E+01	  0.040841684	9.402900E+01
106	  0.041042086	-3.975000E+00	  0.041042086	3.892100E+01	  0.041042086	7.210900E+01	  0.041042086	9.559400E+01
107	  0.041242484	-4.031000E+00	  0.041242484	3.680300E+01	  0.041242484	7.783700E+01	  0.041242484	9.695200E+01
108	  0.041442886	-4.083000E+00	  0.041442886	3.468100E+01	  0.041442886	8.401100E+01	  0.041442886	9.801700E+01
109	  0.041643288	-4.134000E+00	  0.041643288	3.255700E+01	  0.041643288	9.064500E+01	  0.041643288	9.870900E+01
110	  0.041843686	-4.181000E+00	  0.041843686	3.045700E+01	  0.041843686	9.765000E+01	  0.041843686	9.895400E+01
111	  0.042044088	-4.224000E+00	  0.042044088	2.838500E+01	  0.042044088	1.049930E+02	  0.042044088	9.869400E+01
112	  0.042244490	-4.264000E+00	  0.042244490	2.634600E+01	  0.042244490	1.126190E+02	  0.042244490	9.782200E+01
113	  0.042444889	-4.304000E+00	  0.042444889	2.433500E+01	  0.042444889	1.204830E+02	  0.042444889	9.620300E+01
114	  0.042645290	-4.344000E+00	  0.042645290	2.234600E+01	  0.042645290	1.285130E+02	  0.042645290	9.372100E+01
115	  0.042845692	-4.389000E+00	  0.042845692	2.038900E+01	  0.042845692	1.365040E+02	  0.042845692	9.022100E+01
116	  0.043046094	-4.428000E+00	  0.043046094	1.841800E+01	  0.043046094	1.445970E+02	  0.043046094	8.583900E+01
117	  0.043246493	-4.472000E+00	  0.043246493	1.648700E+01	  0.043246493	1.522730E+02	  0.043246493	8.032500E+01
118	  0.043446895	-4.517000E+00	  0.043446895	1.455600E+01	  0.043446895	1.595510E+02	  0.043446895	7.372800E+01
119	  0.043647297	-4.567000E+00	  0.043647297	1.263600E+01	  0.043647297	1.660810E+02	  0.043647297	6.600000E+01
120	  0.043847695	-4.614000E+00	  0.043847695	1.072200E+01	  0.043847695	1.718760E+02	  0.043847695	5.745600E+01
121	  0.044048097	-4.663000E+00	  0.044048097	8.809000E+00	  0.044048097	1.765790E+02	  0.044048097	4.802100E+01
122	  0.044248499	-4.707000E+00	  0.044248499	6.879000E+00	  0.044248499	1.803740E+02	  0.044248499	3.797400E+01
123	  0.044448901	-4.749000E+00	  0.044448901	4.934000E+00	  0.044448901	1.829890E+02	  0.044448901	2.740000E+01
124	  0.044649299	-4.792000E+00	  0.044649299	3.042000E+00	  0.044649299	1.841340E+02	  0.044649299	1.684300E+01
125	  0.044849701	-4.838000E+00	  0.044849701	1.135000E+00	  0.044849701	1.839240E+02	  0.044849701	6.218000E+00
126	  0.045050103	-4.884000E+00	  0.045050103	-7.810000E-01	  0.045050103	1.823900E+02	  0.045050103	-4.200000E+00
127	  0.045250501	-4.932000E+00	  0.045250501	-2.692000E+00	  0.045250501	1.796200E+02	  0.045250501	-1.408900E+01
128	  0.045450903	-4.974000E+00	  0.045450903	-4.609000E+00	  0.045450903	1.759920E+02	  0.045450903	-2.340000E+01
129	  0.045651305	-5.012000E+00	  0.045651305	-6.544000E+00	  0.045651305	1.715380E+02	  0.045651305	-3.207000E+01
130	  0.045851704	-5.045000E+00	  0.045851704	-8.458000E+00	  0.045851704	1.665240E+02	  0.045851704	-3.988800E+01
131	  0.046052106	-5.084000E+00	  0.046052106	-1.038900E+01	  0.046052106	1.607240E+02	  0.046052106	-4.679100E+01
132	  0.046252504	-5.115000E+00	  0.046252504	-1.228500E+01	  0.046252504	1.548190E+02	  0.046252504	-5.283200E+01
133	  0.046452906	-5.147000E+00	  0.046452906	-1.416800E+01	  0.046452906	1.486410E+02	  0.046452906	-5.793800E+01
134	  0.046653304	-5.179000E+00	  0.046653304	-1.603600E+01	  0.046653304	1.423860E+02	  0.046653304	-6.221400E+01
135	  0.046853706	-5.208000E+00	  0.046853706	-1.789000E+01	  0.046853706	1.361820E+02	  0.046853706	-6.575400E+01
136	  0.047054108	-5.241000E+00	  0.047054108	-1.973300E+01	  0.047054108	1.300210E+02	  0.047054108	-6.851000E+01
137	  0.047254506	-5.270000E+00	  0.047254506	-2.157600E+01	  0.047254506	1.240390E+02	  0.047254506	-7.075700E+01
138	  0.047454908	-5.296000E+00	  0.047454908	-2.339000E+01	  0.047454908	1.183260E+02	  0.047454908	-7.245500E+01
139	  0.047655310	-5.321000E+00	  0.047655310	-2.518700E+01	  0.047655310	1.128730E+02	  0.047655310	-7.371500E+01
140	  0.047855709	-5.348000E+00	  0.047855709	-2.697300E+01	  0.047855709	1.076430E+02	  0.047855709	-7.448900E+01
141	  0.048056111	-5.373000E+00	  0.048056111	-2.874900E+01	  0.048056111	1.026850E+02	  0.048056111	-7.495400E+01
142	  0.048256513	-5.402000E+00	  0.048256513	-3.048200E+01	  0.048256513	9.806600E+01	  0.048256513	-7.504300E+01
143	  0.048456915	-5.428000E+00	  0.048456915	-3.227700E+01	  0.048456915	9.353500E+01	  0.048456915	-7.495300E+01
144	  0.048657313	-5.451000E+00	  0.048657313	-3.399300E+01	  0.048657313	8.942700E+01	  0.048657313	-7.466600E+01
145	  0.048857715	-5.477000E+00	  0.048857715	-3.574200E+01	  0.048857715	8.546700E+01	  0.048857715	-7.415600E+01
146	  0.049058117	-5.498000E+00	  0.049058117	-3.744400E+01	  0.049058117	8.182000E+01	  0.049058117	-7.357200E+01
147	  0.049258515	-5.526000E+00	  0.049258515	-3.911000E+01	  0.049258515	7.845700E+01	  0.049258515	-7.277500E+01
148	  0.049458917	-5.553000E+00	  0.049458917	-4.078100E+01	  0.049458917	7.527000E+01	  0.049458917	-7.189100E+01
149	  0.049659319	-5.580000E+00	  0.049659319	-4.246600E+01	  0.049659319	7.223900E+01	  0.049659319	-7.093200E+01
150	  0.049859721	-5.613000E+00	  0.049859721	-4.416300E+01	  0.049859721	6.938000E+01	  0.049859721	-6.983000E+01
151	  0.050060119	-5.640000E+00	  0.050060119	-4.586700E+01	  0.050060119	6.666100E+01	  0.050060119	-6.874100E+01
152	  0.050260521	-5.672000E+00	  0.050260521	-4.757900E+01	  0.050260521	6.410500E+01	  0.050260521	-6.755300E+01
153	  0.050460923	-5.697000E+00	  0.050460923	-4.930200E+01	  0.050460923	6.166000E+01	  0.050460923	-6.639700E+01
154	  0.050661322	-5.717000E+00	  0.050661322	-5.101300E+01	  0.050661322	5.935400E+01	  0.050661322	-6.526700E+01
155	  0.050861724	-5.736000E+00	  0.050861724	-5.274400E+01	  0.050861724	5.714600E+01	  0.050861724	-6.411100E+01
156	  0.051062126	-5.744000E+00	  0.051062126	-5.446100E+01	  0.051062126	5.504200E+01	  0.051062126	-6.302500E+01
157	  0.051262524	-5.758000E+00	  0.051262524	-5.613600E+01	  0.051262524	5.312400E+01	  0.051262524	-6.189700E+01
158	  0.051462926	-5.770000E+00	  0.051462926	-5.778500E+01	  0.051462926	5.132900E+01	  0.051462926	-6.079200E+01
159	  0.051663328	-5.780000E+00	  0.051663328	-5.940200E+01	  0.051663328	4.965300E+01	  0.051663328	-5.971200E+01
160	  0.051863730	-5.793000E+00	  0.051863730	-6.098500E+01	  0.051863730	4.810800E+01	  0.051863730	-5.862800E+01
161	  0.052064128	-5.806000E+00	  0.052064128	-6.258300E+01	  0.052064128	4.662900E+01	  0.052064128	-5.753200E+01
162	  0.052264530	-5.824000E+00	  0.052264530	-6.414900E+01	  0.052264530	4.527100E+01	  0.052264530	-5.643300E+01
163	  0.052464932	-5.832000E+00	  0.052464932	-6.571100E+01	  0.052464932	4.394700E+01	  0.052464932	-5.539200E+01
164	  0.052665330	-5.843000E+00	  0.052665330	-6.727700E+01	  0.052665330	4.269400E+01	  0.052665330	-5.433900E+01
165	  0.052865732	-5.859000E+00	  0.052865732	-6.879500E+01	  0.052865732	4.155700E+01	  0.052865732	-5.329800E+01
166	  0.053066134	-5.874000E+00	  0.053066134	-7.035900E+01	  0.053066134	4.043900E+01	  0.053066134	-5.223900E+01
167	  0.053266536	-5.883000E+00	  0.053266536	-7.185800E+01	  0.053266536	3.939700E+01	  0.053266536	-5.125600E+01
168	  0.053466935	-5.897000E+00	  0.053466935	-7.340000E+01	  0.053466935	3.838900E+01	  0.053466935	-5.023800E+01
169	  0.053667337	-5.903000E+00	  0.053667337	-7.493000E+01	  0.053667337	3.740600E+01	  0.053667337	-4.926600E+01
170	  0.053867739	-5.912000E+00	  0.053867739	-7.643700E+01	  0.053867739	3.649800E+01	  0.053867739	-4.830100E+01
171	  0.054068137	-5.925000E+00	  0.054068137	-7.789000E+01	  0.054068137	3.567200E+01	  0.054068137	-4.736800E+01
172	  0.054268539	-5.933000E+00	  0.054268539	-7.932400E+01	  0.054268539	3.487500E+01	  0.054268539	-4.647200E+01
173	  0.054468941	-5.949000E+00	  0.054468941	-8.077600E+01	  0.054468941	3.413400E+01	  0.054468941	-4.554600E+01
174	  0.054669339	-5.963000E+00	  0.054669339	-8.221000E+01	  0.054669339	3.342800E+01	  0.054669339	-4.464600E+01
175	  0.054869737	-5.978000E+00	  0.054869737	-8.363900E+01	  0.054869737	3.275600E+01	  0.054869737	-4.375800E+01
176	  0.055070139	-5.993000E+00	  0.055070139	-8.510500E+01	  0.055070139	3.209500E+01	  0.055070139	-4.285900E+01
177	  0.055270538	-6.011000E+00	  0.055270538	-8.655800E+01	  0.055270538	3.147900E+01	  0.055270538	-4.196900E+01
178	  0.055470940	-6.024000E+00	  0.055470940	-8.802000E+01	  0.055470940	3.086800E+01	  0.055470940	-4.109900E+01
179	  0.055671342	-6.035000E+00	  0.055671342	-8.953300E+01	  0.055671342	3.025200E+01	  0.055671342	-4.021800E+01
180	  0.055871744	-6.041000E+00	  0.055871744	-9.099200E+01	  0.055871744	2.966600E+01	  0.055871744	-3.939000E+01
181	  0.056072142	-6.049000E+00	  0.056072142	-9.242900E+01	  0.056072142	2.912200E+01	  0.056072142	-3.857700E+01
182	  0.056272544	-6.049000E+00	  0.056272544	-9.388000E+01	  0.056272544	2.856100E+01	  0.056272544	-3.778800E+01
183	  0.056472946	-6.045000E+00	  0.056472946	-9.530400E+01	  0.056472946	2.802100E+01	  0.056472946	-3.702700E+01
184	  0.056673344	-6.044000E+00	  0.056673344	-9.669200E+01	  0.056673344	2.752500E+01	  0.056673344	-3.628400E+01
185	  0.056873746	-6.044000E+00	  0.056873746	-9.804300E+01	  0.056873746	2.706200E+01	  0.056873746	-3.556600E+01
186	  0.057074148	-6.049000E+00	  0.057074148	-9.935500E+01	  0.057074148	2.664600E+01	  0.057074148	-3.486500E+01
187	  0.057274550	-6.048000E+00	  0.057274550	-1.006740E+02	  0.057274550	2.622400E+01	  0.057274550	-3.417600E+01
188	  0.057474948	-6.048000E+00	  0.057474948	-1.020050E+02	  0.057474948	2.581300E+01	  0.057474948	-3.348800E+01
189	  0.057675350	-6.052000E+00	  0.057675350	-1.033220E+02	  0.057675350	2.543700E+01	  0.057675350	-3.280400E+01
190	  0.057875752	-6.057000E+00	  0.057875752	-1.046430E+02	  0.057875752	2.507600E+01	  0.057875752	-3.212200E+01
191	  0.058076151	-6.058000E+00	  0.058076151	-1.059510E+02	  0.058076151	2.471900E+01	  0.058076151	-3.145900E+01
192	  0.058276553	-6.059000E+00	  0.058276553	-1.072650E+02	  0.058276553	2.437200E+01	  0.058276553	-3.080000E+01
193	  0.058476955	-6.061000E+00	  0.058476955	-1.085930E+02	  0.058476955	2.403700E+01	  0.058476955	-3.013800E+01
194	  0.058677353	-6.066000E+00	  0.058677353	-1.098690E+02	  0.058677353	2.373400E+01	  0.058677353	-2.950300E+01
195	  0.058877755	-6.063000E+00	  0.058877755	-1.111580E+02	  0.058877755	2.341500E+01	  0.058877755	-2.887800E+01
196	  0.059078157	-6.065000E+00	  0.059078157	-1.124210E+02	  0.059078157	2.312700E+01	  0.059078157	-2.826400E+01
197	  0.059278559	-6.064000E+00	  0.059278559	-1.136900E+02	  0.059278559	2.284200E+01	  0.059278559	-2.765400E+01
198	  0.059478957	-6.066000E+00	  0.059478957	-1.149090E+02	  0.059478957	2.258200E+01	  0.059478957	-2.707100E+01
199	  0.059679359	-6.075000E+00	  0.059679359	-1.161260E+02	  0.059679359	2.235500E+01	  0.059679359	-2.648200E+01
200	  0.059879761	-6.081000E+00	  0.059879761	-1.173710E+02	  0.059879761	2.212200E+01	  0.059879761	-2.588900E+01
201	  0.060080159	-6.084000E+00	  0.060080159	-1.186250E+02	  0.060080159	2.188400E+01	  0.060080159	-2.530100E+01
202	  0.060280561	-6.090000E+00	  0.060280561	-1.198790E+02	  0.060280561	2.166300E+01	  0.060280561	-2.471300E+01
203	  0.060480963	-6.097000E+00	  0.060480963	-1.211480E+02	  0.060480963	2.145100E+01	  0.060480963	-2.412200E+01
204	  0.060681365	-6.103000E+00	  0.060681365	-1.223990E+02	  0.060681365	2.124800E+01	  0.060681365	-2.354400E+01
205	  0.060881764	-6.110000E+00	  0.060881764	-1.236330E+02	  0.060881764	2.105700E+01	  0.060881764	-2.297700E+01
206	  0.061082166	-6.111000E+00	  0.061082166	-1.248880E+02	  0.061082166	2.085000E+01	  0.061082166	-2.241300E+01
207	  0.061282568	-6.115000E+00	  0.061282568	-1.261270E+02	  0.061282568	2.066500E+01	  0.061282568	-2.185400E+01
208	  0.061482966	-6.112000E+00	  0.061482966	-1.273520E+02	  0.061482966	2.046500E+01	  0.061482966	-2.131400E+01
209	  0.061683368	-6.112000E+00	  0.061683368	-1.285870E+02	  0.061683368	2.028200E+01	  0.061683368	-2.076900E+01
210	  0.061883770	-6.112000E+00	  0.061883770	-1.297710E+02	  0.061883770	2.011000E+01	  0.061883770	-2.025000E+01
211	  0.062084168	-6.113000E+00	  0.062084168	-1.309520E+02	  0.062084168	1.994700E+01	  0.062084168	-1.973400E+01
212	  0.062284570	-6.113000E+00	  0.062284570	-1.320990E+02	  0.062284570	1.979100E+01	  0.062284570	-1.923700E+01
213	  0.062484972	-6.105000E+00	  0.062484972	-1.331890E+02	  0.062484972	1.962600E+01	  0.062484972	-1.877300E+01
214	  0.062685370	-6.108000E+00	  0.062685370	-1.343340E+02	  0.062685370	1.949100E+01	  0.062685370	-1.827900E+01
215	  0.062885776	-6.112000E+00	  0.062885776	-1.354780E+02	  0.062885776	1.936300E+01	  0.062885776	-1.778700E+01
216	  0.063086174	-6.119000E+00	  0.063086174	-1.366090E+02	  0.063086174	1.924700E+01	  0.063086174	-1.730100E+01
217	  0.063286573	-6.123000E+00	  0.063286573	-1.377660E+02	  0.063286573	1.912700E+01	  0.063286573	-1.680800E+01
218	  0.063486971	-6.120000E+00	  0.063486971	-1.389010E+02	  0.063486971	1.899300E+01	  0.063486971	-1.633300E+01
219	  0.063687377	-6.128000E+00	  0.063687377	-1.400200E+02	  0.063687377	1.889700E+01	  0.063687377	-1.585900E+01
220	  0.063887775	-6.130000E+00	  0.063887775	-1.411430E+02	  0.063887775	1.878500E+01	  0.063887775	-1.538900E+01
221	  0.064088173	-6.133000E+00	  0.064088173	-1.422470E+02	  0.064088173	1.868700E+01	  0.064088173	-1.492800E+01
222	  0.064288579	-6.139000E+00	  0.064288579	-1.433550E+02	  0.064288579	1.859600E+01	  0.064288579	-1.446700E+01
223	  0.064488977	-6.145000E+00	  0.064488977	-1.444670E+02	  0.064488977	1.850800E+01	  0.064488977	-1.400600E+01
224	  0.064689375	-6.152000E+00	  0.064689375	-1.455540E+02	  0.064689375	1.843300E+01	  0.064689375	-1.355500E+01
225	  0.064889781	-6.155000E+00	  0.064889781	-1.466200E+02	  0.064889781	1.834800E+01	  0.064889781	-1.311900E+01
226	  0.065090179	-6.162000E+00	  0.065090179	-1.477510E+02	  0.065090179	1.827400E+01	  0.065090179	-1.265500E+01
227	  0.065290578	-6.166000E+00	  0.065290578	-1.488350E+02	  0.065290578	1.819800E+01	  0.065290578	-1.221400E+01
228	  0.065490983	-6.175000E+00	  0.065490983	-1.499040E+02	  0.065490983	1.814200E+01	  0.065490983	-1.177700E+01
229	  0.065691382	-6.182000E+00	  0.065691382	-1.510640E+02	  0.065691382	1.807500E+01	  0.065691382	-1.130700E+01
230	  0.065891780	-6.190000E+00	  0.065891780	-1.521230E+02	  0.065891780	1.802200E+01	  0.065891780	-1.087900E+01
231	  0.066092186	-6.195000E+00	  0.066092186	-1.532370E+02	  0.066092186	1.796000E+01	  0.066092186	-1.043200E+01
232	  0.066292584	-6.200000E+00	  0.066292584	-1.543410E+02	  0.066292584	1.790400E+01	  0.066292584	-9.989000E+00
233	  0.066492982	-6.202000E+00	  0.066492982	-1.554520E+02	  0.066492982	1.784100E+01	  0.066492982	-9.547000E+00
234	  0.066693388	-6.211000E+00	  0.066693388	-1.565080E+02	  0.066693388	1.780400E+01	  0.066693388	-9.126000E+00
235	  0.066893786	-6.211000E+00	  0.066893786	-1.576170E+02	  0.066893786	1.774300E+01	  0.066893786	-8.687000E+00
236	  0.067094192	-6.215000E+00	  0.067094192	-1.586730E+02	  0.067094192	1.769800E+01	  0.067094192	-8.270000E+00
237	  0.067294590	-6.217000E+00	  0.067294590	-1.597650E+02	  0.067294590	1.764900E+01	  0.067294590	-7.840000E+00
238	  0.067494988	-6.220000E+00	  0.067494988	-1.608290E+02	  0.067494988	1.760600E+01	  0.067494988	-7.422000E+00
239	  0.067695394	-6.225000E+00	  0.067695394	-1.618570E+02	  0.067695394	1.757400E+01	  0.067695394	-7.018000E+00
240	  0.067895792	-6.225000E+00	  0.067895792	-1.628950E+02	  0.067895792	1.753100E+01	  0.067895792	-6.612000E+00
241	  0.068096191	-6.227000E+00	  0.068096191	-1.640150E+02	  0.068096191	1.749200E+01	  0.068096191	-6.175000E+00
242	  0.068296596	-6.237000E+00	  0.068296596	-1.650070E+02	  0.068296596	1.748100E+01	  0.068296596	-5.787000E+00
243	  0.068496995	-6.241000E+00	  0.068496995	-1.660420E+02	  0.068496995	1.745600E+01	  0.068496995	-5.384000E+00
244	  0.068697393	-6.243000E+00	  0.068697393	-1.670950E+02	  0.068697393	1.742800E+01	  0.068697393	-4.975000E+00
245	  0.068897791	-6.244000E+00	  0.068897791	-1.681480E+02	  0.068897791	1.739900E+01	  0.068897791	-4.567000E+00
246	  0.069098189	-6.244000E+00	  0.069098189	-1.691710E+02	  0.069098189	1.737300E+01	  0.069098189	-4.171000E+00
247	  0.069298595	-6.244000E+00	  0.069298595	-1.701860E+02	  0.069298595	1.734900E+01	  0.069298595	-3.778000E+00
248	  0.069498993	-6.246000E+00	  0.069498993	-1.711980E+02	  0.069498993	1.733100E+01	  0.069498993	-3.387000E+00
249	  0.069699399	-6.253000E+00	  0.069699399	-1.721870E+02	  0.069699399	1.732900E+01	  0.069699399	-3.005000E+00
250	  0.069899797	-6.257000E+00	  0.069899797	-1.731930E+02	  0.069899797	1.732400E+01	  0.069899797	-2.617000E+00
251	  0.070100196	-6.255000E+00	  0.070100196	-1.741930E+02	  0.070100196	1.730300E+01	  0.070100196	-2.232000E+00
252	  0.070300601	-6.258000E+00	  0.070300601	-1.751670E+02	  0.070300601	1.730000E+01	  0.070300601	-1.857000E+00
253	  0.070501000	-6.258000E+00	  0.070501000	-1.761620E+02	  0.070501000	1.728900E+01	  0.070501000	-1.475000E+00
254	  0.070701398	-6.265000E+00	  0.070701398	-1.771300E+02	  0.070701398	1.729900E+01	  0.070701398	-1.102000E+00
255	  0.070901804	-6.267000E+00	  0.070901804	-1.780890E+02	  0.070901804	1.729900E+01	  0.070901804	-7.330000E-01
256	  0.071102202	-6.270000E+00	  0.071102202	-1.790860E+02	  0.071102202	1.730400E+01	  0.071102202	-3.500000E-01
257	  0.071302600	-6.272000E+00	  0.071302600	1.799570E+02	  0.071302600	1.730600E+01	  0.071302600	1.600000E-02
258	  0.071503006	-6.272000E+00	  0.071503006	1.790190E+02	  0.071503006	1.730900E+01	  0.071503006	3.760000E-01
259	  0.071703404	-6.279000E+00	  0.071703404	1.780650E+02	  0.071703404	1.732800E+01	  0.071703404	7.420000E-01
260	  0.071903802	-6.280000E+00	  0.071903802	1.770870E+02	  0.071903802	1.733800E+01	  0.071903802	1.118000E+00
261	  0.072104208	-6.292000E+00	  0.072104208	1.761460E+02	  0.072104208	1.737500E+01	  0.072104208	1.479000E+00
262	  0.072304606	-6.297000E+00	  0.072304606	1.752340E+02	  0.072304606	1.739800E+01	  0.072304606	1.829000E+00
263	  0.072505005	-6.306000E+00	  0.072505005	1.743200E+02	  0.072505005	1.743000E+01	  0.072505005	2.179000E+00
264	  0.072705410	-6.307000E+00	  0.072705410	1.733780E+02	  0.072705410	1.744600E+01	  0.072705410	2.541000E+00
265	  0.072905809	-6.316000E+00	  0.072905809	1.724370E+02	  0.072905809	1.748600E+01	  0.072905809	2.902000E+00
266	  0.073106214	-6.323000E+00	  0.073106214	1.715270E+02	  0.073106214	1.752200E+01	  0.073106214	3.250000E+00
267	  0.073306613	-6.338000E+00	  0.073306613	1.705780E+02	  0.073306613	1.757800E+01	  0.073306613	3.613000E+00
268	  0.073507011	-6.347000E+00	  0.073507011	1.696400E+02	  0.073507011	1.762300E+01	  0.073507011	3.973000E+00
269	  0.073707417	-6.353000E+00	  0.073707417	1.687240E+02	  0.073707417	1.766100E+01	  0.073707417	4.325000E+00
270	  0.073907815	-6.358000E+00	  0.073907815	1.678180E+02	  0.073907815	1.769900E+01	  0.073907815	4.673000E+00
271	  0.074108213	-6.367000E+00	  0.074108213	1.668940E+02	  0.074108213	1.775100E+01	  0.074108213	5.027000E+00
272	  0.074308619	-6.379000E+00	  0.074308619	1.659420E+02	  0.074308619	1.781300E+01	  0.074308619	5.392000E+00
273	  0.074509017	-6.388000E+00	  0.074509017	1.650260E+02	  0.074509017	1.786600E+01	  0.074509017	5.744000E+00
274	  0.074709415	-6.401000E+00	  0.074709415	1.641230E+02	  0.074709415	1.793200E+01	  0.074709415	6.090000E+00
275	  0.074909821	-6.411000E+00	  0.074909821	1.631890E+02	  0.074909821	1.799500E+01	  0.074909821	6.449000E+00
276	  0.075110219	-6.418000E+00	  0.075110219	1.623090E+02	  0.075110219	1.805000E+01	  0.075110219	6.787000E+00
277	  0.075310618	-6.429000E+00	  0.075310618	1.614030E+02	  0.075310618	1.811700E+01	  0.075310618	7.135000E+00
278	  0.075511023	-6.435000E+00	  0.075511023	1.604750E+02	  0.075511023	1.817700E+01	  0.075511023	7.494000E+00
279	  0.075711422	-6.445000E+00	  0.075711422	1.596050E+02	  0.075711422	1.824300E+01	  0.075711422	7.829000E+00
280	  0.075911827	-6.456000E+00	  0.075911827	1.587140E+02	  0.075911827	1.831700E+01	  0.075911827	8.172000E+00
281	  0.076112226	-6.466000E+00	  0.076112226	1.578070E+02	  0.076112226	1.839300E+01	  0.076112226	8.522000E+00
282	  0.076312624	-6.474000E+00	  0.076312624	1.569280E+02	  0.076312624	1.846200E+01	  0.076312624	8.862000E+00
283	  0.076513030	-6.483000E+00	  0.076513030	1.560610E+02	  0.076513030	1.853600E+01	  0.076513030	9.197000E+00
284	  0.076713428	-6.494000E+00	  0.076713428	1.551480E+02	  0.076713428	1.861900E+01	  0.076713428	9.550000E+00
285	  0.076913826	-6.503000E+00	  0.076913826	1.542970E+02	  0.076913826	1.869700E+01	  0.076913826	9.880000E+00
286	  0.077114232	-6.517000E+00	  0.077114232	1.534430E+02	  0.077114232	1.878800E+01	  0.077114232	1.020900E+01
287	  0.077314630	-6.529000E+00	  0.077314630	1.525740E+02	  0.077314630	1.887800E+01	  0.077314630	1.054600E+01
288	  0.077515028	-6.542000E+00	  0.077515028	1.517490E+02	  0.077515028	1.897200E+01	  0.077515028	1.086400E+01
289	  0.077715434	-6.560000E+00	  0.077715434	1.508810E+02	  0.077715434	1.908100E+01	  0.077715434	1.119800E+01
290	  0.077915832	-6.575000E+00	  0.077915832	1.500200E+02	  0.077915832	1.918500E+01	  0.077915832	1.153100E+01
291	  0.078116231	-6.591000E+00	  0.078116231	1.491550E+02	  0.078116231	1.929700E+01	  0.078116231	1.186400E+01
292	  0.078316636	-6.604000E+00	  0.078316636	1.483010E+02	  0.078316636	1.939900E+01	  0.078316636	1.219600E+01
293	  0.078517035	-6.624000E+00	  0.078517035	1.474240E+02	  0.078517035	1.952700E+01	  0.078517035	1.253300E+01
294	  0.078717433	-6.636000E+00	  0.078717433	1.465550E+02	  0.078717433	1.963100E+01	  0.078717433	1.287200E+01
295	  0.078917839	-6.647000E+00	  0.078917839	1.457100E+02	  0.078917839	1.973700E+01	  0.078917839	1.320200E+01
296	  0.079118237	-6.657000E+00	  0.079118237	1.448530E+02	  0.079118237	1.984300E+01	  0.079118237	1.353700E+01
297	  0.079318643	-6.669000E+00	  0.079318643	1.440180E+02	  0.079318643	1.995400E+01	  0.079318643	1.386400E+01
298	  0.079519041	-6.684000E+00	  0.079519041	1.431550E+02	  0.079519041	2.007800E+01	  0.079519041	1.420100E+01
299	  0.079719439	-6.700000E+00	  0.079719439	1.423390E+02	  0.079719439	2.020300E+01	  0.079719439	1.451700E+01
300	  0.079919845	-6.715000E+00	  0.079919845	1.415150E+02	  0.079919845	2.032800E+01	  0.079919845	1.483800E+01
301	  0.080120243	-6.731000E+00	  0.080120243	1.406820E+02	  0.080120243	2.045900E+01	  0.080120243	1.516300E+01
302	  0.080320641	-6.745000E+00	  0.080320641	1.398540E+02	  0.080320641	2.058700E+01	  0.080320641	1.548700E+01
303	  0.080521047	-6.760000E+00	  0.080521047	1.390460E+02	  0.080521047	2.071800E+01	  0.080521047	1.580300E+01
304	  0.080721445	-6.774000E+00	  0.080721445	1.382380E+02	  0.080721445	2.085100E+01	  0.080721445	1.611900E+01
305	  0.080921844	-6.784000E+00	  0.080921844	1.374450E+02	  0.080921844	2.097100E+01	  0.080921844	1.643400E+01
306	  0.081122249	-6.797000E+00	  0.081122249	1.366540E+02	  0.081122249	2.110100E+01	  0.081122249	1.674600E+01
307	  0.081322648	-6.807000E+00	  0.081322648	1.358680E+02	  0.081322648	2.122800E+01	  0.081322648	1.705800E+01
308	  0.081523046	-6.822000E+00	  0.081523046	1.350900E+02	  0.081523046	2.136700E+01	  0.081523046	1.736400E+01
309	  0.081723452	-6.834000E+00	  0.081723452	1.343040E+02	  0.081723452	2.150400E+01	  0.081723452	1.767500E+01
310	  0.081923850	-6.855000E+00	  0.081923850	1.335980E+02	  0.081923850	2.165500E+01	  0.081923850	1.794600E+01
311	  0.082124248	-6.871000E+00	  0.082124248	1.328620E+02	  0.082124248	2.179900E+01	  0.082124248	1.823400E+01
312	  0.082324654	-6.888000E+00	  0.082324654	1.321060E+02	  0.082324654	2.195100E+01	  0.082324654	1.853000E+01
313	  0.082525052	-6.902000E+00	  0.082525052	1.313890E+02	  0.082525052	2.209200E+01	  0.082525052	1.881300E+01
314	  0.082725458	-6.926000E+00	  0.082725458	1.306760E+02	  0.082725458	2.226200E+01	  0.082725458	1.908400E+01
315	  0.082925856	-6.952000E+00	  0.082925856	1.299620E+02	  0.082925856	2.243900E+01	  0.082925856	1.935400E+01
316	  0.083126254	-6.979000E+00	  0.083126254	1.292660E+02	  0.083126254	2.262100E+01	  0.083126254	1.961400E+01
317	  0.083326660	-7.007000E+00	  0.083326660	1.285270E+02	  0.083326660	2.281300E+01	  0.083326660	1.989200E+01
318	  0.083527058	-7.031000E+00	  0.083527058	1.277620E+02	  0.083527058	2.300100E+01	  0.083527058	2.018300E+01
319	  0.083727457	-7.058000E+00	  0.083727457	1.270370E+02	  0.083727457	2.319300E+01	  0.083727457	2.045600E+01
320	  0.083927862	-7.084000E+00	  0.083927862	1.262320E+02	  0.083927862	2.339900E+01	  0.083927862	2.076200E+01
321	  0.084128261	-7.110000E+00	  0.084128261	1.254480E+02	  0.084128261	2.360700E+01	  0.084128261	2.105800E+01
322	  0.084328659	-7.133000E+00	  0.084328659	1.246830E+02	  0.084328659	2.380200E+01	  0.084328659	2.135100E+01
323	  0.084529065	-7.163000E+00	  0.084529065	1.239610E+02	  0.084529065	2.401600E+01	  0.084529065	2.161600E+01
324	  0.084729463	-7.183000E+00	  0.084729463	1.231750E+02	  0.084729463	2.421500E+01	  0.084729463	2.192000E+01
325	  0.084929861	-7.207000E+00	  0.084929861	1.223980E+02	  0.084929861	2.442500E+01	  0.084929861	2.221600E+01
326	  0.085130267	-7.235000E+00	  0.085130267	1.216290E+02	  0.085130267	2.465000E+01	  0.085130267	2.250300E+01
327	  0.085330658	-7.257000E+00	  0.085330658	1.208690E+02	  0.085330658	2.486100E+01	  0.085330658	2.279100E+01
328	  0.085531056	-7.288000E+00	  0.085531056	1.201080E+02	  0.085531056	2.509900E+01	  0.085531056	2.307000E+01
329	  0.085731462	-7.314000E+00	  0.085731462	1.193540E+02	  0.085731462	2.532300E+01	  0.085731462	2.335100E+01
330	  0.085931860	-7.332000E+00	  0.085931860	1.186220E+02	  0.085931860	2.552700E+01	  0.085931860	2.363400E+01
331	  0.086132258	-7.348000E+00	  0.086132258	1.178560E+02	  0.086132258	2.573400E+01	  0.086132258	2.393300E+01
332	  0.086332664	-7.369000E+00	  0.086332664	1.171020E+02	  0.086332664	2.595500E+01	  0.086332664	2.422200E+01
333	  0.086533062	-7.388000E+00	  0.086533062	1.163610E+02	  0.086533062	2.617300E+01	  0.086533062	2.450500E+01
334	  0.086733460	-7.404000E+00	  0.086733460	1.156210E+02	  0.086733460	2.638600E+01	  0.086733460	2.479300E+01
335	  0.086933866	-7.427000E+00	  0.086933866	1.149500E+02	  0.086933866	2.660300E+01	  0.086933866	2.504200E+01
336	  0.087134264	-7.443000E+00	  0.087134264	1.142620E+02	  0.087134264	2.681100E+01	  0.087134264	2.530700E+01
337	  0.087334670	-7.457000E+00	  0.087334670	1.135930E+02	  0.087334670	2.700800E+01	  0.087334670	2.556900E+01
338	  0.087535068	-7.474000E+00	  0.087535068	1.129790E+02	  0.087535068	2.720500E+01	  0.087535068	2.580100E+01
339	  0.087735467	-7.494000E+00	  0.087735467	1.123310E+02	  0.087735467	2.742200E+01	  0.087735467	2.604300E+01
340	  0.087935872	-7.516000E+00	  0.087935872	1.117480E+02	  0.087935872	2.763000E+01	  0.087935872	2.625300E+01
341	  0.088136271	-7.537000E+00	  0.088136271	1.111240E+02	  0.088136271	2.784600E+01	  0.088136271	2.648300E+01
342	  0.088336669	-7.564000E+00	  0.088336669	1.105900E+02	  0.088336669	2.806000E+01	  0.088336669	2.666200E+01
343	  0.088537075	-7.590000E+00	  0.088537075	1.099550E+02	  0.088537075	2.830100E+01	  0.088537075	2.688500E+01
344	  0.088737473	-7.616000E+00	  0.088737473	1.093600E+02	  0.088737473	2.853400E+01	  0.088737473	2.709000E+01
345	  0.088937871	-7.637000E+00	  0.088937871	1.087760E+02	  0.088937871	2.874900E+01	  0.088937871	2.730000E+01
346	  0.089138277	-7.666000E+00	  0.089138277	1.081800E+02	  0.089138277	2.899600E+01	  0.089138277	2.749800E+01
347	  0.089338675	-7.691000E+00	  0.089338675	1.075890E+02	  0.089338675	2.923100E+01	  0.089338675	2.770100E+01
348	  0.089539073	-7.723000E+00	  0.089539073	1.069950E+02	  0.089539073	2.948900E+01	  0.089539073	2.789000E+01
349	  0.089739479	-7.747000E+00	  0.089739479	1.064170E+02	  0.089739479	2.972200E+01	  0.089739479	2.808800E+01
350	  0.089939877	-7.783000E+00	  0.089939877	1.058380E+02	  0.089939877	2.999100E+01	  0.089939877	2.826100E+01
351	  0.090140276	-7.799000E+00	  0.090140276	1.052560E+02	  0.090140276	3.021000E+01	  0.090140276	2.847300E+01
352	  0.090340681	-7.833000E+00	  0.090340681	1.046530E+02	  0.090340681	3.048400E+01	  0.090340681	2.865800E+01
353	  0.090541080	-7.859000E+00	  0.090541080	1.040710E+02	  0.090541080	3.073600E+01	  0.090541080	2.884700E+01
354	  0.090741485	-7.895000E+00	  0.090741485	1.035080E+02	  0.090741485	3.101000E+01	  0.090741485	2.900700E+01
355	  0.090941884	-7.924000E+00	  0.090941884	1.028710E+02	  0.090941884	3.129100E+01	  0.090941884	2.921200E+01
356	  0.091142282	-7.956000E+00	  0.091142282	1.023410E+02	  0.091142282	3.154900E+01	  0.091142282	2.936200E+01
357	  0.091342688	-7.986000E+00	  0.091342688	1.017080E+02	  0.091342688	3.183600E+01	  0.091342688	2.956000E+01
358	  0.091543086	-8.009000E+00	  0.091543086	1.010700E+02	  0.091543086	3.211000E+01	  0.091543086	2.977200E+01
359	  0.091743484	-8.041000E+00	  0.091743484	1.004590E+02	  0.091743484	3.240100E+01	  0.091743484	2.995200E+01
360	  0.091943890	-8.063000E+00	  0.091943890	9.988500E+01	  0.091943890	3.265700E+01	  0.091943890	3.013700E+01
361	  0.092144288	-8.095000E+00	  0.092144288	9.927800E+01	  0.092144288	3.295400E+01	  0.092144288	3.031100E+01
362	  0.092344686	-8.108000E+00	  0.092344686	9.869300E+01	  0.092344686	3.319500E+01	  0.092344686	3.051800E+01
363	  0.092545092	-8.138000E+00	  0.092545092	9.816300E+01	  0.092545092	3.346300E+01	  0.092545092	3.066400E+01
364	  0.092745490	-8.148000E+00	  0.092745490	9.759400E+01	  0.092745490	3.369500E+01	  0.092745490	3.087000E+01
365	  0.092945889	-8.176000E+00	  0.092945889	9.708300E+01	  0.092945889	3.395700E+01	  0.092945889	3.100900E+01
366	  0.093146294	-8.197000E+00	  0.093146294	9.655300E+01	  0.093146294	3.420800E+01	  0.093146294	3.117100E+01
367	  0.093346693	-8.220000E+00	  0.093346693	9.604200E+01	  0.093346693	3.446000E+01	  0.093346693	3.132000E+01
368	  0.093547091	-8.243000E+00	  0.093547091	9.552900E+01	  0.093547091	3.471500E+01	  0.093547091	3.146700E+01
369	  0.093747497	-8.268000E+00	  0.093747497	9.508000E+01	  0.093747497	3.495300E+01	  0.093747497	3.158200E+01
370	  0.093947895	-8.292000E+00	  0.093947895	9.453800E+01	  0.093947895	3.522600E+01	  0.093947895	3.173600E+01
371	  0.094148301	-8.311000E+00	  0.094148301	9.403600E+01	  0.094148301	3.547100E+01	  0.094148301	3.188600E+01
372	  0.094348699	-8.339000E+00	  0.094348699	9.356600E+01	  0.094348699	3.573200E+01	  0.094348699	3.199600E+01
373	  0.094549097	-8.366000E+00	  0.094549097	9.311500E+01	  0.094549097	3.598300E+01	  0.094549097	3.210000E+01
374	  0.094749503	-8.390000E+00	  0.094749503	9.263000E+01	  0.094749503	3.624000E+01	  0.094749503	3.222700E+01
375	  0.094949901	-8.411000E+00	  0.094949901	9.215600E+01	  0.094949901	3.648800E+01	  0.094949901	3.235300E+01
376	  0.095150299	-8.436000E+00	  0.095150299	9.168500E+01	  0.095150299	3.674700E+01	  0.095150299	3.246600E+01
377	  0.095350705	-8.456000E+00	  0.095350705	9.121600E+01	  0.095350705	3.699400E+01	  0.095350705	3.259100E+01
378	  0.095551103	-8.484000E+00	  0.095551103	9.074200E+01	  0.095551103	3.726500E+01	  0.095551103	3.269400E+01
379	  0.095751502	-8.501000E+00	  0.095751502	9.031500E+01	  0.095751502	3.749000E+01	  0.095751502	3.280800E+01
380	  0.095951907	-8.530000E+00	  0.095951907	8.987000E+01	  0.095951907	3.775500E+01	  0.095951907	3.289200E+01
381	  0.096152306	-8.557000E+00	  0.096152306	8.941000E+01	  0.096152306	3.802100E+01	  0.096152306	3.299000E+01
382	  0.096352704	-8.577000E+00	  0.096352704	8.893000E+01	  0.096352704	3.828100E+01	  0.096352704	3.311000E+01
383	  0.096553110	-8.606000E+00	  0.096553110	8.840400E+01	  0.096553110	3.858800E+01	  0.096553110	3.321800E+01
384	  0.096753508	-8.622000E+00	  0.096753508	8.789800E+01	  0.096753508	3.885300E+01	  0.096753508	3.335800E+01
385	  0.096953906	-8.647000E+00	  0.096953906	8.741100E+01	  0.096953906	3.913600E+01	  0.096953906	3.346000E+01
386	  0.097154312	-8.660000E+00	  0.097154312	8.692000E+01	  0.097154312	3.939100E+01	  0.097154312	3.360100E+01
387	  0.097354710	-8.678000E+00	  0.097354710	8.643500E+01	  0.097354710	3.966100E+01	  0.097354710	3.371900E+01
388	  0.097555116	-8.687000E+00	  0.097555116	8.594000E+01	  0.097555116	3.991400E+01	  0.097555116	3.387000E+01
389	  0.097755514	-8.691000E+00	  0.097755514	8.539300E+01	  0.097755514	4.018300E+01	  0.097755514	3.405300E+01
390	  0.097955912	-8.697000E+00	  0.097955912	8.492200E+01	  0.097955912	4.042400E+01	  0.097955912	3.420200E+01
391	  0.098156318	-8.708000E+00	  0.098156318	8.446100E+01	  0.098156318	4.067200E+01	  0.098156318	3.433100E+01
392	  0.098356716	-8.710000E+00	  0.098356716	8.399700E+01	  0.098356716	4.090400E+01	  0.098356716	3.448800E+01
393	  0.098557115	-8.715000E+00	  0.098557115	8.350900E+01	  0.098557115	4.115700E+01	  0.098557115	3.464300E+01
394	  0.098757520	-8.714000E+00	  0.098757520	8.313300E+01	  0.098757520	4.134400E+01	  0.098757520	3.477500E+01
395	  0.098957919	-8.717000E+00	  0.098957919	8.265700E+01	  0.098957919	4.159100E+01	  0.098957919	3.493100E+01
396	  0.099158317	-8.716000E+00	  0.099158317	8.222500E+01	  0.099158317	4.180800E+01	  0.099158317	3.508600E+01
397	  0.099358723	-8.717000E+00	  0.099358723	8.182300E+01	  0.099358723	4.201700E+01	  0.099358723	3.522200E+01
398	  0.099559121	-8.714000E+00	  0.099559121	8.144300E+01	  0.099559121	4.220800E+01	  0.099559121	3.536200E+01
399	  0.099759519	-8.717000E+00	  0.099759519	8.101800E+01	  0.099759519	4.243600E+01	  0.099759519	3.549900E+01
400	  0.099959925	-8.690000E+00	  0.099959925	8.063100E+01	  0.099959925	4.258200E+01	  0.099959925	3.572300E+01
401	  0.100160323	-8.700000E+00	  0.100160323	8.032400E+01	  0.100160323	4.276700E+01	  0.100160323	3.579200E+01
402	  0.100360721	-8.690000E+00	  0.100360721	7.990500E+01	  0.100360721	4.297000E+01	  0.100360721	3.597100E+01
403	  0.100561127	-8.688000E+00	  0.100561127	7.957100E+01	  0.100561127	4.314400E+01	  0.100561127	3.609400E+01
404	  0.100761525	-8.691000E+00	  0.100761525	7.926300E+01	  0.100761525	4.332100E+01	  0.100761525	3.618500E+01
405	  0.100961931	-8.700000E+00	  0.100961931	7.896200E+01	  0.100961931	4.350500E+01	  0.100961931	3.625400E+01
406	  0.101162329	-8.693000E+00	  0.101162329	7.863000E+01	  0.101162329	4.367200E+01	  0.101162329	3.639300E+01
407	  0.101362728	-8.704000E+00	  0.101362728	7.832700E+01	  0.101362728	4.386600E+01	  0.101362728	3.645300E+01
408	  0.101563133	-8.713000E+00	  0.101563133	7.795000E+01	  0.101563133	4.409800E+01	  0.101563133	3.654200E+01
409	  0.101763532	-8.714000E+00	  0.101763532	7.749300E+01	  0.101763532	4.435800E+01	  0.101763532	3.668900E+01
410	  0.101963930	-8.722000E+00	  0.101963930	7.716300E+01	  0.101963930	4.456300E+01	  0.101963930	3.676800E+01
411	  0.102164336	-8.722000E+00	  0.102164336	7.678600E+01	  0.102164336	4.477800E+01	  0.102164336	3.689200E+01
412	  0.102364734	-8.738000E+00	  0.102364734	7.641900E+01	  0.102364734	4.502600E+01	  0.102364734	3.694800E+01
413	  0.102565132	-8.733000E+00	  0.102565132	7.595100E+01	  0.102565132	4.528700E+01	  0.102565132	3.711800E+01
414	  0.102765530	-8.746000E+00	  0.102765530	7.548800E+01	  0.102765530	4.558900E+01	  0.102765530	3.721100E+01
415	  0.102965929	-8.744000E+00	  0.102965929	7.496500E+01	  0.102965929	4.589500E+01	  0.102965929	3.738700E+01
416	  0.103166327	-8.744000E+00	  0.103166327	7.451600E+01	  0.103166327	4.616600E+01	  0.103166327	3.752400E+01
417	  0.103366733	-8.730000E+00	  0.103366733	7.398900E+01	  0.103366733	4.645900E+01	  0.103366733	3.774200E+01
418	  0.103567131	-8.725000E+00	  0.103567131	7.348000E+01	  0.103567131	4.676200E+01	  0.103567131	3.791900E+01
419	  0.103767529	-8.725000E+00	  0.103767529	7.296000E+01	  0.103767529	4.708500E+01	  0.103767529	3.807900E+01
420	  0.103967935	-8.708000E+00	  0.103967935	7.238800E+01	  0.103967935	4.741200E+01	  0.103967935	3.832000E+01
421	  0.104168333	-8.703000E+00	  0.104168333	7.176600E+01	  0.104168333	4.780000E+01	  0.104168333	3.852700E+01
422	  0.104368731	-8.684000E+00	  0.104368731	7.121600E+01	  0.104368731	4.811800E+01	  0.104368731	3.877200E+01
423	  0.104569137	-8.665000E+00	  0.104569137	7.062800E+01	  0.104569137	4.846600E+01	  0.104569137	3.902900E+01
424	  0.104769535	-8.655000E+00	  0.104769535	7.006500E+01	  0.104769535	4.882200E+01	  0.104769535	3.923200E+01
425	  0.104969934	-8.621000E+00	  0.104969934	6.946100E+01	  0.104969934	4.916300E+01	  0.104969934	3.956100E+01
426	  0.105170339	-8.611000E+00	  0.105170339	6.884800E+01	  0.105170339	4.956300E+01	  0.105170339	3.978100E+01
427	  0.105370738	-8.570000E+00	  0.105370738	6.838700E+01	  0.105370738	4.980700E+01	  0.105370738	4.009700E+01
428	  0.105571143	-8.567000E+00	  0.105571143	6.773000E+01	  0.105571143	5.026300E+01	  0.105571143	4.029400E+01
429	  0.105771542	-8.536000E+00	  0.105771542	6.715700E+01	  0.105771542	5.061400E+01	  0.105771542	4.060100E+01
430	  0.105971940	-8.531000E+00	  0.105971940	6.662800E+01	  0.105971940	5.098700E+01	  0.105971940	4.076900E+01
431	  0.106172346	-8.514000E+00	  0.106172346	6.613300E+01	  0.106172346	5.131800E+01	  0.106172346	4.098600E+01
432	  0.106372744	-8.495000E+00	  0.106372744	6.557600E+01	  0.106372744	5.169600E+01	  0.106372744	4.122700E+01
433	  0.106573142	-8.486000E+00	  0.106573142	6.509100E+01	  0.106573142	5.204300E+01	  0.106573142	4.140100E+01
434	  0.106773548	-8.467000E+00	  0.106773548	6.454700E+01	  0.106773548	5.242200E+01	  0.106773548	4.163700E+01
435	  0.106973946	-8.465000E+00	  0.106973946	6.409700E+01	  0.106973946	5.276200E+01	  0.106973946	4.176500E+01
436	  0.107174344	-8.458000E+00	  0.107174344	6.354800E+01	  0.107174344	5.317600E+01	  0.107174344	4.193700E+01
437	  0.107374750	-8.451000E+00	  0.107374750	6.298700E+01	  0.107374750	5.360300E+01	  0.107374750	4.211500E+01
438	  0.107575148	-8.440000E+00	  0.107575148	6.247800E+01	  0.107575148	5.399000E+01	  0.107575148	4.229200E+01
439	  0.107775547	-8.441000E+00	  0.107775547	6.186200E+01	  0.107775547	5.448500E+01	  0.107775547	4.243500E+01
440	  0.107975952	-8.447000E+00	  0.107975952	6.131800E+01	  0.107975952	5.493500E+01	  0.107975952	4.252900E+01
441	  0.108176351	-8.438000E+00	  0.108176351	6.072200E+01	  0.108176351	5.541200E+01	  0.108176351	4.270800E+01
442	  0.108376749	-8.435000E+00	  0.108376749	6.011100E+01	  0.108376749	5.591500E+01	  0.108376749	4.285700E+01
443	  0.108577155	-8.429000E+00	  0.108577155	5.952800E+01	  0.108577155	5.639800E+01	  0.108577155	4.301000E+01
444	  0.108777553	-8.421000E+00	  0.108777553	5.887200E+01	  0.108777553	5.694600E+01	  0.108777553	4.318600E+01
445	  0.108977959	-8.414000E+00	  0.108977959	5.821900E+01	  0.108977959	5.750200E+01	  0.108977959	4.335000E+01
446	  0.109178357	-8.414000E+00	  0.109178357	5.751000E+01	  0.109178357	5.812300E+01	  0.109178357	4.347900E+01
447	  0.109378755	-8.398000E+00	  0.109378755	5.688000E+01	  0.109378755	5.866500E+01	  0.109378755	4.368100E+01
448	  0.109579161	-8.388000E+00	  0.109579161	5.614300E+01	  0.109579161	5.931900E+01	  0.109579161	4.386000E+01
449	  0.109779559	-8.388000E+00	  0.109779559	5.545700E+01	  0.109779559	5.994500E+01	  0.109779559	4.396400E+01
450	  0.109979957	-8.373000E+00	  0.109979957	5.475500E+01	  0.109979957	6.058200E+01	  0.109979957	4.415700E+01
451	  0.110180363	-8.348000E+00	  0.110180363	5.405000E+01	  0.110180363	6.122400E+01	  0.110180363	4.440800E+01
452	  0.110380761	-8.339000E+00	  0.110380761	5.332700E+01	  0.110380761	6.190700E+01	  0.110380761	4.455200E+01
453	  0.110581160	-8.334000E+00	  0.110581160	5.259100E+01	  0.110581160	6.261800E+01	  0.110581160	4.465900E+01
454	  0.110781565	-8.304000E+00	  0.110781565	5.187700E+01	  0.110781565	6.330200E+01	  0.110781565	4.492400E+01
455	  0.110981964	-8.295000E+00	  0.110981964	5.119100E+01	  0.110981964	6.398300E+01	  0.110981964	4.503600E+01
456	  0.111182362	-8.294000E+00	  0.111182362	5.043900E+01	  0.111182362	6.474300E+01	  0.111182362	4.509700E+01
457	  0.111382768	-8.275000E+00	  0.111382768	4.978600E+01	  0.111382768	6.540700E+01	  0.111382768	4.526100E+01
458	  0.111583166	-8.270000E+00	  0.111583166	4.906800E+01	  0.111583166	6.615200E+01	  0.111583166	4.532200E+01
459	  0.111783572	-8.266000E+00	  0.111783572	4.836300E+01	  0.111783572	6.689400E+01	  0.111783572	4.536600E+01
460	  0.111983970	-8.258000E+00	  0.111983970	4.764700E+01	  0.111983970	6.765700E+01	  0.111983970	4.542900E+01
461	  0.112184368	-8.257000E+00	  0.112184368	4.696000E+01	  0.112184368	6.839800E+01	  0.112184368	4.542500E+01
462	  0.112384774	-8.264000E+00	  0.112384774	4.624800E+01	  0.112384774	6.917300E+01	  0.112384774	4.535300E+01
463	  0.112585172	-8.265000E+00	  0.112585172	4.552700E+01	  0.112585172	6.996600E+01	  0.112585172	4.531000E+01
464	  0.112785570	-8.276000E+00	  0.112785570	4.475300E+01	  0.112785570	7.082200E+01	  0.112785570	4.517300E+01
465	  0.112985976	-8.294000E+00	  0.112985976	4.402200E+01	  0.112985976	7.163000E+01	  0.112985976	4.497300E+01
466	  0.113186374	-8.305000E+00	  0.113186374	4.319500E+01	  0.113186374	7.255400E+01	  0.113186374	4.479000E+01
467	  0.113386773	-8.318000E+00	  0.113386773	4.232100E+01	  0.113386773	7.353900E+01	  0.113386773	4.456600E+01
468	  0.113587178	-8.340000E+00	  0.113587178	4.149300E+01	  0.113587178	7.446300E+01	  0.113587178	4.425400E+01
469	  0.113787577	-8.355000E+00	  0.113787577	4.059900E+01	  0.113787577	7.547500E+01	  0.113787577	4.396000E+01
470	  0.113987975	-8.373000E+00	  0.113987975	3.972700E+01	  0.113987975	7.645900E+01	  0.113987975	4.361400E+01
471	  0.114188381	-8.403000E+00	  0.114188381	3.880300E+01	  0.114188381	7.748200E+01	  0.114188381	4.313200E+01
472	  0.114388779	-8.426000E+00	  0.114388779	3.779100E+01	  0.114388779	7.861800E+01	  0.114388779	4.264400E+01
473	  0.114589177	-8.439000E+00	  0.114589177	3.691500E+01	  0.114589177	7.961700E+01	  0.114589177	4.224800E+01
474	  0.114789583	-8.456000E+00	  0.114789583	3.589500E+01	  0.114789583	8.077500E+01	  0.114789583	4.173400E+01
475	  0.114989981	-8.476000E+00	  0.114989981	3.488500E+01	  0.114989981	8.190500E+01	  0.114989981	4.115100E+01
476	  0.115190387	-8.493000E+00	  0.115190387	3.393600E+01	  0.115190387	8.297000E+01	  0.115190387	4.058300E+01
477	  0.115390785	-8.507000E+00	  0.115390785	3.295700E+01	  0.115390785	8.407700E+01	  0.115390785	3.999200E+01
478	  0.115591183	-8.524000E+00	  0.115591183	3.194400E+01	  0.115591183	8.520100E+01	  0.115591183	3.931000E+01
479	  0.115791589	-8.545000E+00	  0.115791589	3.092000E+01	  0.115791589	8.631200E+01	  0.115791589	3.855000E+01
480	  0.115991987	-8.556000E+00	  0.115991987	2.996800E+01	  0.115991987	8.737000E+01	  0.115991987	3.787100E+01
481	  0.116192386	-8.581000E+00	  0.116192386	2.898300E+01	  0.116192386	8.839500E+01	  0.116192386	3.702900E+01
482	  0.116392791	-8.587000E+00	  0.116392791	2.799300E+01	  0.116392791	8.949400E+01	  0.116392791	3.628300E+01
483	  0.116593190	-8.617000E+00	  0.116593190	2.701400E+01	  0.116593190	9.044400E+01	  0.116593190	3.531900E+01
484	  0.116793588	-8.647000E+00	  0.116793588	2.605500E+01	  0.116793588	9.134800E+01	  0.116793588	3.434100E+01
485	  0.116993994	-8.675000E+00	  0.116993994	2.509900E+01	  0.116993994	9.223000E+01	  0.116993994	3.334400E+01
486	  0.117194392	-8.712000E+00	  0.117194392	2.408900E+01	  0.117194392	9.308700E+01	  0.117194392	3.220100E+01
487	  0.117394790	-8.750000E+00	  0.117394790	2.312900E+01	  0.117394790	9.384900E+01	  0.117394790	3.106400E+01
488	  0.117595196	-8.799000E+00	  0.117595196	2.219200E+01	  0.117595196	9.448300E+01	  0.117595196	2.985400E+01
489	  0.117795594	-8.845000E+00	  0.117795594	2.116900E+01	  0.117795594	9.516600E+01	  0.117795594	2.854800E+01
490	  0.117995992	-8.897000E+00	  0.117995992	2.014300E+01	  0.117995992	9.577300E+01	  0.117995992	2.718600E+01
491	  0.118196398	-8.954000E+00	  0.118196398	1.904400E+01	  0.118196398	9.635000E+01	  0.118196398	2.569400E+01
492	  0.118396796	-9.030000E+00	  0.118396796	1.801900E+01	  0.118396796	9.667100E+01	  0.118396796	2.416800E+01
493	  0.118597202	-9.090000E+00	  0.118597202	1.694400E+01	  0.118597202	9.708600E+01	  0.118597202	2.266700E+01
494	  0.118797600	-9.169000E+00	  0.118797600	1.582300E+01	  0.118797600	9.732900E+01	  0.118797600	2.101400E+01
495	  0.118997999	-9.246000E+00	  0.118997999	1.462100E+01	  0.118997999	9.756800E+01	  0.118997999	1.928200E+01
496	  0.119198404	-9.320000E+00	  0.119198404	1.342300E+01	  0.119198404	9.774500E+01	  0.119198404	1.757200E+01
497	  0.119398803	-9.398000E+00	  0.119398803	1.219100E+01	  0.119398803	9.783900E+01	  0.119398803	1.582000E+01
498	  0.119599201	-9.487000E+00	  0.119599201	1.093400E+01	  0.119599201	9.777800E+01	  0.119599201	1.401900E+01
499	  0.119799607	-9.571000E+00	  0.119799607	9.647000E+00	  0.119799607	9.769200E+01	  0.119799607	1.222700E+01
500	  0.120000005	-9.667000E+00	  0.120000005	8.351000E+00	  0.120000005	9.743000E+01	  0.120000005	1.042500E+01
