! Anritsu VNA Master:             	Model: MS2036C/10/77
! SN:             	1601066
! /card0/usr/18may27.balun/5b.r200.3.txt
! Existing Calibration Information:
! TYPE:             	Current Settings	Active Cal Settings
! TIME:             	05/27/2018 04:08:16 PM	05/27/2018 03:52:12 PM
! INTERNAL TEMP:    	51.5 C	52.5 C
! # POINTS:         	500	500
! START FREQ:       	20.000 MHz	20.000 MHz
! STOP FREQ:        	120.000 MHz	120.000 MHz
! SOURCE POWER:     	High	High
! IFBW:             	50 Hz	50 Hz
! AVG FACTOR:       	  1 	  1 
! REF PLANE 1:      	0 mm	0 mm
! REF PLANE 2:      	0 mm	0 mm
! CAL TYPE:         	Full S11	Full S11
! CAL METHOD:       	SOLT	SOLT
! CAL LINE TYPE:    	Coax	Coax
! DUT PORT 1:       	K-Conn(M)	K-Conn(M)
! DUT PORT 2:       	K-Conn(M)	K-Conn(M)
! CAL STATUS:       	OK: Accuracy High	--
! PROP-V:       	0.700
! CABLE LOSS:       	0.000 dB/m
! REF IMPEDANCE:       	50.0
! Trace Specific Parameters:	TR1	TR2	TR3	TR4
! TRACE.#.Y (GRAPH TYPE)	LOG MAG	PHASE	REAL IMPEDANCE	IMAGINARY IMPEDANCE
! TRACE.#.X 	FREQ.GHZ	FREQ.GHZ	FREQ.GHZ	FREQ.GHZ
! S-PARAMETER	S11	S11	S11	S11
! SMOOTH/APERTURE %	0	0	0	0
! WINDOW	NSL	NSL	NSL	NSL
! GATING	OFF	OFF	OFF	OFF
! FGTD	OFF	OFF	OFF	OFF
Marker Information per Trace:	TR1	TR2	TR3	TR4
!MK1	--	--	--	"MK1 TR4:  70.100 200 MHz,Z:(29.751 ohm, -51.039 ohm)"
!MK2	--	--	--	--
!MK3	--	--	--	--
!MK4	--	--	--	--
!MK5	--	--	--	--
!MK6	--	--	--	--
!MK7	--	--	--	--
!MK8	--	--	--	--
PNT	TR1.FREQ.GHZ	TR1.LOG MAG.dB	TR2.FREQ.GHZ	TR2.PHASE.deg	TR3.FREQ.GHZ	TR3.REAL IMPEDANCE.ohm	TR4.FREQ.GHZ	TR4.IMAGINARY IMPEDANCE.ohm
1	  0.020000000	-4.548000E+00	  0.020000000	-2.226200E+01	  0.020000000	1.275350E+02	  0.020000000	-8.818200E+01
2	  0.020200402	-4.545000E+00	  0.020200402	-2.248600E+01	  0.020200402	1.266750E+02	  0.020200402	-8.848300E+01
3	  0.020400802	-4.546000E+00	  0.020400802	-2.269800E+01	  0.020400802	1.258420E+02	  0.020400802	-8.867600E+01
4	  0.020601204	-4.544000E+00	  0.020601204	-2.293800E+01	  0.020601204	1.249190E+02	  0.020601204	-8.894100E+01
5	  0.020801604	-4.544000E+00	  0.020801604	-2.314500E+01	  0.020801604	1.241230E+02	  0.020801604	-8.913700E+01
6	  0.021002004	-4.543000E+00	  0.021002004	-2.337600E+01	  0.021002004	1.232350E+02	  0.021002004	-8.935200E+01
7	  0.021202406	-4.543000E+00	  0.021202406	-2.361300E+01	  0.021202406	1.223280E+02	  0.021202406	-8.953000E+01
8	  0.021402806	-4.545000E+00	  0.021402806	-2.382000E+01	  0.021402806	1.215270E+02	  0.021402806	-8.963800E+01
9	  0.021603208	-4.546000E+00	  0.021603208	-2.404000E+01	  0.021603208	1.206870E+02	  0.021603208	-8.976900E+01
10	  0.021803608	-4.548000E+00	  0.021803608	-2.425700E+01	  0.021803608	1.198610E+02	  0.021803608	-8.986400E+01
11	  0.022004008	-4.549000E+00	  0.022004008	-2.447200E+01	  0.022004008	1.190520E+02	  0.022004008	-8.998300E+01
12	  0.022204408	-4.553000E+00	  0.022204408	-2.466100E+01	  0.022204408	1.183320E+02	  0.022204408	-9.001400E+01
13	  0.022404809	-4.550000E+00	  0.022404809	-2.487700E+01	  0.022404809	1.175390E+02	  0.022404809	-9.020200E+01
14	  0.022605211	-4.557000E+00	  0.022605211	-2.508800E+01	  0.022605211	1.167370E+02	  0.022605211	-9.013400E+01
15	  0.022805611	-4.562000E+00	  0.022805611	-2.532100E+01	  0.022805611	1.158680E+02	  0.022805611	-9.014900E+01
16	  0.023006011	-4.560000E+00	  0.023006011	-2.554400E+01	  0.023006011	1.150640E+02	  0.023006011	-9.028200E+01
17	  0.023206413	-4.556000E+00	  0.023206413	-2.579200E+01	  0.023206413	1.141770E+02	  0.023206413	-9.050600E+01
18	  0.023406813	-4.553000E+00	  0.023406813	-2.600600E+01	  0.023406813	1.134150E+02	  0.023406813	-9.064100E+01
19	  0.023607215	-4.550000E+00	  0.023607215	-2.624900E+01	  0.023607215	1.125520E+02	  0.023607215	-9.080800E+01
20	  0.023807615	-4.552000E+00	  0.023807615	-2.645800E+01	  0.023807615	1.118040E+02	  0.023807615	-9.082500E+01
21	  0.024008015	-4.554000E+00	  0.024008015	-2.668100E+01	  0.024008015	1.110160E+02	  0.024008015	-9.085700E+01
22	  0.024208417	-4.555000E+00	  0.024208417	-2.689800E+01	  0.024208417	1.102500E+02	  0.024208417	-9.087500E+01
23	  0.024408817	-4.560000E+00	  0.024408817	-2.708500E+01	  0.024408817	1.095900E+02	  0.024408817	-9.081300E+01
24	  0.024609219	-4.561000E+00	  0.024609219	-2.728800E+01	  0.024609219	1.088890E+02	  0.024609219	-9.083300E+01
25	  0.024809619	-4.565000E+00	  0.024809619	-2.749500E+01	  0.024809619	1.081690E+02	  0.024809619	-9.076700E+01
26	  0.025010020	-4.565000E+00	  0.025010020	-2.769900E+01	  0.025010020	1.074730E+02	  0.025010020	-9.080500E+01
27	  0.025210422	-4.568000E+00	  0.025210422	-2.793200E+01	  0.025210422	1.066810E+02	  0.025210422	-9.076700E+01
28	  0.025410822	-4.572000E+00	  0.025410822	-2.816200E+01	  0.025410822	1.059040E+02	  0.025410822	-9.070200E+01
29	  0.025611224	-4.571000E+00	  0.025611224	-2.839700E+01	  0.025611224	1.051180E+02	  0.025611224	-9.073500E+01
30	  0.025811624	-4.573000E+00	  0.025811624	-2.864200E+01	  0.025811624	1.043060E+02	  0.025811624	-9.071600E+01
31	  0.026012026	-4.575000E+00	  0.026012026	-2.889100E+01	  0.026012026	1.034880E+02	  0.026012026	-9.065800E+01
32	  0.026212426	-4.575000E+00	  0.026212426	-2.914300E+01	  0.026212426	1.026650E+02	  0.026212426	-9.066900E+01
33	  0.026412826	-4.573000E+00	  0.026412826	-2.940000E+01	  0.026412826	1.018310E+02	  0.026412826	-9.068400E+01
34	  0.026613226	-4.573000E+00	  0.026613226	-2.965300E+01	  0.026613226	1.010190E+02	  0.026613226	-9.066900E+01
35	  0.026813626	-4.571000E+00	  0.026813626	-2.985900E+01	  0.026813626	1.003610E+02	  0.026813626	-9.069900E+01
36	  0.027014028	-4.570000E+00	  0.027014028	-3.004700E+01	  0.027014028	9.976500E+01	  0.027014028	-9.068400E+01
37	  0.027214428	-4.574000E+00	  0.027214428	-3.024800E+01	  0.027214428	9.913800E+01	  0.027214428	-9.057300E+01
38	  0.027414829	-4.578000E+00	  0.027414829	-3.045200E+01	  0.027414829	9.850500E+01	  0.027414829	-9.046900E+01
39	  0.027615231	-4.581000E+00	  0.027615231	-3.067800E+01	  0.027615231	9.780800E+01	  0.027615231	-9.035500E+01
40	  0.027815631	-4.588000E+00	  0.027815631	-3.091700E+01	  0.027815631	9.708100E+01	  0.027815631	-9.017800E+01
41	  0.028016033	-4.594000E+00	  0.028016033	-3.119100E+01	  0.028016033	9.626000E+01	  0.028016033	-8.998900E+01
42	  0.028216433	-4.597000E+00	  0.028216433	-3.145200E+01	  0.028216433	9.547900E+01	  0.028216433	-8.985700E+01
43	  0.028416833	-4.593000E+00	  0.028416833	-3.174400E+01	  0.028416833	9.459900E+01	  0.028416833	-8.987500E+01
44	  0.028617235	-4.588000E+00	  0.028617235	-3.202400E+01	  0.028617235	9.376500E+01	  0.028617235	-8.987600E+01
45	  0.028817635	-4.584000E+00	  0.028817635	-3.228300E+01	  0.028817635	9.299500E+01	  0.028817635	-8.987800E+01
46	  0.029018037	-4.582000E+00	  0.029018037	-3.252600E+01	  0.029018037	9.228400E+01	  0.029018037	-8.983200E+01
47	  0.029218437	-4.576000E+00	  0.029218437	-3.275900E+01	  0.029218437	9.160000E+01	  0.029218437	-8.985500E+01
48	  0.029418837	-4.568000E+00	  0.029418837	-3.294800E+01	  0.029418837	9.103600E+01	  0.029418837	-8.993100E+01
49	  0.029619239	-4.565000E+00	  0.029619239	-3.312000E+01	  0.029619239	9.054000E+01	  0.029619239	-8.991600E+01
50	  0.029819639	-4.563000E+00	  0.029819639	-3.327800E+01	  0.029819639	9.008300E+01	  0.029819639	-8.989600E+01
51	  0.030020041	-4.557000E+00	  0.030020041	-3.345000E+01	  0.030020041	8.958300E+01	  0.030020041	-8.992800E+01
52	  0.030220442	-4.560000E+00	  0.030220442	-3.361500E+01	  0.030220442	8.912800E+01	  0.030220442	-8.980300E+01
53	  0.030420844	-4.563000E+00	  0.030420844	-3.383400E+01	  0.030420844	8.853000E+01	  0.030420844	-8.963300E+01
54	  0.030621244	-4.568000E+00	  0.030621244	-3.405300E+01	  0.030621244	8.794100E+01	  0.030621244	-8.944500E+01
55	  0.030821644	-4.571000E+00	  0.030821644	-3.427400E+01	  0.030821644	8.734500E+01	  0.030821644	-8.929000E+01
56	  0.031022044	-4.575000E+00	  0.031022044	-3.448100E+01	  0.031022044	8.679900E+01	  0.031022044	-8.910200E+01
57	  0.031222444	-4.570000E+00	  0.031222444	-3.466400E+01	  0.031222444	8.628800E+01	  0.031222444	-8.911000E+01
58	  0.031422846	-4.576000E+00	  0.031422846	-3.489800E+01	  0.031422846	8.568400E+01	  0.031422846	-8.887800E+01
59	  0.031623244	-4.580000E+00	  0.031623244	-3.513400E+01	  0.031623244	8.507600E+01	  0.031623244	-8.866800E+01
60	  0.031823646	-4.583000E+00	  0.031823646	-3.539100E+01	  0.031823646	8.441500E+01	  0.031823646	-8.847300E+01
61	  0.032024048	-4.582000E+00	  0.032024048	-3.562600E+01	  0.032024048	8.379800E+01	  0.032024048	-8.837000E+01
62	  0.032224450	-4.583000E+00	  0.032224450	-3.585800E+01	  0.032224450	8.320600E+01	  0.032224450	-8.820600E+01
63	  0.032424849	-4.577000E+00	  0.032424849	-3.608600E+01	  0.032424849	8.260100E+01	  0.032424849	-8.817100E+01
64	  0.032625251	-4.576000E+00	  0.032625251	-3.630600E+01	  0.032625251	8.203900E+01	  0.032625251	-8.806700E+01
65	  0.032825653	-4.575000E+00	  0.032825653	-3.650900E+01	  0.032825653	8.152400E+01	  0.032825653	-8.795300E+01
66	  0.033026051	-4.580000E+00	  0.033026051	-3.670600E+01	  0.033026051	8.105500E+01	  0.033026051	-8.774800E+01
67	  0.033226453	-4.588000E+00	  0.033226453	-3.689900E+01	  0.033226453	8.061100E+01	  0.033226453	-8.748900E+01
68	  0.033426855	-4.596000E+00	  0.033426855	-3.714700E+01	  0.033426855	8.003800E+01	  0.033426855	-8.719900E+01
69	  0.033627257	-4.599000E+00	  0.033627257	-3.743600E+01	  0.033627257	7.934900E+01	  0.033627257	-8.697300E+01
70	  0.033827655	-4.604000E+00	  0.033827655	-3.774300E+01	  0.033827655	7.863800E+01	  0.033827655	-8.667800E+01
71	  0.034028057	-4.609000E+00	  0.034028057	-3.802500E+01	  0.034028057	7.799100E+01	  0.034028057	-8.641900E+01
72	  0.034228459	-4.609000E+00	  0.034228459	-3.831400E+01	  0.034228459	7.731600E+01	  0.034228459	-8.622100E+01
73	  0.034428857	-4.607000E+00	  0.034428857	-3.857800E+01	  0.034428857	7.669700E+01	  0.034428857	-8.605900E+01
74	  0.034629259	-4.599000E+00	  0.034629259	-3.884400E+01	  0.034629259	7.604600E+01	  0.034629259	-8.600200E+01
75	  0.034829661	-4.592000E+00	  0.034829661	-3.908900E+01	  0.034829661	7.545600E+01	  0.034829661	-8.593200E+01
76	  0.035030060	-4.583000E+00	  0.035030060	-3.931200E+01	  0.035030060	7.490700E+01	  0.035030060	-8.590200E+01
77	  0.035230462	-4.574000E+00	  0.035230462	-3.953800E+01	  0.035230462	7.436100E+01	  0.035230462	-8.585300E+01
78	  0.035430863	-4.567000E+00	  0.035430863	-3.971800E+01	  0.035430863	7.392500E+01	  0.035430863	-8.582100E+01
79	  0.035631265	-4.567000E+00	  0.035631265	-3.988100E+01	  0.035631265	7.356300E+01	  0.035631265	-8.570000E+01
80	  0.035831664	-4.568000E+00	  0.035831664	-4.003100E+01	  0.035831664	7.324100E+01	  0.035831664	-8.557100E+01
81	  0.036032066	-4.570000E+00	  0.036032066	-4.024100E+01	  0.036032066	7.279700E+01	  0.036032066	-8.536900E+01
82	  0.036232468	-4.572000E+00	  0.036232468	-4.043500E+01	  0.036232468	7.238500E+01	  0.036232468	-8.519200E+01
83	  0.036432866	-4.578000E+00	  0.036432866	-4.066000E+01	  0.036432866	7.193200E+01	  0.036432866	-8.493300E+01
84	  0.036633268	-4.582000E+00	  0.036633268	-4.086400E+01	  0.036633268	7.152100E+01	  0.036633268	-8.471600E+01
85	  0.036833670	-4.587000E+00	  0.036833670	-4.108600E+01	  0.036833670	7.108200E+01	  0.036833670	-8.446500E+01
86	  0.037034072	-4.590000E+00	  0.037034072	-4.130800E+01	  0.037034072	7.063200E+01	  0.037034072	-8.424900E+01
87	  0.037234470	-4.591000E+00	  0.037234470	-4.150700E+01	  0.037234470	7.022600E+01	  0.037234470	-8.407700E+01
88	  0.037434869	-4.593000E+00	  0.037434869	-4.173100E+01	  0.037434869	6.977900E+01	  0.037434869	-8.386400E+01
89	  0.037635271	-4.593000E+00	  0.037635271	-4.195700E+01	  0.037635271	6.931500E+01	  0.037635271	-8.368500E+01
90	  0.037835669	-4.591000E+00	  0.037835669	-4.220500E+01	  0.037835669	6.880600E+01	  0.037835669	-8.350700E+01
91	  0.038036071	-4.586000E+00	  0.038036071	-4.244400E+01	  0.038036071	6.830000E+01	  0.038036071	-8.337500E+01
92	  0.038236473	-4.582000E+00	  0.038236473	-4.263700E+01	  0.038236473	6.790000E+01	  0.038236473	-8.325700E+01
93	  0.038436871	-4.583000E+00	  0.038436871	-4.281500E+01	  0.038436871	6.755300E+01	  0.038436871	-8.309700E+01
94	  0.038637273	-4.590000E+00	  0.038637273	-4.301100E+01	  0.038637273	6.721500E+01	  0.038637273	-8.283500E+01
95	  0.038837675	-4.599000E+00	  0.038837675	-4.320100E+01	  0.038837675	6.689300E+01	  0.038837675	-8.256800E+01
96	  0.039038073	-4.612000E+00	  0.039038073	-4.347500E+01	  0.039038073	6.643900E+01	  0.039038073	-8.217200E+01
97	  0.039238475	-4.622000E+00	  0.039238475	-4.373200E+01	  0.039238475	6.601000E+01	  0.039238475	-8.182800E+01
98	  0.039438877	-4.629000E+00	  0.039438877	-4.403500E+01	  0.039438877	6.548000E+01	  0.039438877	-8.148600E+01
99	  0.039639279	-4.634000E+00	  0.039639279	-4.432500E+01	  0.039639279	6.497200E+01	  0.039639279	-8.117800E+01
100	  0.039839678	-4.633000E+00	  0.039839678	-4.462100E+01	  0.039839678	6.442200E+01	  0.039839678	-8.094000E+01
101	  0.040040080	-4.630000E+00	  0.040040080	-4.492700E+01	  0.040040080	6.385400E+01	  0.040040080	-8.070800E+01
102	  0.040240481	-4.624000E+00	  0.040240481	-4.519000E+01	  0.040240481	6.334900E+01	  0.040240481	-8.055300E+01
103	  0.040440880	-4.611000E+00	  0.040440880	-4.546200E+01	  0.040440880	6.279400E+01	  0.040440880	-8.046200E+01
104	  0.040641282	-4.604000E+00	  0.040641282	-4.571200E+01	  0.040641282	6.231500E+01	  0.040641282	-8.032400E+01
105	  0.040841684	-4.598000E+00	  0.040841684	-4.593300E+01	  0.040841684	6.188900E+01	  0.040841684	-8.020500E+01
106	  0.041042086	-4.594000E+00	  0.041042086	-4.611800E+01	  0.041042086	6.154700E+01	  0.041042086	-8.008500E+01
107	  0.041242484	-4.594000E+00	  0.041242484	-4.632900E+01	  0.041242484	6.118900E+01	  0.041242484	-7.989000E+01
108	  0.041442886	-4.598000E+00	  0.041442886	-4.654600E+01	  0.041442886	6.084500E+01	  0.041442886	-7.965000E+01
109	  0.041643288	-4.598000E+00	  0.041643288	-4.677400E+01	  0.041643288	6.046000E+01	  0.041643288	-7.944400E+01
110	  0.041843686	-4.600000E+00	  0.041843686	-4.699700E+01	  0.041843686	6.009600E+01	  0.041843686	-7.923000E+01
111	  0.042044088	-4.602000E+00	  0.042044088	-4.722000E+01	  0.042044088	5.973900E+01	  0.042044088	-7.900600E+01
112	  0.042244490	-4.601000E+00	  0.042244490	-4.741700E+01	  0.042244490	5.941300E+01	  0.042244490	-7.883300E+01
113	  0.042444889	-4.602000E+00	  0.042444889	-4.761900E+01	  0.042444889	5.909000E+01	  0.042444889	-7.863800E+01
114	  0.042645290	-4.601000E+00	  0.042645290	-4.781900E+01	  0.042645290	5.875700E+01	  0.042645290	-7.847600E+01
115	  0.042845692	-4.600000E+00	  0.042845692	-4.804600E+01	  0.042845692	5.839200E+01	  0.042845692	-7.827000E+01
116	  0.043046094	-4.597000E+00	  0.043046094	-4.827600E+01	  0.043046094	5.800600E+01	  0.043046094	-7.809700E+01
117	  0.043246493	-4.592000E+00	  0.043246493	-4.849800E+01	  0.043246493	5.762900E+01	  0.043246493	-7.794000E+01
118	  0.043446895	-4.586000E+00	  0.043446895	-4.870000E+01	  0.043446895	5.727700E+01	  0.043446895	-7.781800E+01
119	  0.043647297	-4.587000E+00	  0.043647297	-4.887100E+01	  0.043647297	5.701400E+01	  0.043647297	-7.765700E+01
120	  0.043847695	-4.585000E+00	  0.043847695	-4.901500E+01	  0.043847695	5.678300E+01	  0.043847695	-7.753900E+01
121	  0.044048097	-4.593000E+00	  0.044048097	-4.916800E+01	  0.044048097	5.659600E+01	  0.044048097	-7.732000E+01
122	  0.044248499	-4.599000E+00	  0.044248499	-4.935400E+01	  0.044248499	5.634700E+01	  0.044248499	-7.709000E+01
123	  0.044448901	-4.609000E+00	  0.044448901	-4.956900E+01	  0.044448901	5.608500E+01	  0.044448901	-7.679200E+01
124	  0.044649299	-4.617000E+00	  0.044649299	-4.980000E+01	  0.044649299	5.579000E+01	  0.044649299	-7.649700E+01
125	  0.044849701	-4.625000E+00	  0.044849701	-5.003600E+01	  0.044849701	5.548600E+01	  0.044849701	-7.620600E+01
126	  0.045050103	-4.632000E+00	  0.045050103	-5.030200E+01	  0.045050103	5.514100E+01	  0.045050103	-7.589200E+01
127	  0.045250501	-4.638000E+00	  0.045250501	-5.057200E+01	  0.045250501	5.478200E+01	  0.045250501	-7.559300E+01
128	  0.045450903	-4.634000E+00	  0.045450903	-5.084400E+01	  0.045450903	5.436800E+01	  0.045450903	-7.538000E+01
129	  0.045651305	-4.631000E+00	  0.045651305	-5.110400E+01	  0.045651305	5.397900E+01	  0.045651305	-7.517400E+01
130	  0.045851704	-4.622000E+00	  0.045851704	-5.137000E+01	  0.045851704	5.354700E+01	  0.045851704	-7.501700E+01
131	  0.046052106	-4.618000E+00	  0.046052106	-5.159600E+01	  0.046052106	5.320900E+01	  0.046052106	-7.484400E+01
132	  0.046252504	-4.613000E+00	  0.046252504	-5.181400E+01	  0.046252504	5.287900E+01	  0.046252504	-7.468500E+01
133	  0.046452906	-4.614000E+00	  0.046452906	-5.199100E+01	  0.046452906	5.263900E+01	  0.046452906	-7.451600E+01
134	  0.046653304	-4.619000E+00	  0.046653304	-5.222400E+01	  0.046653304	5.235500E+01	  0.046653304	-7.425300E+01
135	  0.046853706	-4.622000E+00	  0.046853706	-5.243900E+01	  0.046853706	5.207700E+01	  0.046853706	-7.403500E+01
136	  0.047054108	-4.629000E+00	  0.047054108	-5.267900E+01	  0.047054108	5.179900E+01	  0.047054108	-7.375200E+01
137	  0.047254506	-4.630000E+00	  0.047254506	-5.290700E+01	  0.047254506	5.150400E+01	  0.047254506	-7.353100E+01
138	  0.047454908	-4.631000E+00	  0.047454908	-5.314300E+01	  0.047454908	5.119800E+01	  0.047454908	-7.330900E+01
139	  0.047655310	-4.631000E+00	  0.047655310	-5.334300E+01	  0.047655310	5.094100E+01	  0.047655310	-7.311900E+01
140	  0.047855709	-4.634000E+00	  0.047855709	-5.359800E+01	  0.047855709	5.062400E+01	  0.047855709	-7.286600E+01
141	  0.048056111	-4.630000E+00	  0.048056111	-5.383600E+01	  0.048056111	5.029900E+01	  0.048056111	-7.267600E+01
142	  0.048256513	-4.629000E+00	  0.048256513	-5.406400E+01	  0.048256513	5.000400E+01	  0.048256513	-7.247600E+01
143	  0.048456915	-4.628000E+00	  0.048456915	-5.433200E+01	  0.048456915	4.966100E+01	  0.048456915	-7.223800E+01
144	  0.048657313	-4.624000E+00	  0.048657313	-5.453100E+01	  0.048657313	4.938500E+01	  0.048657313	-7.209400E+01
145	  0.048857715	-4.622000E+00	  0.048857715	-5.477500E+01	  0.048857715	4.907300E+01	  0.048857715	-7.188400E+01
146	  0.049058117	-4.618000E+00	  0.049058117	-5.492800E+01	  0.049058117	4.885900E+01	  0.049058117	-7.177600E+01
147	  0.049258515	-4.623000E+00	  0.049258515	-5.510500E+01	  0.049258515	4.867400E+01	  0.049258515	-7.157200E+01
148	  0.049458917	-4.628000E+00	  0.049458917	-5.528000E+01	  0.049458917	4.849300E+01	  0.049458917	-7.137300E+01
149	  0.049659319	-4.635000E+00	  0.049659319	-5.549400E+01	  0.049659319	4.827500E+01	  0.049659319	-7.112400E+01
150	  0.049859721	-4.641000E+00	  0.049859721	-5.570800E+01	  0.049859721	4.805900E+01	  0.049859721	-7.087700E+01
151	  0.050060119	-4.649000E+00	  0.050060119	-5.594400E+01	  0.050060119	4.782600E+01	  0.050060119	-7.060400E+01
152	  0.050260521	-4.658000E+00	  0.050260521	-5.617400E+01	  0.050260521	4.761200E+01	  0.050260521	-7.032400E+01
153	  0.050460923	-4.661000E+00	  0.050460923	-5.643800E+01	  0.050460923	4.731900E+01	  0.050460923	-7.006600E+01
154	  0.050661322	-4.661000E+00	  0.050661322	-5.670900E+01	  0.050661322	4.701100E+01	  0.050661322	-6.981600E+01
155	  0.050861724	-4.660000E+00	  0.050861724	-5.698100E+01	  0.050861724	4.669500E+01	  0.050861724	-6.957800E+01
156	  0.051062126	-4.653000E+00	  0.051062126	-5.725100E+01	  0.051062126	4.634500E+01	  0.051062126	-6.939200E+01
157	  0.051262524	-4.650000E+00	  0.051262524	-5.749900E+01	  0.051262524	4.605400E+01	  0.051262524	-6.918600E+01
158	  0.051462926	-4.648000E+00	  0.051462926	-5.772600E+01	  0.051462926	4.578600E+01	  0.051462926	-6.900200E+01
159	  0.051663328	-4.647000E+00	  0.051663328	-5.795200E+01	  0.051663328	4.553600E+01	  0.051663328	-6.880000E+01
160	  0.051863730	-4.648000E+00	  0.051863730	-5.816000E+01	  0.051863730	4.531300E+01	  0.051863730	-6.860800E+01
161	  0.052064128	-4.649000E+00	  0.052064128	-5.838800E+01	  0.052064128	4.507500E+01	  0.052064128	-6.839400E+01
162	  0.052264530	-4.658000E+00	  0.052264530	-5.862100E+01	  0.052264530	4.487500E+01	  0.052264530	-6.812600E+01
163	  0.052464932	-4.658000E+00	  0.052464932	-5.885000E+01	  0.052464932	4.463200E+01	  0.052464932	-6.791900E+01
164	  0.052665330	-4.657000E+00	  0.052665330	-5.906700E+01	  0.052665330	4.439700E+01	  0.052665330	-6.773400E+01
165	  0.052865732	-4.661000E+00	  0.052865732	-5.928500E+01	  0.052865732	4.419400E+01	  0.052865732	-6.750900E+01
166	  0.053066134	-4.660000E+00	  0.053066134	-5.951400E+01	  0.053066134	4.395400E+01	  0.053066134	-6.730900E+01
167	  0.053266536	-4.661000E+00	  0.053266536	-5.975400E+01	  0.053266536	4.371000E+01	  0.053266536	-6.709300E+01
168	  0.053466935	-4.663000E+00	  0.053466935	-6.001400E+01	  0.053466935	4.345700E+01	  0.053466935	-6.684800E+01
169	  0.053667337	-4.658000E+00	  0.053667337	-6.027700E+01	  0.053667337	4.316000E+01	  0.053667337	-6.665000E+01
170	  0.053867739	-4.659000E+00	  0.053867739	-6.053600E+01	  0.053867739	4.290600E+01	  0.053867739	-6.641500E+01
171	  0.054068137	-4.657000E+00	  0.054068137	-6.075000E+01	  0.054068137	4.268400E+01	  0.054068137	-6.623800E+01
172	  0.054268539	-4.653000E+00	  0.054268539	-6.095000E+01	  0.054268539	4.246700E+01	  0.054268539	-6.608400E+01
173	  0.054468941	-4.655000E+00	  0.054468941	-6.116500E+01	  0.054468941	4.226700E+01	  0.054468941	-6.588300E+01
174	  0.054669339	-4.655000E+00	  0.054669339	-6.135300E+01	  0.054669339	4.208700E+01	  0.054669339	-6.571500E+01
175	  0.054869737	-4.658000E+00	  0.054869737	-6.155900E+01	  0.054869737	4.190200E+01	  0.054869737	-6.551900E+01
176	  0.055070139	-4.663000E+00	  0.055070139	-6.175900E+01	  0.055070139	4.174200E+01	  0.055070139	-6.530900E+01
177	  0.055270538	-4.671000E+00	  0.055270538	-6.199400E+01	  0.055270538	4.156400E+01	  0.055270538	-6.505600E+01
178	  0.055470940	-4.677000E+00	  0.055470940	-6.221300E+01	  0.055470940	4.139200E+01	  0.055470940	-6.482800E+01
179	  0.055671342	-4.681000E+00	  0.055671342	-6.248800E+01	  0.055671342	4.115900E+01	  0.055671342	-6.456400E+01
180	  0.055871744	-4.681000E+00	  0.055871744	-6.275500E+01	  0.055871744	4.091400E+01	  0.055871744	-6.433100E+01
181	  0.056072142	-4.683000E+00	  0.056072142	-6.300000E+01	  0.056072142	4.070300E+01	  0.056072142	-6.410400E+01
182	  0.056272544	-4.680000E+00	  0.056272544	-6.329000E+01	  0.056272544	4.042500E+01	  0.056272544	-6.387100E+01
183	  0.056472946	-4.678000E+00	  0.056472946	-6.354400E+01	  0.056472946	4.018600E+01	  0.056472946	-6.366400E+01
184	  0.056673344	-4.674000E+00	  0.056673344	-6.378500E+01	  0.056673344	3.994600E+01	  0.056673344	-6.348200E+01
185	  0.056873746	-4.673000E+00	  0.056873746	-6.399700E+01	  0.056873746	3.975300E+01	  0.056873746	-6.330500E+01
186	  0.057074148	-4.673000E+00	  0.057074148	-6.419900E+01	  0.057074148	3.957600E+01	  0.057074148	-6.313300E+01
187	  0.057274550	-4.675000E+00	  0.057274550	-6.442800E+01	  0.057274550	3.938800E+01	  0.057274550	-6.292400E+01
188	  0.057474948	-4.671000E+00	  0.057474948	-6.465000E+01	  0.057474948	3.917600E+01	  0.057474948	-6.275500E+01
189	  0.057675350	-4.674000E+00	  0.057675350	-6.487500E+01	  0.057675350	3.899800E+01	  0.057675350	-6.254900E+01
190	  0.057875752	-4.674000E+00	  0.057875752	-6.508900E+01	  0.057875752	3.881800E+01	  0.057875752	-6.236400E+01
191	  0.058076151	-4.677000E+00	  0.058076151	-6.529900E+01	  0.058076151	3.865500E+01	  0.058076151	-6.217200E+01
192	  0.058276553	-4.677000E+00	  0.058276553	-6.553000E+01	  0.058276553	3.846500E+01	  0.058276553	-6.197400E+01
193	  0.058476955	-4.679000E+00	  0.058476955	-6.578000E+01	  0.058476955	3.826800E+01	  0.058476955	-6.175200E+01
194	  0.058677353	-4.680000E+00	  0.058677353	-6.599700E+01	  0.058677353	3.809800E+01	  0.058677353	-6.156000E+01
195	  0.058877755	-4.680000E+00	  0.058877755	-6.626200E+01	  0.058877755	3.788100E+01	  0.058877755	-6.133700E+01
196	  0.059078157	-4.680000E+00	  0.059078157	-6.650200E+01	  0.059078157	3.768400E+01	  0.059078157	-6.113900E+01
197	  0.059278559	-4.676000E+00	  0.059278559	-6.675900E+01	  0.059278559	3.745700E+01	  0.059278559	-6.094200E+01
198	  0.059478957	-4.674000E+00	  0.059478957	-6.698500E+01	  0.059478957	3.727100E+01	  0.059478957	-6.076000E+01
199	  0.059679359	-4.673000E+00	  0.059679359	-6.716000E+01	  0.059679359	3.712400E+01	  0.059679359	-6.062100E+01
200	  0.059879761	-4.674000E+00	  0.059879761	-6.737500E+01	  0.059879761	3.696000E+01	  0.059879761	-6.043800E+01
201	  0.060080159	-4.672000E+00	  0.060080159	-6.758000E+01	  0.060080159	3.679300E+01	  0.060080159	-6.027300E+01
202	  0.060280561	-4.673000E+00	  0.060280561	-6.778800E+01	  0.060280561	3.663800E+01	  0.060280561	-6.009600E+01
203	  0.060480963	-4.678000E+00	  0.060480963	-6.797900E+01	  0.060480963	3.651800E+01	  0.060480963	-5.991200E+01
204	  0.060681365	-4.684000E+00	  0.060681365	-6.822200E+01	  0.060681365	3.636800E+01	  0.060681365	-5.967900E+01
205	  0.060881764	-4.691000E+00	  0.060881764	-6.843500E+01	  0.060881764	3.624100E+01	  0.060881764	-5.947200E+01
206	  0.061082166	-4.692000E+00	  0.061082166	-6.870000E+01	  0.061082166	3.605000E+01	  0.061082166	-5.924700E+01
207	  0.061282568	-4.699000E+00	  0.061282568	-6.894800E+01	  0.061282568	3.590600E+01	  0.061282568	-5.900700E+01
208	  0.061482966	-4.695000E+00	  0.061482966	-6.920700E+01	  0.061482966	3.569100E+01	  0.061482966	-5.881800E+01
209	  0.061683368	-4.697000E+00	  0.061683368	-6.947200E+01	  0.061683368	3.551100E+01	  0.061683368	-5.858900E+01
210	  0.061883770	-4.698000E+00	  0.061883770	-6.972500E+01	  0.061883770	3.533100E+01	  0.061883770	-5.838100E+01
211	  0.062084168	-4.697000E+00	  0.062084168	-6.995900E+01	  0.062084168	3.516000E+01	  0.062084168	-5.819300E+01
212	  0.062284570	-4.695000E+00	  0.062284570	-7.017600E+01	  0.062284570	3.499300E+01	  0.062284570	-5.802800E+01
213	  0.062484972	-4.688000E+00	  0.062484972	-7.038200E+01	  0.062484972	3.481200E+01	  0.062484972	-5.789200E+01
214	  0.062685370	-4.686000E+00	  0.062685370	-7.059400E+01	  0.062685370	3.465200E+01	  0.062685370	-5.773100E+01
215	  0.062885776	-4.686000E+00	  0.062885776	-7.080500E+01	  0.062885776	3.450200E+01	  0.062885776	-5.756200E+01
216	  0.063086174	-4.684000E+00	  0.063086174	-7.100500E+01	  0.063086174	3.435500E+01	  0.063086174	-5.740800E+01
217	  0.063286573	-4.684000E+00	  0.063286573	-7.124800E+01	  0.063286573	3.418900E+01	  0.063286573	-5.721200E+01
218	  0.063486971	-4.685000E+00	  0.063486971	-7.146900E+01	  0.063486971	3.404100E+01	  0.063486971	-5.703300E+01
219	  0.063687377	-4.686000E+00	  0.063687377	-7.168000E+01	  0.063687377	3.390500E+01	  0.063687377	-5.686000E+01
220	  0.063887775	-4.689000E+00	  0.063887775	-7.190600E+01	  0.063887775	3.376900E+01	  0.063887775	-5.666600E+01
221	  0.064088173	-4.688000E+00	  0.064088173	-7.214900E+01	  0.064088173	3.360300E+01	  0.064088173	-5.647600E+01
222	  0.064288579	-4.686000E+00	  0.064288579	-7.239100E+01	  0.064288579	3.343600E+01	  0.064288579	-5.628900E+01
223	  0.064488977	-4.684000E+00	  0.064488977	-7.260500E+01	  0.064488977	3.328100E+01	  0.064488977	-5.613100E+01
224	  0.064689375	-4.683000E+00	  0.064689375	-7.282500E+01	  0.064689375	3.313500E+01	  0.064689375	-5.596000E+01
225	  0.064889781	-4.681000E+00	  0.064889781	-7.304200E+01	  0.064889781	3.298200E+01	  0.064889781	-5.579900E+01
226	  0.065090179	-4.681000E+00	  0.065090179	-7.326900E+01	  0.065090179	3.283700E+01	  0.065090179	-5.562000E+01
227	  0.065290578	-4.675000E+00	  0.065290578	-7.342200E+01	  0.065290578	3.270900E+01	  0.065290578	-5.552400E+01
228	  0.065490983	-4.675000E+00	  0.065490983	-7.361800E+01	  0.065490983	3.258800E+01	  0.065490983	-5.536800E+01
229	  0.065691382	-4.679000E+00	  0.065691382	-7.382600E+01	  0.065691382	3.247700E+01	  0.065691382	-5.518800E+01
230	  0.065891780	-4.680000E+00	  0.065891780	-7.399300E+01	  0.065891780	3.237900E+01	  0.065891780	-5.505300E+01
231	  0.066092186	-4.686000E+00	  0.066092186	-7.419400E+01	  0.066092186	3.228600E+01	  0.066092186	-5.487000E+01
232	  0.066292584	-4.691000E+00	  0.066292584	-7.443400E+01	  0.066292584	3.216400E+01	  0.066292584	-5.466300E+01
233	  0.066492982	-4.692000E+00	  0.066492982	-7.464300E+01	  0.066492982	3.204000E+01	  0.066492982	-5.449800E+01
234	  0.066693388	-4.700000E+00	  0.066693388	-7.485700E+01	  0.066693388	3.195000E+01	  0.066693388	-5.430100E+01
235	  0.066893786	-4.704000E+00	  0.066893786	-7.513900E+01	  0.066893786	3.180300E+01	  0.066893786	-5.406600E+01
236	  0.067094192	-4.701000E+00	  0.067094192	-7.536900E+01	  0.067094192	3.164700E+01	  0.067094192	-5.390200E+01
237	  0.067294590	-4.705000E+00	  0.067294590	-7.562300E+01	  0.067294590	3.152000E+01	  0.067294590	-5.369000E+01
238	  0.067494988	-4.704000E+00	  0.067494988	-7.589000E+01	  0.067494988	3.135700E+01	  0.067494988	-5.349000E+01
239	  0.067695394	-4.713000E+00	  0.067695394	-7.610400E+01	  0.067695394	3.127600E+01	  0.067695394	-5.329300E+01
240	  0.067895792	-4.712000E+00	  0.067895792	-7.633100E+01	  0.067895792	3.114100E+01	  0.067895792	-5.312400E+01
241	  0.068096191	-4.712000E+00	  0.068096191	-7.658400E+01	  0.068096191	3.099600E+01	  0.068096191	-5.293100E+01
242	  0.068296596	-4.717000E+00	  0.068296596	-7.681400E+01	  0.068296596	3.088700E+01	  0.068296596	-5.274100E+01
243	  0.068496995	-4.719000E+00	  0.068496995	-7.700900E+01	  0.068496995	3.078900E+01	  0.068496995	-5.258400E+01
244	  0.068697393	-4.721000E+00	  0.068697393	-7.724300E+01	  0.068697393	3.066700E+01	  0.068697393	-5.240000E+01
245	  0.068897791	-4.724000E+00	  0.068897791	-7.750600E+01	  0.068897791	3.053300E+01	  0.068897791	-5.219400E+01
246	  0.069098189	-4.728000E+00	  0.069098189	-7.776300E+01	  0.069098189	3.040800E+01	  0.069098189	-5.198900E+01
247	  0.069298595	-4.728000E+00	  0.069298595	-7.803500E+01	  0.069298595	3.025900E+01	  0.069298595	-5.178500E+01
248	  0.069498993	-4.733000E+00	  0.069498993	-7.830400E+01	  0.069498993	3.013700E+01	  0.069498993	-5.156800E+01
249	  0.069699399	-4.734000E+00	  0.069699399	-7.851800E+01	  0.069699399	3.002700E+01	  0.069699399	-5.140400E+01
250	  0.069899797	-4.730000E+00	  0.069899797	-7.877700E+01	  0.069899797	2.986900E+01	  0.069899797	-5.122700E+01
251	  0.070100196	-4.732000E+00	  0.070100196	-7.902100E+01	  0.070100196	2.975000E+01	  0.070100196	-5.103800E+01
252	  0.070300601	-4.734000E+00	  0.070300601	-7.927000E+01	  0.070300601	2.962600E+01	  0.070300601	-5.085000E+01
253	  0.070501000	-4.725000E+00	  0.070501000	-7.949500E+01	  0.070501000	2.946700E+01	  0.070501000	-5.071500E+01
254	  0.070701398	-4.724000E+00	  0.070701398	-7.974900E+01	  0.070701398	2.933100E+01	  0.070701398	-5.053100E+01
255	  0.070901804	-4.725000E+00	  0.070901804	-7.995900E+01	  0.070901804	2.922400E+01	  0.070901804	-5.037700E+01
256	  0.071102202	-4.724000E+00	  0.071102202	-8.014700E+01	  0.071102202	2.912700E+01	  0.071102202	-5.024000E+01
257	  0.071302600	-4.724000E+00	  0.071302600	-8.037800E+01	  0.071302600	2.900500E+01	  0.071302600	-5.007500E+01
258	  0.071503006	-4.729000E+00	  0.071503006	-8.060400E+01	  0.071503006	2.891900E+01	  0.071503006	-4.989100E+01
259	  0.071703404	-4.726000E+00	  0.071703404	-8.081100E+01	  0.071703404	2.880000E+01	  0.071703404	-4.975300E+01
260	  0.071903802	-4.731000E+00	  0.071903802	-8.106700E+01	  0.071903802	2.869400E+01	  0.071903802	-4.955200E+01
261	  0.072104208	-4.732000E+00	  0.072104208	-8.129400E+01	  0.072104208	2.858700E+01	  0.072104208	-4.938500E+01
262	  0.072304606	-4.730000E+00	  0.072304606	-8.155200E+01	  0.072304606	2.845400E+01	  0.072304606	-4.920400E+01
263	  0.072505005	-4.736000E+00	  0.072505005	-8.178500E+01	  0.072505005	2.836700E+01	  0.072505005	-4.901900E+01
264	  0.072705410	-4.733000E+00	  0.072705410	-8.204100E+01	  0.072705410	2.822600E+01	  0.072705410	-4.884700E+01
265	  0.072905809	-4.733000E+00	  0.072905809	-8.226400E+01	  0.072905809	2.812300E+01	  0.072905809	-4.868600E+01
266	  0.073106214	-4.729000E+00	  0.073106214	-8.247200E+01	  0.073106214	2.800300E+01	  0.073106214	-4.855200E+01
267	  0.073306613	-4.732000E+00	  0.073306613	-8.272000E+01	  0.073306613	2.790000E+01	  0.073306613	-4.836700E+01
268	  0.073507011	-4.728000E+00	  0.073507011	-8.295700E+01	  0.073507011	2.777300E+01	  0.073507011	-4.821000E+01
269	  0.073707417	-4.726000E+00	  0.073707417	-8.314600E+01	  0.073707417	2.767500E+01	  0.073707417	-4.808200E+01
270	  0.073907815	-4.726000E+00	  0.073907815	-8.339400E+01	  0.073907815	2.755900E+01	  0.073907815	-4.790800E+01
271	  0.074108213	-4.727000E+00	  0.074108213	-8.358000E+01	  0.074108213	2.747900E+01	  0.074108213	-4.777400E+01
272	  0.074308619	-4.731000E+00	  0.074308619	-8.382100E+01	  0.074308619	2.738600E+01	  0.074308619	-4.759400E+01
273	  0.074509017	-4.737000E+00	  0.074509017	-8.406600E+01	  0.074509017	2.730500E+01	  0.074509017	-4.740300E+01
274	  0.074709415	-4.734000E+00	  0.074709415	-8.427700E+01	  0.074709415	2.719300E+01	  0.074709415	-4.726600E+01
275	  0.074909821	-4.739000E+00	  0.074909821	-8.452900E+01	  0.074909821	2.710300E+01	  0.074909821	-4.707700E+01
276	  0.075110219	-4.742000E+00	  0.075110219	-8.479100E+01	  0.075110219	2.700000E+01	  0.075110219	-4.688600E+01
277	  0.075310618	-4.744000E+00	  0.075310618	-8.504200E+01	  0.075310618	2.690000E+01	  0.075310618	-4.670600E+01
278	  0.075511023	-4.742000E+00	  0.075511023	-8.526600E+01	  0.075511023	2.679200E+01	  0.075511023	-4.655800E+01
279	  0.075711422	-4.744000E+00	  0.075711422	-8.550500E+01	  0.075711422	2.669700E+01	  0.075711422	-4.638800E+01
280	  0.075911827	-4.744000E+00	  0.075911827	-8.574100E+01	  0.075911827	2.659500E+01	  0.075911827	-4.622600E+01
281	  0.076112226	-4.736000E+00	  0.076112226	-8.596800E+01	  0.076112226	2.646600E+01	  0.076112226	-4.609000E+01
282	  0.076312624	-4.735000E+00	  0.076312624	-8.615400E+01	  0.076312624	2.637900E+01	  0.076312624	-4.596800E+01
283	  0.076513030	-4.737000E+00	  0.076513030	-8.638300E+01	  0.076513030	2.629500E+01	  0.076513030	-4.580400E+01
284	  0.076713428	-4.742000E+00	  0.076713428	-8.659500E+01	  0.076713428	2.622500E+01	  0.076713428	-4.564700E+01
285	  0.076913826	-4.743000E+00	  0.076913826	-8.678500E+01	  0.076913826	2.615200E+01	  0.076913826	-4.551500E+01
286	  0.077114232	-4.746000E+00	  0.077114232	-8.700900E+01	  0.077114232	2.607300E+01	  0.077114232	-4.535500E+01
287	  0.077314630	-4.749000E+00	  0.077314630	-8.723600E+01	  0.077314630	2.599300E+01	  0.077314630	-4.519300E+01
288	  0.077515028	-4.753000E+00	  0.077515028	-8.748600E+01	  0.077515028	2.590700E+01	  0.077515028	-4.501500E+01
289	  0.077715434	-4.764000E+00	  0.077715434	-8.771000E+01	  0.077715434	2.586400E+01	  0.077715434	-4.483600E+01
290	  0.077915832	-4.763000E+00	  0.077915832	-8.795200E+01	  0.077915832	2.576200E+01	  0.077915832	-4.467700E+01
291	  0.078116231	-4.766000E+00	  0.078116231	-8.818000E+01	  0.078116231	2.568400E+01	  0.078116231	-4.451600E+01
292	  0.078316636	-4.770000E+00	  0.078316636	-8.843700E+01	  0.078316636	2.560300E+01	  0.078316636	-4.433300E+01
293	  0.078517035	-4.765000E+00	  0.078517035	-8.868100E+01	  0.078517035	2.548200E+01	  0.078517035	-4.418500E+01
294	  0.078717433	-4.760000E+00	  0.078717433	-8.890200E+01	  0.078717433	2.537300E+01	  0.078717433	-4.405200E+01
295	  0.078917839	-4.763000E+00	  0.078917839	-8.914700E+01	  0.078917839	2.529100E+01	  0.078917839	-4.388100E+01
296	  0.079118237	-4.762000E+00	  0.079118237	-8.935800E+01	  0.079118237	2.520600E+01	  0.079118237	-4.374400E+01
297	  0.079318643	-4.760000E+00	  0.079318643	-8.961700E+01	  0.079318643	2.509900E+01	  0.079318643	-4.357900E+01
298	  0.079519041	-4.764000E+00	  0.079519041	-8.981500E+01	  0.079519041	2.504200E+01	  0.079519041	-4.343800E+01
299	  0.079719439	-4.763000E+00	  0.079719439	-9.006500E+01	  0.079719439	2.494200E+01	  0.079719439	-4.327600E+01
300	  0.079919845	-4.765000E+00	  0.079919845	-9.030300E+01	  0.079919845	2.485900E+01	  0.079919845	-4.311700E+01
301	  0.080120243	-4.771000E+00	  0.080120243	-9.056300E+01	  0.080120243	2.479200E+01	  0.080120243	-4.293100E+01
302	  0.080320641	-4.767000E+00	  0.080320641	-9.078900E+01	  0.080320641	2.469000E+01	  0.080320641	-4.279500E+01
303	  0.080521047	-4.770000E+00	  0.080521047	-9.103100E+01	  0.080521047	2.461300E+01	  0.080521047	-4.263100E+01
304	  0.080721445	-4.776000E+00	  0.080721445	-9.129900E+01	  0.080721445	2.454200E+01	  0.080721445	-4.244200E+01
305	  0.080921844	-4.774000E+00	  0.080921844	-9.157500E+01	  0.080921844	2.443100E+01	  0.080921844	-4.227000E+01
306	  0.081122249	-4.768000E+00	  0.081122249	-9.182600E+01	  0.081122249	2.431500E+01	  0.081122249	-4.212400E+01
307	  0.081322648	-4.767000E+00	  0.081322648	-9.207100E+01	  0.081322648	2.422600E+01	  0.081322648	-4.196700E+01
308	  0.081523046	-4.765000E+00	  0.081523046	-9.230200E+01	  0.081523046	2.413500E+01	  0.081523046	-4.182400E+01
309	  0.081723452	-4.765000E+00	  0.081723452	-9.254000E+01	  0.081723452	2.405100E+01	  0.081723452	-4.167200E+01
310	  0.081923850	-4.762000E+00	  0.081923850	-9.274300E+01	  0.081923850	2.396800E+01	  0.081923850	-4.155000E+01
311	  0.082124248	-4.762000E+00	  0.082124248	-9.298900E+01	  0.082124248	2.388200E+01	  0.082124248	-4.139300E+01
312	  0.082324654	-4.763000E+00	  0.082324654	-9.320400E+01	  0.082324654	2.381300E+01	  0.082324654	-4.125400E+01
313	  0.082525052	-4.766000E+00	  0.082525052	-9.340500E+01	  0.082525052	2.375600E+01	  0.082525052	-4.112100E+01
314	  0.082725458	-4.771000E+00	  0.082725458	-9.366400E+01	  0.082725458	2.368800E+01	  0.082725458	-4.094600E+01
315	  0.082925856	-4.775000E+00	  0.082925856	-9.388800E+01	  0.082925856	2.363200E+01	  0.082925856	-4.079500E+01
316	  0.083126254	-4.779000E+00	  0.083126254	-9.412700E+01	  0.083126254	2.356700E+01	  0.083126254	-4.063600E+01
317	  0.083326660	-4.780000E+00	  0.083326660	-9.437600E+01	  0.083326660	2.348600E+01	  0.083326660	-4.047900E+01
318	  0.083527058	-4.777000E+00	  0.083527058	-9.461300E+01	  0.083527058	2.339900E+01	  0.083527058	-4.033500E+01
319	  0.083727457	-4.775000E+00	  0.083727457	-9.484600E+01	  0.083727457	2.331300E+01	  0.083727457	-4.019500E+01
320	  0.083927862	-4.774000E+00	  0.083927862	-9.506500E+01	  0.083927862	2.323900E+01	  0.083927862	-4.006000E+01
321	  0.084128261	-4.772000E+00	  0.084128261	-9.528500E+01	  0.084128261	2.315800E+01	  0.084128261	-3.992800E+01
322	  0.084328659	-4.774000E+00	  0.084328659	-9.549800E+01	  0.084328659	2.309700E+01	  0.084328659	-3.979200E+01
323	  0.084529065	-4.769000E+00	  0.084529065	-9.572000E+01	  0.084529065	2.300500E+01	  0.084529065	-3.966500E+01
324	  0.084729463	-4.773000E+00	  0.084729463	-9.593900E+01	  0.084729463	2.295200E+01	  0.084729463	-3.952200E+01
325	  0.084929861	-4.774000E+00	  0.084929861	-9.612600E+01	  0.084929861	2.290000E+01	  0.084929861	-3.940300E+01
326	  0.085130267	-4.774000E+00	  0.085130267	-9.635700E+01	  0.085130267	2.282300E+01	  0.085130267	-3.926300E+01
327	  0.085330658	-4.777000E+00	  0.085330658	-9.655900E+01	  0.085330658	2.277500E+01	  0.085330658	-3.913100E+01
328	  0.085531056	-4.779000E+00	  0.085531056	-9.678800E+01	  0.085531056	2.271100E+01	  0.085531056	-3.898700E+01
329	  0.085731462	-4.782000E+00	  0.085731462	-9.697400E+01	  0.085731462	2.266500E+01	  0.085731462	-3.886900E+01
330	  0.085931860	-4.785000E+00	  0.085931860	-9.723200E+01	  0.085931860	2.259900E+01	  0.085931860	-3.870400E+01
331	  0.086132258	-4.791000E+00	  0.086132258	-9.748200E+01	  0.086132258	2.254700E+01	  0.086132258	-3.854000E+01
332	  0.086332664	-4.789000E+00	  0.086332664	-9.772800E+01	  0.086332664	2.246600E+01	  0.086332664	-3.839400E+01
333	  0.086533062	-4.786000E+00	  0.086533062	-9.796000E+01	  0.086533062	2.238300E+01	  0.086533062	-3.826100E+01
334	  0.086733460	-4.788000E+00	  0.086733460	-9.819000E+01	  0.086733460	2.232400E+01	  0.086733460	-3.811700E+01
335	  0.086933866	-4.786000E+00	  0.086933866	-9.843600E+01	  0.086933866	2.224300E+01	  0.086933866	-3.797300E+01
336	  0.087134264	-4.782000E+00	  0.087134264	-9.862600E+01	  0.087134264	2.217100E+01	  0.087134264	-3.786700E+01
337	  0.087334670	-4.791000E+00	  0.087334670	-9.888700E+01	  0.087334670	2.212900E+01	  0.087334670	-3.769400E+01
338	  0.087535068	-4.788000E+00	  0.087535068	-9.914000E+01	  0.087535068	2.204400E+01	  0.087535068	-3.754800E+01
339	  0.087735467	-4.790000E+00	  0.087735467	-9.934800E+01	  0.087735467	2.199200E+01	  0.087735467	-3.742000E+01
340	  0.087935872	-4.797000E+00	  0.087935872	-9.957900E+01	  0.087935872	2.195200E+01	  0.087935872	-3.727000E+01
341	  0.088136271	-4.801000E+00	  0.088136271	-9.983300E+01	  0.088136271	2.189900E+01	  0.088136271	-3.711000E+01
342	  0.088336669	-4.807000E+00	  0.088336669	-1.000900E+02	  0.088336669	2.184600E+01	  0.088336669	-3.694800E+01
343	  0.088537075	-4.807000E+00	  0.088537075	-1.003240E+02	  0.088537075	2.178100E+01	  0.088537075	-3.680900E+01
344	  0.088737473	-4.815000E+00	  0.088737473	-1.005900E+02	  0.088737473	2.173900E+01	  0.088737473	-3.663800E+01
345	  0.088937871	-4.815000E+00	  0.088937871	-1.008920E+02	  0.088937871	2.165700E+01	  0.088937871	-3.646000E+01
346	  0.089138277	-4.818000E+00	  0.089138277	-1.011400E+02	  0.089138277	2.159800E+01	  0.089138277	-3.631000E+01
347	  0.089338675	-4.812000E+00	  0.089338675	-1.014200E+02	  0.089338675	2.150000E+01	  0.089338675	-3.615600E+01
348	  0.089539073	-4.811000E+00	  0.089539073	-1.016580E+02	  0.089539073	2.143000E+01	  0.089539073	-3.602000E+01
349	  0.089739479	-4.807000E+00	  0.089739479	-1.018940E+02	  0.089739479	2.135300E+01	  0.089739479	-3.588900E+01
350	  0.089939877	-4.809000E+00	  0.089939877	-1.021240E+02	  0.089939877	2.129900E+01	  0.089939877	-3.575200E+01
351	  0.090140276	-4.805000E+00	  0.090140276	-1.023770E+02	  0.090140276	2.121600E+01	  0.090140276	-3.561300E+01
352	  0.090340681	-4.808000E+00	  0.090340681	-1.025910E+02	  0.090340681	2.117300E+01	  0.090340681	-3.548300E+01
353	  0.090541080	-4.806000E+00	  0.090541080	-1.028550E+02	  0.090541080	2.109600E+01	  0.090541080	-3.533400E+01
354	  0.090741485	-4.814000E+00	  0.090741485	-1.030780E+02	  0.090741485	2.106600E+01	  0.090741485	-3.519300E+01
355	  0.090941884	-4.812000E+00	  0.090941884	-1.033000E+02	  0.090941884	2.100200E+01	  0.090941884	-3.506900E+01
356	  0.091142282	-4.815000E+00	  0.091142282	-1.035610E+02	  0.091142282	2.094800E+01	  0.091142282	-3.491300E+01
357	  0.091342688	-4.818000E+00	  0.091342688	-1.037590E+02	  0.091342688	2.090700E+01	  0.091342688	-3.479600E+01
358	  0.091543086	-4.816000E+00	  0.091543086	-1.040380E+02	  0.091543086	2.083000E+01	  0.091543086	-3.463900E+01
359	  0.091743484	-4.818000E+00	  0.091743484	-1.042580E+02	  0.091743484	2.078200E+01	  0.091743484	-3.451100E+01
360	  0.091943890	-4.815000E+00	  0.091943890	-1.045110E+02	  0.091943890	2.070800E+01	  0.091943890	-3.437200E+01
361	  0.092144288	-4.814000E+00	  0.092144288	-1.047090E+02	  0.092144288	2.065700E+01	  0.092144288	-3.426100E+01
362	  0.092344686	-4.808000E+00	  0.092344686	-1.049240E+02	  0.092344686	2.058100E+01	  0.092344686	-3.414900E+01
363	  0.092545092	-4.812000E+00	  0.092545092	-1.051550E+02	  0.092545092	2.053900E+01	  0.092545092	-3.401200E+01
364	  0.092745490	-4.808000E+00	  0.092745490	-1.053890E+02	  0.092745490	2.046700E+01	  0.092745490	-3.388700E+01
365	  0.092945889	-4.812000E+00	  0.092945889	-1.055860E+02	  0.092945889	2.043300E+01	  0.092945889	-3.377000E+01
366	  0.093146294	-4.808000E+00	  0.093146294	-1.058080E+02	  0.093146294	2.036500E+01	  0.093146294	-3.365200E+01
367	  0.093346693	-4.818000E+00	  0.093346693	-1.060340E+02	  0.093346693	2.035000E+01	  0.093346693	-3.350800E+01
368	  0.093547091	-4.817000E+00	  0.093547091	-1.062480E+02	  0.093547091	2.029300E+01	  0.093547091	-3.339100E+01
369	  0.093747497	-4.822000E+00	  0.093747497	-1.064850E+02	  0.093747497	2.025500E+01	  0.093747497	-3.325100E+01
370	  0.093947895	-4.825000E+00	  0.093947895	-1.067000E+02	  0.093947895	2.021900E+01	  0.093947895	-3.312500E+01
371	  0.094148301	-4.827000E+00	  0.094148301	-1.069630E+02	  0.094148301	2.016200E+01	  0.094148301	-3.297700E+01
372	  0.094348699	-4.830000E+00	  0.094348699	-1.072290E+02	  0.094348699	2.011200E+01	  0.094348699	-3.282500E+01
373	  0.094549097	-4.825000E+00	  0.094549097	-1.074790E+02	  0.094549097	2.003700E+01	  0.094549097	-3.269400E+01
374	  0.094749503	-4.826000E+00	  0.094749503	-1.077350E+02	  0.094749503	1.998200E+01	  0.094749503	-3.255200E+01
375	  0.094949901	-4.821000E+00	  0.094949901	-1.079510E+02	  0.094949901	1.991600E+01	  0.094949901	-3.244000E+01
376	  0.095150299	-4.823000E+00	  0.095150299	-1.081860E+02	  0.095150299	1.986900E+01	  0.095150299	-3.230800E+01
377	  0.095350705	-4.821000E+00	  0.095350705	-1.084130E+02	  0.095350705	1.981100E+01	  0.095350705	-3.218600E+01
378	  0.095551103	-4.818000E+00	  0.095551103	-1.086300E+02	  0.095551103	1.975400E+01	  0.095551103	-3.207100E+01
379	  0.095751502	-4.821000E+00	  0.095751502	-1.088610E+02	  0.095751502	1.971200E+01	  0.095751502	-3.194000E+01
380	  0.095951907	-4.820000E+00	  0.095951907	-1.090890E+02	  0.095951907	1.966000E+01	  0.095951907	-3.181700E+01
381	  0.096152306	-4.825000E+00	  0.096152306	-1.093020E+02	  0.096152306	1.963200E+01	  0.096152306	-3.169300E+01
382	  0.096352704	-4.827000E+00	  0.096352704	-1.095410E+02	  0.096352704	1.958800E+01	  0.096352704	-3.156000E+01
383	  0.096553110	-4.826000E+00	  0.096553110	-1.097560E+02	  0.096553110	1.953600E+01	  0.096553110	-3.144600E+01
384	  0.096753508	-4.829000E+00	  0.096753508	-1.099780E+02	  0.096753508	1.949900E+01	  0.096753508	-3.132100E+01
385	  0.096953906	-4.826000E+00	  0.096953906	-1.101830E+02	  0.096953906	1.944500E+01	  0.096953906	-3.121500E+01
386	  0.097154312	-4.829000E+00	  0.097154312	-1.104240E+02	  0.097154312	1.940300E+01	  0.097154312	-3.108100E+01
387	  0.097354710	-4.828000E+00	  0.097354710	-1.106280E+02	  0.097354710	1.936000E+01	  0.097354710	-3.097100E+01
388	  0.097555116	-4.829000E+00	  0.097555116	-1.108480E+02	  0.097555116	1.931600E+01	  0.097555116	-3.085200E+01
389	  0.097755514	-4.835000E+00	  0.097755514	-1.110540E+02	  0.097755514	1.929600E+01	  0.097755514	-3.073300E+01
390	  0.097955912	-4.835000E+00	  0.097955912	-1.112920E+02	  0.097955912	1.924600E+01	  0.097955912	-3.060600E+01
391	  0.098156318	-4.833000E+00	  0.098156318	-1.114960E+02	  0.098156318	1.919800E+01	  0.098156318	-3.049900E+01
392	  0.098356716	-4.841000E+00	  0.098356716	-1.117030E+02	  0.098356716	1.918300E+01	  0.098356716	-3.037800E+01
393	  0.098557115	-4.844000E+00	  0.098557115	-1.119060E+02	  0.098557115	1.915100E+01	  0.098557115	-3.026600E+01
394	  0.098757520	-4.851000E+00	  0.098757520	-1.121290E+02	  0.098757520	1.913200E+01	  0.098757520	-3.013800E+01
395	  0.098957919	-4.858000E+00	  0.098957919	-1.123610E+02	  0.098957919	1.910900E+01	  0.098957919	-3.000600E+01
396	  0.099158317	-4.863000E+00	  0.099158317	-1.126190E+02	  0.099158317	1.907600E+01	  0.099158317	-2.986200E+01
397	  0.099358723	-4.866000E+00	  0.099358723	-1.128660E+02	  0.099358723	1.903800E+01	  0.099358723	-2.972800E+01
398	  0.099559121	-4.872000E+00	  0.099559121	-1.131390E+02	  0.099559121	1.900500E+01	  0.099559121	-2.957600E+01
399	  0.099759519	-4.869000E+00	  0.099759519	-1.133850E+02	  0.099759519	1.894500E+01	  0.099759519	-2.945200E+01
400	  0.099959925	-4.879000E+00	  0.099959925	-1.136490E+02	  0.099959925	1.893100E+01	  0.099959925	-2.929900E+01
401	  0.100160323	-4.864000E+00	  0.100160323	-1.139640E+02	  0.100160323	1.881700E+01	  0.100160323	-2.915400E+01
402	  0.100360721	-4.872000E+00	  0.100360721	-1.141920E+02	  0.100360721	1.880200E+01	  0.100360721	-2.902500E+01
403	  0.100561127	-4.870000E+00	  0.100561127	-1.144590E+02	  0.100561127	1.874200E+01	  0.100561127	-2.888900E+01
404	  0.100761525	-4.867000E+00	  0.100761525	-1.147810E+02	  0.100761525	1.867100E+01	  0.100761525	-2.872600E+01
405	  0.100961931	-4.860000E+00	  0.100961931	-1.150580E+02	  0.100961931	1.859800E+01	  0.100961931	-2.858900E+01
406	  0.101162329	-4.866000E+00	  0.101162329	-1.153230E+02	  0.101162329	1.856800E+01	  0.101162329	-2.844500E+01
407	  0.101362728	-4.857000E+00	  0.101362728	-1.156050E+02	  0.101362728	1.848600E+01	  0.101362728	-2.831000E+01
408	  0.101563133	-4.854000E+00	  0.101563133	-1.158690E+02	  0.101563133	1.842700E+01	  0.101563133	-2.817800E+01
409	  0.101763532	-4.853000E+00	  0.101763532	-1.160920E+02	  0.101763532	1.838300E+01	  0.101763532	-2.806400E+01
410	  0.101963930	-4.858000E+00	  0.101963930	-1.163720E+02	  0.101963930	1.835200E+01	  0.101963930	-2.791300E+01
411	  0.102164336	-4.845000E+00	  0.102164336	-1.166240E+02	  0.102164336	1.826200E+01	  0.102164336	-2.780000E+01
412	  0.102364734	-4.840000E+00	  0.102364734	-1.168400E+02	  0.102364734	1.820500E+01	  0.102364734	-2.769600E+01
413	  0.102565132	-4.842000E+00	  0.102565132	-1.171090E+02	  0.102565132	1.816600E+01	  0.102565132	-2.755500E+01
414	  0.102765530	-4.834000E+00	  0.102765530	-1.173020E+02	  0.102765530	1.810600E+01	  0.102765530	-2.746500E+01
415	  0.102965929	-4.833000E+00	  0.102965929	-1.175560E+02	  0.102965929	1.806000E+01	  0.102965929	-2.733700E+01
416	  0.103166327	-4.834000E+00	  0.103166327	-1.177470E+02	  0.103166327	1.802900E+01	  0.103166327	-2.723900E+01
417	  0.103366733	-4.833000E+00	  0.103366733	-1.179390E+02	  0.103366733	1.799400E+01	  0.103366733	-2.714200E+01
418	  0.103567131	-4.834000E+00	  0.103567131	-1.181610E+02	  0.103567131	1.795900E+01	  0.103567131	-2.702800E+01
419	  0.103767529	-4.829000E+00	  0.103767529	-1.183340E+02	  0.103767529	1.791300E+01	  0.103767529	-2.694600E+01
420	  0.103967935	-4.837000E+00	  0.103967935	-1.185220E+02	  0.103967935	1.790800E+01	  0.103967935	-2.684200E+01
421	  0.104168333	-4.837000E+00	  0.104168333	-1.187000E+02	  0.104168333	1.787600E+01	  0.104168333	-2.675200E+01
422	  0.104368731	-4.848000E+00	  0.104368731	-1.189310E+02	  0.104368731	1.787700E+01	  0.104368731	-2.662300E+01
423	  0.104569137	-4.850000E+00	  0.104569137	-1.191120E+02	  0.104569137	1.785200E+01	  0.104569137	-2.653000E+01
424	  0.104769535	-4.855000E+00	  0.104769535	-1.192920E+02	  0.104769535	1.784000E+01	  0.104769535	-2.643300E+01
425	  0.104969934	-4.859000E+00	  0.104969934	-1.195240E+02	  0.104969934	1.781500E+01	  0.104969934	-2.631300E+01
426	  0.105170339	-4.867000E+00	  0.105170339	-1.197690E+02	  0.105170339	1.780200E+01	  0.105170339	-2.618100E+01
427	  0.105370738	-4.867000E+00	  0.105370738	-1.200250E+02	  0.105370738	1.776000E+01	  0.105370738	-2.605300E+01
428	  0.105571143	-4.882000E+00	  0.105571143	-1.202520E+02	  0.105571143	1.777200E+01	  0.105571143	-2.592400E+01
429	  0.105771542	-4.876000E+00	  0.105771542	-1.204920E+02	  0.105771542	1.771300E+01	  0.105771542	-2.581100E+01
430	  0.105971940	-4.882000E+00	  0.105971940	-1.207460E+02	  0.105971940	1.769500E+01	  0.105971940	-2.567800E+01
431	  0.106172346	-4.873000E+00	  0.106172346	-1.210050E+02	  0.106172346	1.762200E+01	  0.106172346	-2.555900E+01
432	  0.106372744	-4.887000E+00	  0.106372744	-1.212430E+02	  0.106372744	1.763200E+01	  0.106372744	-2.542600E+01
433	  0.106573142	-4.890000E+00	  0.106573142	-1.215430E+02	  0.106573142	1.759400E+01	  0.106573142	-2.527600E+01
434	  0.106773548	-4.889000E+00	  0.106773548	-1.217970E+02	  0.106773548	1.755300E+01	  0.106773548	-2.515100E+01
435	  0.106973946	-4.889000E+00	  0.106973946	-1.220650E+02	  0.106973946	1.751100E+01	  0.106973946	-2.501900E+01
436	  0.107174344	-4.884000E+00	  0.107174344	-1.223260E+02	  0.107174344	1.745400E+01	  0.107174344	-2.489600E+01
437	  0.107374750	-4.877000E+00	  0.107374750	-1.226170E+02	  0.107374750	1.738800E+01	  0.107374750	-2.476000E+01
438	  0.107575148	-4.880000E+00	  0.107575148	-1.229120E+02	  0.107575148	1.735500E+01	  0.107575148	-2.461200E+01
439	  0.107775547	-4.870000E+00	  0.107775547	-1.231110E+02	  0.107775547	1.729300E+01	  0.107775547	-2.452400E+01
440	  0.107975952	-4.869000E+00	  0.107975952	-1.233850E+02	  0.107975952	1.724800E+01	  0.107975952	-2.439200E+01
441	  0.108176351	-4.866000E+00	  0.108176351	-1.235990E+02	  0.108176351	1.720800E+01	  0.108176351	-2.429000E+01
442	  0.108376749	-4.870000E+00	  0.108376749	-1.238060E+02	  0.108376749	1.719000E+01	  0.108376749	-2.418600E+01
443	  0.108577155	-4.860000E+00	  0.108577155	-1.240820E+02	  0.108577155	1.711700E+01	  0.108577155	-2.406100E+01
444	  0.108777553	-4.864000E+00	  0.108777553	-1.243180E+02	  0.108777553	1.709600E+01	  0.108777553	-2.394300E+01
445	  0.108977959	-4.865000E+00	  0.108977959	-1.245090E+02	  0.108977959	1.707400E+01	  0.108977959	-2.384900E+01
446	  0.109178357	-4.863000E+00	  0.109178357	-1.247350E+02	  0.109178357	1.703500E+01	  0.109178357	-2.374100E+01
447	  0.109378755	-4.868000E+00	  0.109378755	-1.249230E+02	  0.109378755	1.702300E+01	  0.109378755	-2.364600E+01
448	  0.109579161	-4.868000E+00	  0.109579161	-1.251050E+02	  0.109579161	1.699800E+01	  0.109579161	-2.355800E+01
449	  0.109779559	-4.871000E+00	  0.109779559	-1.253390E+02	  0.109779559	1.697500E+01	  0.109779559	-2.344200E+01
450	  0.109979957	-4.871000E+00	  0.109979957	-1.255910E+02	  0.109979957	1.694200E+01	  0.109979957	-2.332000E+01
451	  0.110180363	-4.883000E+00	  0.110180363	-1.257790E+02	  0.110180363	1.695200E+01	  0.110180363	-2.322000E+01
452	  0.110380761	-4.884000E+00	  0.110380761	-1.260260E+02	  0.110380761	1.692300E+01	  0.110380761	-2.310000E+01
453	  0.110581160	-4.891000E+00	  0.110581160	-1.263060E+02	  0.110581160	1.690500E+01	  0.110581160	-2.296000E+01
454	  0.110781565	-4.898000E+00	  0.110781565	-1.264930E+02	  0.110781565	1.690200E+01	  0.110781565	-2.286400E+01
455	  0.110981964	-4.908000E+00	  0.110981964	-1.267460E+02	  0.110981964	1.689900E+01	  0.110981964	-2.273500E+01
456	  0.111182362	-4.901000E+00	  0.111182362	-1.269990E+02	  0.111182362	1.684500E+01	  0.111182362	-2.262000E+01
457	  0.111382768	-4.906000E+00	  0.111382768	-1.272720E+02	  0.111382768	1.682400E+01	  0.111382768	-2.248600E+01
458	  0.111583166	-4.911000E+00	  0.111583166	-1.275280E+02	  0.111583166	1.680600E+01	  0.111583166	-2.236000E+01
459	  0.111783572	-4.911000E+00	  0.111783572	-1.277950E+02	  0.111783572	1.677100E+01	  0.111783572	-2.223400E+01
460	  0.111983970	-4.916000E+00	  0.111983970	-1.280560E+02	  0.111983970	1.675400E+01	  0.111983970	-2.210600E+01
461	  0.112184368	-4.917000E+00	  0.112184368	-1.283090E+02	  0.112184368	1.672300E+01	  0.112184368	-2.198500E+01
462	  0.112384774	-4.910000E+00	  0.112384774	-1.286200E+02	  0.112384774	1.666300E+01	  0.112384774	-2.184400E+01
463	  0.112585172	-4.914000E+00	  0.112585172	-1.288770E+02	  0.112585172	1.664100E+01	  0.112585172	-2.172100E+01
464	  0.112785570	-4.905000E+00	  0.112785570	-1.291260E+02	  0.112785570	1.658200E+01	  0.112785570	-2.161100E+01
465	  0.112985976	-4.904000E+00	  0.112985976	-1.294150E+02	  0.112985976	1.654300E+01	  0.112985976	-2.147600E+01
466	  0.113186374	-4.901000E+00	  0.113186374	-1.296340E+02	  0.113186374	1.650600E+01	  0.113186374	-2.137600E+01
467	  0.113386773	-4.898000E+00	  0.113386773	-1.298720E+02	  0.113386773	1.646800E+01	  0.113386773	-2.126700E+01
468	  0.113587178	-4.889000E+00	  0.113587178	-1.301390E+02	  0.113587178	1.641000E+01	  0.113587178	-2.114900E+01
469	  0.113787577	-4.885000E+00	  0.113787577	-1.303560E+02	  0.113787577	1.636900E+01	  0.113787577	-2.105100E+01
470	  0.113987975	-4.876000E+00	  0.113987975	-1.305790E+02	  0.113987975	1.631700E+01	  0.113987975	-2.095400E+01
471	  0.114188381	-4.872000E+00	  0.114188381	-1.307820E+02	  0.114188381	1.628100E+01	  0.114188381	-2.086200E+01
472	  0.114388779	-4.868000E+00	  0.114388779	-1.309950E+02	  0.114388779	1.624300E+01	  0.114388779	-2.076600E+01
473	  0.114589177	-4.865000E+00	  0.114589177	-1.311840E+02	  0.114589177	1.620900E+01	  0.114589177	-2.068100E+01
474	  0.114789583	-4.870000E+00	  0.114789583	-1.313950E+02	  0.114789583	1.620100E+01	  0.114789583	-2.057900E+01
475	  0.114989981	-4.868000E+00	  0.114989981	-1.315430E+02	  0.114989981	1.617800E+01	  0.114989981	-2.051100E+01
476	  0.115190387	-4.863000E+00	  0.115190387	-1.317690E+02	  0.115190387	1.613700E+01	  0.115190387	-2.041000E+01
477	  0.115390785	-4.868000E+00	  0.115390785	-1.319500E+02	  0.115390785	1.613200E+01	  0.115390785	-2.032300E+01
478	  0.115591183	-4.870000E+00	  0.115591183	-1.321930E+02	  0.115591183	1.611000E+01	  0.115591183	-2.020900E+01
479	  0.115791589	-4.875000E+00	  0.115791589	-1.323860E+02	  0.115791589	1.610200E+01	  0.115791589	-2.011600E+01
480	  0.115991987	-4.886000E+00	  0.115991987	-1.326030E+02	  0.115991987	1.611200E+01	  0.115991987	-2.000700E+01
481	  0.116192386	-4.887000E+00	  0.116192386	-1.327850E+02	  0.116192386	1.609300E+01	  0.116192386	-1.992400E+01
482	  0.116392791	-4.893000E+00	  0.116392791	-1.330410E+02	  0.116392791	1.608400E+01	  0.116392791	-1.980100E+01
483	  0.116593190	-4.900000E+00	  0.116593190	-1.332830E+02	  0.116593190	1.607800E+01	  0.116593190	-1.968500E+01
484	  0.116793588	-4.904000E+00	  0.116793588	-1.335430E+02	  0.116793588	1.606100E+01	  0.116793588	-1.956300E+01
485	  0.116993994	-4.913000E+00	  0.116993994	-1.337830E+02	  0.116993994	1.606100E+01	  0.116993994	-1.944700E+01
486	  0.117194392	-4.919000E+00	  0.117194392	-1.340100E+02	  0.117194392	1.605700E+01	  0.117194392	-1.933800E+01
487	  0.117394790	-4.923000E+00	  0.117394790	-1.342910E+02	  0.117394790	1.603900E+01	  0.117394790	-1.920700E+01
488	  0.117595196	-4.928000E+00	  0.117595196	-1.345830E+02	  0.117595196	1.602000E+01	  0.117595196	-1.907100E+01
489	  0.117795594	-4.926000E+00	  0.117795594	-1.348570E+02	  0.117795594	1.598700E+01	  0.117795594	-1.894700E+01
490	  0.117995992	-4.931000E+00	  0.117995992	-1.350880E+02	  0.117995992	1.597700E+01	  0.117995992	-1.883900E+01
491	  0.118196398	-4.927000E+00	  0.118196398	-1.353910E+02	  0.118196398	1.593200E+01	  0.118196398	-1.870500E+01
492	  0.118396796	-4.930000E+00	  0.118396796	-1.356320E+02	  0.118396796	1.591900E+01	  0.118396796	-1.859300E+01
493	  0.118597202	-4.933000E+00	  0.118597202	-1.359170E+02	  0.118597202	1.589600E+01	  0.118597202	-1.846300E+01
494	  0.118797600	-4.932000E+00	  0.118797600	-1.361770E+02	  0.118797600	1.586900E+01	  0.118797600	-1.834500E+01
495	  0.118997999	-4.927000E+00	  0.118997999	-1.364460E+02	  0.118997999	1.582600E+01	  0.118997999	-1.822800E+01
496	  0.119198404	-4.927000E+00	  0.119198404	-1.366650E+02	  0.119198404	1.580300E+01	  0.119198404	-1.812900E+01
497	  0.119398803	-4.922000E+00	  0.119398803	-1.369100E+02	  0.119398803	1.576400E+01	  0.119398803	-1.802200E+01
498	  0.119599201	-4.918000E+00	  0.119599201	-1.371280E+02	  0.119599201	1.573200E+01	  0.119599201	-1.792600E+01
499	  0.119799607	-4.918000E+00	  0.119799607	-1.373530E+02	  0.119799607	1.570800E+01	  0.119799607	-1.782600E+01
500	  0.120000005	-4.909000E+00	  0.120000005	-1.375820E+02	  0.120000005	1.566000E+01	  0.120000005	-1.772900E+01
