! Anritsu VNA Master:             	Model: MS2036C/10/77
! SN:             	1601066
! /card0/usr/18may27.balun/5b.r50.3.txt
! Existing Calibration Information:
! TYPE:             	Current Settings	Active Cal Settings
! TIME:             	05/27/2018 04:05:36 PM	05/27/2018 03:52:12 PM
! INTERNAL TEMP:    	51.5 C	52.5 C
! # POINTS:         	500	500
! START FREQ:       	20.000 MHz	20.000 MHz
! STOP FREQ:        	120.000 MHz	120.000 MHz
! SOURCE POWER:     	High	High
! IFBW:             	50 Hz	50 Hz
! AVG FACTOR:       	  1 	  1 
! REF PLANE 1:      	0 mm	0 mm
! REF PLANE 2:      	0 mm	0 mm
! CAL TYPE:         	Full S11	Full S11
! CAL METHOD:       	SOLT	SOLT
! CAL LINE TYPE:    	Coax	Coax
! DUT PORT 1:       	K-Conn(M)	K-Conn(M)
! DUT PORT 2:       	K-Conn(M)	K-Conn(M)
! CAL STATUS:       	OK: Accuracy High	--
! PROP-V:       	0.700
! CABLE LOSS:       	0.000 dB/m
! REF IMPEDANCE:       	50.0
! Trace Specific Parameters:	TR1	TR2	TR3	TR4
! TRACE.#.Y (GRAPH TYPE)	LOG MAG	PHASE	REAL IMPEDANCE	IMAGINARY IMPEDANCE
! TRACE.#.X 	FREQ.GHZ	FREQ.GHZ	FREQ.GHZ	FREQ.GHZ
! S-PARAMETER	S11	S11	S11	S11
! SMOOTH/APERTURE %	0	0	0	0
! WINDOW	NSL	NSL	NSL	NSL
! GATING	OFF	OFF	OFF	OFF
! FGTD	OFF	OFF	OFF	OFF
Marker Information per Trace:	TR1	TR2	TR3	TR4
!MK1	--	--	--	"MK1 TR4:  70.100 200 MHz,Z:(52.402 ohm, 1.415 ohm)"
!MK2	--	--	--	--
!MK3	--	--	--	--
!MK4	--	--	--	--
!MK5	--	--	--	--
!MK6	--	--	--	--
!MK7	--	--	--	--
!MK8	--	--	--	--
PNT	TR1.FREQ.GHZ	TR1.LOG MAG.dB	TR2.FREQ.GHZ	TR2.PHASE.deg	TR3.FREQ.GHZ	TR3.REAL IMPEDANCE.ohm	TR4.FREQ.GHZ	TR4.IMAGINARY IMPEDANCE.ohm
1	  0.020000000	-3.932100E+01	  0.020000000	5.396700E+01	  0.020000000	5.063200E+01	  0.020000000	8.850000E-01
2	  0.020200402	-3.912700E+01	  0.020200402	5.293000E+01	  0.020200402	5.066300E+01	  0.020200402	8.940000E-01
3	  0.020400802	-3.901700E+01	  0.020400802	5.271500E+01	  0.020400802	5.067400E+01	  0.020400802	9.030000E-01
4	  0.020601204	-3.905300E+01	  0.020601204	5.300000E+01	  0.020601204	5.066700E+01	  0.020601204	9.020000E-01
5	  0.020801604	-3.882400E+01	  0.020801604	5.297000E+01	  0.020801604	5.068500E+01	  0.020801604	9.260000E-01
6	  0.021002004	-3.882700E+01	  0.021002004	5.262600E+01	  0.021002004	5.069100E+01	  0.021002004	9.220000E-01
7	  0.021202406	-3.877800E+01	  0.021202406	5.248900E+01	  0.021202406	5.069700E+01	  0.021202406	9.250000E-01
8	  0.021402806	-3.859600E+01	  0.021402806	5.248000E+01	  0.021402806	5.071200E+01	  0.021402806	9.450000E-01
9	  0.021603208	-3.857700E+01	  0.021603208	5.170500E+01	  0.021603208	5.072600E+01	  0.021603208	9.380000E-01
10	  0.021803608	-3.846500E+01	  0.021803608	5.133700E+01	  0.021803608	5.074200E+01	  0.021803608	9.450000E-01
11	  0.022004008	-3.832300E+01	  0.022004008	5.133700E+01	  0.022004008	5.075400E+01	  0.022004008	9.610000E-01
12	  0.022204408	-3.827300E+01	  0.022204408	5.127200E+01	  0.022204408	5.075900E+01	  0.022204408	9.660000E-01
13	  0.022404809	-3.816000E+01	  0.022404809	5.194600E+01	  0.022404809	5.075700E+01	  0.022404809	9.880000E-01
14	  0.022605211	-3.808200E+01	  0.022605211	5.142900E+01	  0.022605211	5.077300E+01	  0.022605211	9.900000E-01
15	  0.022805611	-3.798800E+01	  0.022805611	5.126200E+01	  0.022805611	5.078500E+01	  0.022805611	9.980000E-01
16	  0.023006011	-3.789200E+01	  0.023006011	5.152200E+01	  0.023006011	5.078900E+01	  0.023006011	1.013000E+00
17	  0.023206413	-3.784000E+01	  0.023206413	5.137500E+01	  0.023206413	5.079600E+01	  0.023206413	1.017000E+00
18	  0.023406813	-3.777300E+01	  0.023406813	5.209000E+01	  0.023406813	5.078900E+01	  0.023406813	1.035000E+00
19	  0.023607215	-3.768800E+01	  0.023607215	5.205600E+01	  0.023607215	5.079800E+01	  0.023607215	1.045000E+00
20	  0.023807615	-3.760500E+01	  0.023807615	5.177900E+01	  0.023807615	5.081000E+01	  0.023807615	1.052000E+00
21	  0.024008015	-3.759400E+01	  0.024008015	5.209200E+01	  0.024008015	5.080500E+01	  0.024008015	1.057000E+00
22	  0.024208417	-3.755900E+01	  0.024208417	5.231500E+01	  0.024208417	5.080400E+01	  0.024208417	1.065000E+00
23	  0.024408817	-3.749300E+01	  0.024408817	5.211700E+01	  0.024408817	5.081400E+01	  0.024408817	1.070000E+00
24	  0.024609219	-3.749100E+01	  0.024609219	5.248800E+01	  0.024609219	5.080700E+01	  0.024609219	1.076000E+00
25	  0.024809619	-3.742400E+01	  0.024809619	5.256400E+01	  0.024809619	5.081200E+01	  0.024809619	1.085000E+00
26	  0.025010020	-3.731300E+01	  0.025010020	5.255500E+01	  0.025010020	5.082300E+01	  0.025010020	1.099000E+00
27	  0.025210422	-3.734500E+01	  0.025210422	5.199000E+01	  0.025210422	5.083100E+01	  0.025210422	1.087000E+00
28	  0.025410822	-3.721300E+01	  0.025410822	5.241200E+01	  0.025410822	5.083500E+01	  0.025410822	1.110000E+00
29	  0.025611224	-3.715500E+01	  0.025611224	5.273000E+01	  0.025611224	5.083400E+01	  0.025611224	1.122000E+00
30	  0.025811624	-3.716900E+01	  0.025811624	5.257400E+01	  0.025811624	5.083600E+01	  0.025811624	1.118000E+00
31	  0.026012026	-3.713600E+01	  0.026012026	5.266600E+01	  0.026012026	5.083700E+01	  0.026012026	1.124000E+00
32	  0.026212426	-3.705300E+01	  0.026212426	5.241600E+01	  0.026212426	5.085000E+01	  0.026212426	1.131000E+00
33	  0.026412826	-3.709500E+01	  0.026412826	5.237800E+01	  0.026412826	5.084700E+01	  0.026412826	1.125000E+00
34	  0.026613226	-3.703100E+01	  0.026613226	5.263900E+01	  0.026613226	5.084800E+01	  0.026613226	1.137000E+00
35	  0.026813626	-3.706600E+01	  0.026813626	5.317800E+01	  0.026813626	5.083400E+01	  0.026813626	1.141000E+00
36	  0.027014028	-3.701000E+01	  0.027014028	5.287700E+01	  0.027014028	5.084500E+01	  0.027014028	1.144000E+00
37	  0.027214428	-3.696900E+01	  0.027214428	5.298900E+01	  0.027214428	5.084700E+01	  0.027214428	1.151000E+00
38	  0.027414829	-3.705200E+01	  0.027414829	5.276100E+01	  0.027414829	5.084400E+01	  0.027414829	1.136000E+00
39	  0.027615231	-3.699200E+01	  0.027615231	5.238500E+01	  0.027615231	5.085700E+01	  0.027615231	1.139000E+00
40	  0.027815631	-3.697800E+01	  0.027815631	5.195300E+01	  0.027815631	5.086700E+01	  0.027815631	1.134000E+00
41	  0.028016033	-3.691900E+01	  0.028016033	5.211900E+01	  0.028016033	5.087000E+01	  0.028016033	1.145000E+00
42	  0.028216433	-3.682500E+01	  0.028216433	5.182700E+01	  0.028216433	5.088500E+01	  0.028216433	1.153000E+00
43	  0.028416833	-3.680500E+01	  0.028416833	5.180000E+01	  0.028416833	5.088800E+01	  0.028416833	1.155000E+00
44	  0.028617235	-3.685400E+01	  0.028617235	5.152000E+01	  0.028617235	5.088800E+01	  0.028617235	1.144000E+00
45	  0.028817635	-3.676100E+01	  0.028817635	5.100600E+01	  0.028817635	5.090800E+01	  0.028817635	1.149000E+00
46	  0.029018037	-3.677700E+01	  0.029018037	5.075700E+01	  0.029018037	5.091200E+01	  0.029018037	1.143000E+00
47	  0.029218437	-3.673800E+01	  0.029218437	5.051000E+01	  0.029218437	5.092100E+01	  0.029218437	1.144000E+00
48	  0.029418837	-3.668400E+01	  0.029418837	5.022000E+01	  0.029418837	5.093300E+01	  0.029418837	1.146000E+00
49	  0.029619239	-3.663500E+01	  0.029619239	5.011200E+01	  0.029619239	5.094000E+01	  0.029619239	1.151000E+00
50	  0.029819639	-3.654300E+01	  0.029819639	4.957700E+01	  0.029819639	5.096100E+01	  0.029819639	1.155000E+00
51	  0.030020041	-3.657500E+01	  0.030020041	4.939900E+01	  0.030020041	5.096100E+01	  0.030020041	1.148000E+00
52	  0.030220442	-3.641100E+01	  0.030220442	4.938200E+01	  0.030220442	5.098000E+01	  0.030220442	1.170000E+00
53	  0.030420844	-3.637800E+01	  0.030420844	4.925400E+01	  0.030420844	5.098600E+01	  0.030420844	1.172000E+00
54	  0.030621244	-3.627400E+01	  0.030621244	4.914000E+01	  0.030621244	5.100000E+01	  0.030621244	1.184000E+00
55	  0.030821644	-3.618400E+01	  0.030821644	4.871800E+01	  0.030821644	5.102000E+01	  0.030821644	1.190000E+00
56	  0.031022044	-3.610700E+01	  0.031022044	4.904000E+01	  0.031022044	5.102200E+01	  0.031022044	1.206000E+00
57	  0.031222444	-3.605700E+01	  0.031222444	4.941400E+01	  0.031222444	5.102000E+01	  0.031222444	1.220000E+00
58	  0.031422846	-3.595200E+01	  0.031422846	4.937400E+01	  0.031422846	5.103300E+01	  0.031422846	1.234000E+00
59	  0.031623244	-3.586600E+01	  0.031623244	4.970200E+01	  0.031623244	5.103600E+01	  0.031623244	1.253000E+00
60	  0.031823646	-3.588200E+01	  0.031823646	4.946900E+01	  0.031823646	5.103900E+01	  0.031823646	1.246000E+00
61	  0.032024048	-3.586900E+01	  0.032024048	4.980500E+01	  0.032024048	5.103300E+01	  0.032024048	1.254000E+00
62	  0.032224450	-3.576500E+01	  0.032224450	5.028800E+01	  0.032224450	5.103500E+01	  0.032224450	1.278000E+00
63	  0.032424849	-3.578800E+01	  0.032424849	5.026200E+01	  0.032424849	5.103200E+01	  0.032424849	1.274000E+00
64	  0.032625251	-3.579200E+01	  0.032625251	5.010600E+01	  0.032625251	5.103500E+01	  0.032625251	1.271000E+00
65	  0.032825653	-3.574600E+01	  0.032825653	4.979900E+01	  0.032825653	5.104800E+01	  0.032825653	1.272000E+00
66	  0.033026051	-3.576800E+01	  0.033026051	5.032100E+01	  0.033026051	5.103400E+01	  0.033026051	1.279000E+00
67	  0.033226453	-3.568500E+01	  0.033226453	5.001600E+01	  0.033226453	5.105000E+01	  0.033226453	1.286000E+00
68	  0.033426855	-3.567600E+01	  0.033426855	4.995900E+01	  0.033426855	5.105300E+01	  0.033426855	1.286000E+00
69	  0.033627257	-3.571400E+01	  0.033627257	4.978900E+01	  0.033627257	5.105200E+01	  0.033627257	1.277000E+00
70	  0.033827655	-3.574300E+01	  0.033827655	4.938000E+01	  0.033827655	5.105800E+01	  0.033827655	1.265000E+00
71	  0.034028057	-3.569800E+01	  0.034028057	4.976600E+01	  0.034028057	5.105400E+01	  0.034028057	1.279000E+00
72	  0.034228459	-3.571700E+01	  0.034228459	4.893900E+01	  0.034228459	5.107100E+01	  0.034228459	1.261000E+00
73	  0.034428857	-3.572400E+01	  0.034428857	4.887800E+01	  0.034428857	5.107100E+01	  0.034428857	1.259000E+00
74	  0.034629259	-3.564100E+01	  0.034629259	4.829500E+01	  0.034629259	5.109500E+01	  0.034629259	1.260000E+00
75	  0.034829661	-3.564200E+01	  0.034829661	4.818600E+01	  0.034829661	5.109700E+01	  0.034829661	1.258000E+00
76	  0.035030060	-3.563300E+01	  0.035030060	4.795000E+01	  0.035030060	5.110400E+01	  0.035030060	1.255000E+00
77	  0.035230462	-3.560100E+01	  0.035230462	4.747200E+01	  0.035230462	5.111800E+01	  0.035230462	1.250000E+00
78	  0.035430863	-3.560400E+01	  0.035430863	4.746900E+01	  0.035430863	5.111800E+01	  0.035430863	1.250000E+00
79	  0.035631265	-3.550500E+01	  0.035631265	4.687500E+01	  0.035631265	5.114400E+01	  0.035631265	1.252000E+00
80	  0.035831664	-3.543200E+01	  0.035831664	4.684400E+01	  0.035831664	5.115500E+01	  0.035831664	1.263000E+00
81	  0.036032066	-3.537400E+01	  0.036032066	4.634400E+01	  0.036032066	5.117400E+01	  0.036032066	1.261000E+00
82	  0.036232468	-3.525600E+01	  0.036232468	4.588800E+01	  0.036232468	5.120000E+01	  0.036232468	1.269000E+00
83	  0.036432866	-3.525200E+01	  0.036432866	4.566700E+01	  0.036432866	5.120600E+01	  0.036432866	1.265000E+00
84	  0.036633268	-3.506500E+01	  0.036633268	4.576000E+01	  0.036633268	5.123000E+01	  0.036633268	1.295000E+00
85	  0.036833670	-3.504100E+01	  0.036833670	4.625800E+01	  0.036833670	5.122100E+01	  0.036833670	1.310000E+00
86	  0.037034072	-3.491100E+01	  0.037034072	4.609500E+01	  0.037034072	5.124400E+01	  0.037034072	1.326000E+00
87	  0.037234470	-3.486400E+01	  0.037234470	4.598500E+01	  0.037234470	5.125300E+01	  0.037234470	1.332000E+00
88	  0.037434869	-3.480200E+01	  0.037434869	4.634100E+01	  0.037434869	5.125300E+01	  0.037434869	1.349000E+00
89	  0.037635271	-3.472800E+01	  0.037635271	4.621100E+01	  0.037635271	5.126700E+01	  0.037635271	1.358000E+00
90	  0.037835669	-3.474900E+01	  0.037835669	4.670700E+01	  0.037835669	5.125200E+01	  0.037835669	1.365000E+00
91	  0.038036071	-3.460500E+01	  0.038036071	4.684500E+01	  0.038036071	5.127000E+01	  0.038036071	1.392000E+00
92	  0.038236473	-3.461200E+01	  0.038236473	4.735400E+01	  0.038236473	5.125600E+01	  0.038236473	1.402000E+00
93	  0.038436871	-3.467800E+01	  0.038436871	4.789400E+01	  0.038436871	5.123300E+01	  0.038436871	1.403000E+00
94	  0.038637273	-3.463400E+01	  0.038637273	4.811100E+01	  0.038637273	5.123400E+01	  0.038637273	1.415000E+00
95	  0.038837675	-3.466300E+01	  0.038837675	4.798100E+01	  0.038837675	5.123300E+01	  0.038837675	1.407000E+00
96	  0.039038073	-3.469800E+01	  0.039038073	4.830600E+01	  0.039038073	5.122000E+01	  0.039038073	1.408000E+00
97	  0.039238475	-3.474400E+01	  0.039238475	4.860800E+01	  0.039238475	5.120600E+01	  0.039238475	1.407000E+00
98	  0.039438877	-3.474100E+01	  0.039438877	4.888100E+01	  0.039438877	5.119900E+01	  0.039438877	1.413000E+00
99	  0.039639279	-3.480200E+01	  0.039639279	4.879600E+01	  0.039639279	5.119300E+01	  0.039639279	1.401000E+00
100	  0.039839678	-3.483700E+01	  0.039839678	4.789000E+01	  0.039839678	5.121100E+01	  0.039839678	1.377000E+00
101	  0.040040080	-3.492600E+01	  0.040040080	4.808800E+01	  0.040040080	5.119300E+01	  0.040040080	1.366000E+00
102	  0.040240481	-3.486000E+01	  0.040240481	4.803200E+01	  0.040240481	5.120400E+01	  0.040240481	1.376000E+00
103	  0.040440880	-3.499600E+01	  0.040440880	4.776100E+01	  0.040440880	5.119200E+01	  0.040440880	1.348000E+00
104	  0.040641282	-3.494400E+01	  0.040641282	4.675800E+01	  0.040641282	5.122300E+01	  0.040641282	1.336000E+00
105	  0.040841684	-3.501900E+01	  0.040841684	4.650400E+01	  0.040841684	5.121900E+01	  0.040841684	1.318000E+00
106	  0.041042086	-3.501100E+01	  0.041042086	4.565200E+01	  0.041042086	5.124000E+01	  0.041042086	1.301000E+00
107	  0.041242484	-3.496300E+01	  0.041242484	4.519100E+01	  0.041242484	5.125700E+01	  0.041242484	1.299000E+00
108	  0.041442886	-3.500700E+01	  0.041442886	4.421800E+01	  0.041442886	5.127300E+01	  0.041442886	1.271000E+00
109	  0.041643288	-3.493900E+01	  0.041643288	4.316900E+01	  0.041643288	5.130700E+01	  0.041643288	1.257000E+00
110	  0.041843686	-3.493800E+01	  0.041843686	4.283300E+01	  0.041843686	5.131500E+01	  0.041843686	1.250000E+00
111	  0.042044088	-3.481100E+01	  0.042044088	4.256000E+01	  0.042044088	5.134000E+01	  0.042044088	1.262000E+00
112	  0.042244490	-3.470700E+01	  0.042244490	4.187500E+01	  0.042244490	5.137200E+01	  0.042244490	1.261000E+00
113	  0.042444889	-3.460400E+01	  0.042444889	4.100000E+01	  0.042444889	5.140900E+01	  0.042444889	1.255000E+00
114	  0.042645290	-3.447400E+01	  0.042645290	4.106700E+01	  0.042645290	5.142800E+01	  0.042645290	1.277000E+00
115	  0.042845692	-3.448000E+01	  0.042845692	4.092000E+01	  0.042845692	5.143100E+01	  0.042845692	1.272000E+00
116	  0.043046094	-3.433300E+01	  0.043046094	4.071700E+01	  0.043046094	5.146000E+01	  0.043046094	1.289000E+00
117	  0.043246493	-3.419500E+01	  0.043246493	4.062100E+01	  0.043246493	5.148600E+01	  0.043246493	1.308000E+00
118	  0.043446895	-3.417300E+01	  0.043446895	4.057300E+01	  0.043446895	5.149100E+01	  0.043446895	1.310000E+00
119	  0.043647297	-3.403500E+01	  0.043647297	4.030200E+01	  0.043647297	5.152100E+01	  0.043647297	1.324000E+00
120	  0.043847695	-3.397100E+01	  0.043847695	4.067500E+01	  0.043847695	5.152300E+01	  0.043847695	1.345000E+00
121	  0.044048097	-3.388300E+01	  0.044048097	4.046700E+01	  0.044048097	5.154400E+01	  0.044048097	1.353000E+00
122	  0.044248499	-3.382900E+01	  0.044248499	4.099200E+01	  0.044248499	5.154100E+01	  0.044248499	1.376000E+00
123	  0.044448901	-3.377400E+01	  0.044448901	4.081900E+01	  0.044448901	5.155500E+01	  0.044448901	1.380000E+00
124	  0.044649299	-3.377600E+01	  0.044649299	4.145200E+01	  0.044649299	5.153900E+01	  0.044649299	1.397000E+00
125	  0.044849701	-3.370300E+01	  0.044849701	4.154800E+01	  0.044849701	5.154900E+01	  0.044849701	1.412000E+00
126	  0.045050103	-3.374900E+01	  0.045050103	4.142500E+01	  0.045050103	5.154400E+01	  0.045050103	1.401000E+00
127	  0.045250501	-3.372100E+01	  0.045250501	4.216900E+01	  0.045250501	5.153000E+01	  0.045250501	1.426000E+00
128	  0.045450903	-3.371800E+01	  0.045450903	4.192400E+01	  0.045450903	5.153700E+01	  0.045450903	1.419000E+00
129	  0.045651305	-3.362500E+01	  0.045651305	4.193600E+01	  0.045651305	5.155300E+01	  0.045651305	1.436000E+00
130	  0.045851704	-3.363900E+01	  0.045851704	4.227200E+01	  0.045851704	5.154200E+01	  0.045851704	1.442000E+00
131	  0.046052106	-3.364400E+01	  0.046052106	4.233600E+01	  0.046052106	5.153900E+01	  0.046052106	1.443000E+00
132	  0.046252504	-3.367700E+01	  0.046252504	4.200100E+01	  0.046252504	5.154200E+01	  0.046252504	1.429000E+00
133	  0.046452906	-3.365100E+01	  0.046452906	4.223400E+01	  0.046452906	5.154100E+01	  0.046452906	1.439000E+00
134	  0.046653304	-3.373300E+01	  0.046653304	4.189300E+01	  0.046653304	5.153500E+01	  0.046653304	1.416000E+00
135	  0.046853706	-3.365300E+01	  0.046853706	4.165700E+01	  0.046853706	5.155500E+01	  0.046853706	1.423000E+00
136	  0.047054108	-3.362500E+01	  0.047054108	4.153200E+01	  0.047054108	5.156400E+01	  0.047054108	1.425000E+00
137	  0.047254506	-3.363800E+01	  0.047254506	4.112800E+01	  0.047254506	5.157200E+01	  0.047254506	1.411000E+00
138	  0.047454908	-3.363400E+01	  0.047454908	4.109000E+01	  0.047454908	5.157300E+01	  0.047454908	1.411000E+00
139	  0.047655310	-3.354900E+01	  0.047655310	4.033400E+01	  0.047655310	5.160800E+01	  0.047655310	1.404000E+00
140	  0.047855709	-3.358300E+01	  0.047855709	4.008600E+01	  0.047855709	5.160800E+01	  0.047855709	1.391000E+00
141	  0.048056111	-3.351400E+01	  0.048056111	3.990000E+01	  0.048056111	5.162600E+01	  0.048056111	1.398000E+00
142	  0.048256513	-3.340600E+01	  0.048256513	3.974000E+01	  0.048256513	5.165000E+01	  0.048256513	1.411000E+00
143	  0.048456915	-3.336000E+01	  0.048456915	3.963300E+01	  0.048456915	5.166200E+01	  0.048456915	1.416000E+00
144	  0.048657313	-3.328800E+01	  0.048657313	3.985900E+01	  0.048657313	5.167000E+01	  0.048657313	1.435000E+00
145	  0.048857715	-3.325300E+01	  0.048857715	4.006200E+01	  0.048857715	5.167100E+01	  0.048857715	1.446000E+00
146	  0.049058117	-3.319600E+01	  0.049058117	3.934000E+01	  0.049058117	5.170100E+01	  0.049058117	1.435000E+00
147	  0.049258515	-3.311800E+01	  0.049258515	3.987900E+01	  0.049258515	5.170200E+01	  0.049258515	1.464000E+00
148	  0.049458917	-3.311100E+01	  0.049458917	3.961100E+01	  0.049458917	5.171100E+01	  0.049458917	1.458000E+00
149	  0.049659319	-3.310700E+01	  0.049659319	3.975300E+01	  0.049659319	5.170800E+01	  0.049659319	1.462000E+00
150	  0.049859721	-3.301800E+01	  0.049859721	3.987800E+01	  0.049859721	5.172200E+01	  0.049859721	1.482000E+00
151	  0.050060119	-3.304300E+01	  0.050060119	4.012900E+01	  0.050060119	5.171100E+01	  0.050060119	1.485000E+00
152	  0.050260521	-3.298200E+01	  0.050260521	4.020400E+01	  0.050260521	5.172100E+01	  0.050260521	1.498000E+00
153	  0.050460923	-3.297700E+01	  0.050460923	4.035300E+01	  0.050460923	5.171800E+01	  0.050460923	1.504000E+00
154	  0.050661322	-3.296400E+01	  0.050661322	4.034400E+01	  0.050661322	5.172000E+01	  0.050661322	1.506000E+00
155	  0.050861724	-3.292200E+01	  0.050861724	4.091700E+01	  0.050861724	5.171300E+01	  0.050861724	1.531000E+00
156	  0.051062126	-3.296700E+01	  0.051062126	4.067800E+01	  0.051062126	5.171100E+01	  0.051062126	1.515000E+00
157	  0.051262524	-3.304200E+01	  0.051262524	4.074600E+01	  0.051262524	5.169400E+01	  0.051262524	1.504000E+00
158	  0.051462926	-3.296800E+01	  0.051462926	4.077700E+01	  0.051462926	5.170800E+01	  0.051462926	1.518000E+00
159	  0.051663328	-3.305300E+01	  0.051663328	4.053500E+01	  0.051663328	5.169700E+01	  0.051663328	1.495000E+00
160	  0.051863730	-3.307900E+01	  0.051863730	4.066100E+01	  0.051863730	5.168900E+01	  0.051863730	1.495000E+00
161	  0.052064128	-3.303700E+01	  0.052064128	4.064300E+01	  0.052064128	5.169800E+01	  0.052064128	1.501000E+00
162	  0.052264530	-3.303100E+01	  0.052264530	4.086400E+01	  0.052264530	5.169300E+01	  0.052264530	1.509000E+00
163	  0.052464932	-3.308400E+01	  0.052464932	4.012000E+01	  0.052464932	5.170300E+01	  0.052464932	1.477000E+00
164	  0.052665330	-3.306300E+01	  0.052665330	3.991500E+01	  0.052665330	5.171200E+01	  0.052665330	1.475000E+00
165	  0.052865732	-3.306400E+01	  0.052865732	3.993600E+01	  0.052865732	5.171200E+01	  0.052865732	1.476000E+00
166	  0.053066134	-3.307900E+01	  0.053066134	3.946200E+01	  0.053066134	5.172100E+01	  0.053066134	1.459000E+00
167	  0.053266536	-3.303000E+01	  0.053266536	3.940500E+01	  0.053266536	5.173200E+01	  0.053266536	1.465000E+00
168	  0.053466935	-3.301500E+01	  0.053466935	3.932800E+01	  0.053466935	5.173700E+01	  0.053466935	1.466000E+00
169	  0.053667337	-3.298600E+01	  0.053667337	3.843500E+01	  0.053667337	5.176700E+01	  0.053667337	1.443000E+00
170	  0.053867739	-3.304700E+01	  0.053867739	3.854600E+01	  0.053867739	5.175100E+01	  0.053867739	1.436000E+00
171	  0.054068137	-3.292500E+01	  0.054068137	3.834800E+01	  0.054068137	5.178200E+01	  0.054068137	1.451000E+00
172	  0.054268539	-3.294600E+01	  0.054268539	3.798900E+01	  0.054268539	5.178700E+01	  0.054268539	1.436000E+00
173	  0.054468941	-3.296700E+01	  0.054468941	3.802100E+01	  0.054468941	5.178100E+01	  0.054468941	1.434000E+00
174	  0.054669339	-3.285400E+01	  0.054669339	3.768700E+01	  0.054669339	5.181400E+01	  0.054669339	1.443000E+00
175	  0.054869737	-3.289600E+01	  0.054869737	3.741700E+01	  0.054869737	5.181200E+01	  0.054869737	1.427000E+00
176	  0.055070139	-3.286000E+01	  0.055070139	3.763700E+01	  0.055070139	5.181400E+01	  0.055070139	1.440000E+00
177	  0.055270538	-3.278200E+01	  0.055270538	3.714700E+01	  0.055270538	5.184300E+01	  0.055270538	1.438000E+00
178	  0.055470940	-3.272800E+01	  0.055470940	3.724800E+01	  0.055470940	5.185200E+01	  0.055470940	1.450000E+00
179	  0.055671342	-3.275200E+01	  0.055671342	3.748800E+01	  0.055671342	5.184000E+01	  0.055671342	1.454000E+00
180	  0.055871744	-3.282600E+01	  0.055871744	3.733300E+01	  0.055871744	5.182900E+01	  0.055871744	1.436000E+00
181	  0.056072142	-3.269600E+01	  0.056072142	3.722000E+01	  0.056072142	5.186000E+01	  0.056072142	1.455000E+00
182	  0.056272544	-3.268200E+01	  0.056272544	3.699400E+01	  0.056272544	5.186800E+01	  0.056272544	1.450000E+00
183	  0.056472946	-3.271200E+01	  0.056472946	3.722400E+01	  0.056472946	5.185600E+01	  0.056472946	1.452000E+00
184	  0.056673344	-3.269900E+01	  0.056673344	3.703900E+01	  0.056673344	5.186400E+01	  0.056673344	1.448000E+00
185	  0.056873746	-3.267800E+01	  0.056873746	3.672500E+01	  0.056873746	5.187600E+01	  0.056873746	1.442000E+00
186	  0.057074148	-3.266900E+01	  0.057074148	3.657100E+01	  0.057074148	5.188200E+01	  0.057074148	1.438000E+00
187	  0.057274550	-3.262500E+01	  0.057274550	3.671000E+01	  0.057274550	5.188800E+01	  0.057274550	1.450000E+00
188	  0.057474948	-3.259400E+01	  0.057474948	3.638600E+01	  0.057474948	5.190400E+01	  0.057474948	1.445000E+00
189	  0.057675350	-3.266700E+01	  0.057675350	3.656100E+01	  0.057675350	5.188300E+01	  0.057675350	1.438000E+00
190	  0.057875752	-3.260300E+01	  0.057875752	3.590300E+01	  0.057875752	5.191400E+01	  0.057875752	1.427000E+00
191	  0.058076151	-3.259200E+01	  0.058076151	3.585900E+01	  0.058076151	5.191800E+01	  0.058076151	1.427000E+00
192	  0.058276553	-3.264100E+01	  0.058276553	3.583100E+01	  0.058276553	5.190800E+01	  0.058276553	1.418000E+00
193	  0.058476955	-3.261100E+01	  0.058476955	3.595400E+01	  0.058476955	5.191100E+01	  0.058476955	1.427000E+00
194	  0.058677353	-3.255200E+01	  0.058677353	3.556800E+01	  0.058677353	5.193400E+01	  0.058677353	1.424000E+00
195	  0.058877755	-3.258100E+01	  0.058877755	3.517000E+01	  0.058877755	5.193800E+01	  0.058877755	1.406000E+00
196	  0.059078157	-3.254200E+01	  0.059078157	3.487400E+01	  0.059078157	5.195400E+01	  0.059078157	1.402000E+00
197	  0.059278559	-3.260700E+01	  0.059278559	3.475200E+01	  0.059278559	5.194300E+01	  0.059278559	1.387000E+00
198	  0.059478957	-3.260300E+01	  0.059478957	3.470000E+01	  0.059478957	5.194500E+01	  0.059478957	1.386000E+00
199	  0.059679359	-3.250000E+01	  0.059679359	3.439700E+01	  0.059679359	5.197600E+01	  0.059679359	1.393000E+00
200	  0.059879761	-3.249200E+01	  0.059879761	3.402000E+01	  0.059879761	5.198700E+01	  0.059879761	1.381000E+00
201	  0.060080159	-3.248300E+01	  0.060080159	3.399400E+01	  0.060080159	5.199000E+01	  0.060080159	1.382000E+00
202	  0.060280561	-3.248300E+01	  0.060280561	3.375300E+01	  0.060280561	5.199600E+01	  0.060280561	1.373000E+00
203	  0.060480963	-3.242700E+01	  0.060480963	3.308900E+01	  0.060480963	5.202600E+01	  0.060480963	1.359000E+00
204	  0.060681365	-3.241300E+01	  0.060681365	3.333300E+01	  0.060681365	5.202300E+01	  0.060681365	1.370000E+00
205	  0.060881764	-3.235700E+01	  0.060881764	3.307600E+01	  0.060881764	5.204300E+01	  0.060881764	1.370000E+00
206	  0.061082166	-3.232600E+01	  0.061082166	3.282200E+01	  0.061082166	5.205700E+01	  0.061082166	1.366000E+00
207	  0.061282568	-3.230300E+01	  0.061282568	3.260600E+01	  0.061282568	5.206700E+01	  0.061282568	1.361000E+00
208	  0.061482966	-3.221900E+01	  0.061482966	3.269600E+01	  0.061482966	5.208500E+01	  0.061482966	1.379000E+00
209	  0.061683368	-3.225400E+01	  0.061683368	3.245200E+01	  0.061683368	5.208300E+01	  0.061683368	1.364000E+00
210	  0.061883770	-3.218300E+01	  0.061883770	3.247600E+01	  0.061883770	5.210000E+01	  0.061883770	1.376000E+00
211	  0.062084168	-3.220700E+01	  0.062084168	3.225800E+01	  0.062084168	5.209900E+01	  0.062084168	1.364000E+00
212	  0.062284570	-3.216200E+01	  0.062284570	3.199400E+01	  0.062284570	5.211700E+01	  0.062284570	1.362000E+00
213	  0.062484972	-3.218100E+01	  0.062484972	3.231900E+01	  0.062484972	5.210400E+01	  0.062484972	1.371000E+00
214	  0.062685370	-3.217300E+01	  0.062685370	3.219200E+01	  0.062685370	5.210900E+01	  0.062685370	1.367000E+00
215	  0.062885776	-3.209500E+01	  0.062885776	3.160300E+01	  0.062885776	5.214300E+01	  0.062885776	1.358000E+00
216	  0.063086174	-3.204100E+01	  0.063086174	3.147000E+01	  0.063086174	5.216000E+01	  0.063086174	1.362000E+00
217	  0.063286573	-3.209900E+01	  0.063286573	3.151600E+01	  0.063286573	5.214400E+01	  0.063286573	1.354000E+00
218	  0.063486971	-3.215400E+01	  0.063486971	3.136100E+01	  0.063486971	5.213400E+01	  0.063486971	1.339000E+00
219	  0.063687377	-3.207700E+01	  0.063687377	3.116300E+01	  0.063687377	5.215800E+01	  0.063687377	1.344000E+00
220	  0.063887775	-3.207000E+01	  0.063887775	3.025800E+01	  0.063887775	5.218200E+01	  0.063887775	1.311000E+00
221	  0.064088173	-3.205500E+01	  0.064088173	3.069500E+01	  0.064088173	5.217500E+01	  0.064088173	1.330000E+00
222	  0.064288579	-3.202500E+01	  0.064288579	3.027100E+01	  0.064288579	5.219300E+01	  0.064288579	1.318000E+00
223	  0.064488977	-3.196600E+01	  0.064488977	3.036400E+01	  0.064488977	5.220600E+01	  0.064488977	1.331000E+00
224	  0.064689375	-3.193600E+01	  0.064689375	3.003300E+01	  0.064689375	5.222200E+01	  0.064689375	1.323000E+00
225	  0.064889781	-3.189300E+01	  0.064889781	3.021000E+01	  0.064889781	5.222900E+01	  0.064889781	1.337000E+00
226	  0.065090179	-3.191700E+01	  0.065090179	2.998500E+01	  0.065090179	5.222800E+01	  0.065090179	1.324000E+00
227	  0.065290578	-3.187800E+01	  0.065290578	2.916600E+01	  0.065290578	5.225800E+01	  0.065290578	1.298000E+00
228	  0.065490983	-3.184400E+01	  0.065490983	2.903000E+01	  0.065490983	5.227000E+01	  0.065490983	1.298000E+00
229	  0.065691382	-3.179000E+01	  0.065691382	2.948200E+01	  0.065691382	5.227400E+01	  0.065691382	1.324000E+00
230	  0.065891780	-3.176800E+01	  0.065891780	2.884100E+01	  0.065891780	5.229500E+01	  0.065891780	1.302000E+00
231	  0.066092186	-3.164800E+01	  0.066092186	2.890200E+01	  0.066092186	5.232600E+01	  0.066092186	1.323000E+00
232	  0.066292584	-3.162500E+01	  0.066292584	2.861500E+01	  0.066292584	5.233900E+01	  0.066292584	1.315000E+00
233	  0.066492982	-3.158400E+01	  0.066492982	2.850400E+01	  0.066492982	5.235300E+01	  0.066492982	1.317000E+00
234	  0.066693388	-3.156700E+01	  0.066693388	2.833100E+01	  0.066693388	5.236200E+01	  0.066693388	1.313000E+00
235	  0.066893786	-3.151300E+01	  0.066893786	2.896100E+01	  0.066893786	5.236100E+01	  0.066893786	1.348000E+00
236	  0.067094192	-3.145500E+01	  0.067094192	2.787000E+01	  0.067094192	5.240400E+01	  0.067094192	1.311000E+00
237	  0.067294590	-3.142600E+01	  0.067294590	2.842700E+01	  0.067294590	5.239900E+01	  0.067294590	1.339000E+00
238	  0.067494988	-3.142600E+01	  0.067494988	2.828900E+01	  0.067494988	5.240200E+01	  0.067494988	1.333000E+00
239	  0.067695394	-3.131700E+01	  0.067695394	2.856200E+01	  0.067695394	5.242600E+01	  0.067695394	1.363000E+00
240	  0.067895792	-3.136200E+01	  0.067895792	2.857900E+01	  0.067895792	5.241300E+01	  0.067895792	1.356000E+00
241	  0.068096191	-3.129600E+01	  0.068096191	2.860500E+01	  0.068096191	5.243100E+01	  0.068096191	1.368000E+00
242	  0.068296596	-3.126700E+01	  0.068296596	2.892900E+01	  0.068296596	5.243100E+01	  0.068296596	1.387000E+00
243	  0.068496995	-3.126100E+01	  0.068496995	2.943300E+01	  0.068496995	5.242000E+01	  0.068496995	1.410000E+00
244	  0.068697393	-3.123400E+01	  0.068697393	2.971700E+01	  0.068697393	5.242000E+01	  0.068697393	1.426000E+00
245	  0.068897791	-3.125300E+01	  0.068897791	2.976700E+01	  0.068897791	5.241400E+01	  0.068897791	1.425000E+00
246	  0.069098189	-3.129200E+01	  0.069098189	2.976700E+01	  0.069098189	5.240300E+01	  0.069098189	1.419000E+00
247	  0.069298595	-3.132300E+01	  0.069298595	2.961700E+01	  0.069298595	5.239800E+01	  0.069298595	1.407000E+00
248	  0.069498993	-3.131400E+01	  0.069498993	3.011300E+01	  0.069498993	5.238800E+01	  0.069498993	1.429000E+00
249	  0.069699399	-3.133800E+01	  0.069699399	2.997500E+01	  0.069699399	5.238400E+01	  0.069699399	1.419000E+00
250	  0.069899797	-3.124300E+01	  0.069899797	2.941600E+01	  0.069899797	5.242600E+01	  0.069899797	1.412000E+00
251	  0.070100196	-3.130200E+01	  0.070100196	2.970800E+01	  0.070100196	5.240100E+01	  0.070100196	1.414000E+00
252	  0.070300601	-3.132900E+01	  0.070300601	2.966800E+01	  0.070300601	5.239500E+01	  0.070300601	1.408000E+00
253	  0.070501000	-3.132300E+01	  0.070501000	2.905400E+01	  0.070501000	5.241200E+01	  0.070501000	1.383000E+00
254	  0.070701398	-3.135700E+01	  0.070701398	2.920400E+01	  0.070701398	5.239900E+01	  0.070701398	1.384000E+00
255	  0.070901804	-3.138600E+01	  0.070901804	2.928500E+01	  0.070901804	5.238900E+01	  0.070901804	1.382000E+00
256	  0.071102202	-3.136300E+01	  0.071102202	2.935600E+01	  0.071102202	5.239300E+01	  0.071102202	1.389000E+00
257	  0.071302600	-3.138300E+01	  0.071302600	2.845900E+01	  0.071302600	5.241000E+01	  0.071302600	1.348000E+00
258	  0.071503006	-3.146500E+01	  0.071503006	2.866800E+01	  0.071503006	5.238200E+01	  0.071503006	1.343000E+00
259	  0.071703404	-3.144200E+01	  0.071703404	2.835000E+01	  0.071703404	5.239600E+01	  0.071703404	1.333000E+00
260	  0.071903802	-3.144400E+01	  0.071903802	2.824300E+01	  0.071903802	5.239800E+01	  0.071903802	1.328000E+00
261	  0.072104208	-3.140200E+01	  0.072104208	2.796800E+01	  0.072104208	5.241700E+01	  0.072104208	1.323000E+00
262	  0.072304606	-3.144900E+01	  0.072304606	2.715800E+01	  0.072304606	5.242300E+01	  0.072304606	1.281000E+00
263	  0.072505005	-3.144100E+01	  0.072505005	2.743400E+01	  0.072505005	5.241900E+01	  0.072505005	1.294000E+00
264	  0.072705410	-3.142300E+01	  0.072705410	2.675000E+01	  0.072705410	5.244000E+01	  0.072705410	1.268000E+00
265	  0.072905809	-3.131600E+01	  0.072905809	2.694200E+01	  0.072905809	5.246600E+01	  0.072905809	1.292000E+00
266	  0.073106214	-3.138200E+01	  0.073106214	2.641500E+01	  0.073106214	5.245900E+01	  0.073106214	1.259000E+00
267	  0.073306613	-3.136800E+01	  0.073306613	2.632700E+01	  0.073306613	5.246500E+01	  0.073306613	1.258000E+00
268	  0.073507011	-3.135000E+01	  0.073507011	2.642600E+01	  0.073507011	5.246800E+01	  0.073507011	1.265000E+00
269	  0.073707417	-3.130400E+01	  0.073707417	2.645700E+01	  0.073707417	5.248100E+01	  0.073707417	1.273000E+00
270	  0.073907815	-3.132600E+01	  0.073907815	2.591000E+01	  0.073907815	5.248700E+01	  0.073907815	1.246000E+00
271	  0.074108213	-3.129000E+01	  0.074108213	2.604500E+01	  0.074108213	5.249400E+01	  0.074108213	1.257000E+00
272	  0.074308619	-3.125400E+01	  0.074308619	2.576000E+01	  0.074308619	5.251100E+01	  0.074308619	1.250000E+00
273	  0.074509017	-3.129000E+01	  0.074509017	2.575000E+01	  0.074509017	5.250100E+01	  0.074509017	1.244000E+00
274	  0.074709415	-3.125800E+01	  0.074709415	2.511700E+01	  0.074709415	5.252500E+01	  0.074709415	1.220000E+00
275	  0.074909821	-3.126300E+01	  0.074909821	2.524500E+01	  0.074909821	5.252100E+01	  0.074909821	1.225000E+00
276	  0.075110219	-3.120000E+01	  0.075110219	2.468800E+01	  0.075110219	5.255200E+01	  0.075110219	1.209000E+00
277	  0.075310618	-3.121900E+01	  0.075310618	2.522200E+01	  0.075310618	5.253400E+01	  0.075310618	1.231000E+00
278	  0.075511023	-3.119000E+01	  0.075511023	2.460300E+01	  0.075511023	5.255700E+01	  0.075511023	1.207000E+00
279	  0.075711422	-3.116900E+01	  0.075711422	2.470100E+01	  0.075711422	5.256100E+01	  0.075711422	1.215000E+00
280	  0.075911827	-3.116600E+01	  0.075911827	2.462400E+01	  0.075911827	5.256300E+01	  0.075911827	1.212000E+00
281	  0.076112226	-3.110500E+01	  0.076112226	2.378700E+01	  0.076112226	5.260000E+01	  0.076112226	1.182000E+00
282	  0.076312624	-3.116200E+01	  0.076312624	2.351300E+01	  0.076312624	5.258900E+01	  0.076312624	1.161000E+00
283	  0.076513030	-3.106400E+01	  0.076513030	2.402800E+01	  0.076513030	5.260800E+01	  0.076513030	1.199000E+00
284	  0.076713428	-3.109200E+01	  0.076713428	2.355900E+01	  0.076713428	5.260900E+01	  0.076713428	1.173000E+00
285	  0.076913826	-3.100000E+01	  0.076913826	2.342200E+01	  0.076913826	5.264100E+01	  0.076913826	1.180000E+00
286	  0.077114232	-3.102000E+01	  0.077114232	2.334200E+01	  0.077114232	5.263600E+01	  0.077114232	1.173000E+00
287	  0.077314630	-3.096700E+01	  0.077314630	2.293600E+01	  0.077314630	5.266100E+01	  0.077314630	1.162000E+00
288	  0.077515028	-3.099700E+01	  0.077515028	2.298100E+01	  0.077515028	5.265100E+01	  0.077515028	1.160000E+00
289	  0.077715434	-3.080600E+01	  0.077715434	2.298300E+01	  0.077715434	5.271100E+01	  0.077715434	1.187000E+00
290	  0.077915832	-3.085000E+01	  0.077915832	2.330300E+01	  0.077915832	5.269000E+01	  0.077915832	1.196000E+00
291	  0.078116231	-3.077300E+01	  0.078116231	2.275300E+01	  0.078116231	5.272700E+01	  0.078116231	1.180000E+00
292	  0.078316636	-3.080700E+01	  0.078316636	2.359200E+01	  0.078316636	5.269700E+01	  0.078316636	1.216000E+00
293	  0.078517035	-3.076600E+01	  0.078517035	2.268500E+01	  0.078517035	5.273000E+01	  0.078517035	1.178000E+00
294	  0.078717433	-3.071600E+01	  0.078717433	2.286000E+01	  0.078717433	5.274300E+01	  0.078717433	1.194000E+00
295	  0.078917839	-3.073600E+01	  0.078917839	2.358100E+01	  0.078917839	5.272000E+01	  0.078917839	1.226000E+00
296	  0.079118237	-3.070700E+01	  0.079118237	2.340800E+01	  0.079118237	5.273300E+01	  0.079118237	1.222000E+00
297	  0.079318643	-3.078200E+01	  0.079318643	2.378800E+01	  0.079318643	5.270100E+01	  0.079318643	1.229000E+00
298	  0.079519041	-3.073600E+01	  0.079519041	2.389200E+01	  0.079519041	5.271300E+01	  0.079519041	1.241000E+00
299	  0.079719439	-3.080600E+01	  0.079719439	2.367800E+01	  0.079719439	5.269600E+01	  0.079719439	1.220000E+00
300	  0.079919845	-3.082100E+01	  0.079919845	2.389900E+01	  0.079919845	5.268600E+01	  0.079919845	1.229000E+00
301	  0.080120243	-3.083900E+01	  0.080120243	2.393000E+01	  0.080120243	5.268000E+01	  0.080120243	1.227000E+00
302	  0.080320641	-3.081900E+01	  0.080320641	2.354000E+01	  0.080320641	5.269500E+01	  0.080320641	1.212000E+00
303	  0.080521047	-3.082700E+01	  0.080521047	2.358000E+01	  0.080521047	5.269100E+01	  0.080521047	1.213000E+00
304	  0.080721445	-3.085700E+01	  0.080721445	2.355600E+01	  0.080721445	5.268200E+01	  0.080721445	1.207000E+00
305	  0.080921844	-3.092900E+01	  0.080921844	2.324400E+01	  0.080921844	5.266700E+01	  0.080921844	1.182000E+00
306	  0.081122249	-3.096500E+01	  0.081122249	2.287600E+01	  0.081122249	5.266300E+01	  0.081122249	1.159000E+00
307	  0.081322648	-3.096800E+01	  0.081322648	2.265400E+01	  0.081322648	5.266700E+01	  0.081322648	1.148000E+00
308	  0.081523046	-3.099600E+01	  0.081523046	2.250500E+01	  0.081523046	5.266100E+01	  0.081523046	1.137000E+00
309	  0.081723452	-3.099500E+01	  0.081723452	2.238800E+01	  0.081723452	5.266400E+01	  0.081723452	1.132000E+00
310	  0.081923850	-3.101900E+01	  0.081923850	2.139200E+01	  0.081923850	5.267700E+01	  0.081923850	1.081000E+00
311	  0.082124248	-3.104000E+01	  0.082124248	2.100600E+01	  0.082124248	5.267800E+01	  0.082124248	1.060000E+00
312	  0.082324654	-3.099600E+01	  0.082324654	2.044200E+01	  0.082324654	5.270300E+01	  0.082324654	1.038000E+00
313	  0.082525052	-3.093400E+01	  0.082525052	2.014300E+01	  0.082525052	5.272800E+01	  0.082525052	1.032000E+00
314	  0.082725458	-3.093600E+01	  0.082725458	1.973900E+01	  0.082725458	5.273500E+01	  0.082725458	1.012000E+00
315	  0.082925856	-3.087900E+01	  0.082925856	1.938200E+01	  0.082925856	5.276000E+01	  0.082925856	1.001000E+00
316	  0.083126254	-3.087800E+01	  0.083126254	1.910900E+01	  0.083126254	5.276600E+01	  0.083126254	9.880000E-01
317	  0.083326660	-3.078800E+01	  0.083326660	1.890900E+01	  0.083326660	5.279900E+01	  0.083326660	9.890000E-01
318	  0.083527058	-3.079200E+01	  0.083527058	1.848500E+01	  0.083527058	5.280500E+01	  0.083527058	9.670000E-01
319	  0.083727457	-3.068800E+01	  0.083727457	1.784800E+01	  0.083727457	5.285100E+01	  0.083727457	9.470000E-01
320	  0.083927862	-3.062700E+01	  0.083927862	1.854100E+01	  0.083927862	5.285900E+01	  0.083927862	9.890000E-01
321	  0.084128261	-3.054800E+01	  0.084128261	1.815700E+01	  0.084128261	5.289300E+01	  0.084128261	9.790000E-01
322	  0.084328659	-3.050300E+01	  0.084328659	1.839200E+01	  0.084328659	5.290400E+01	  0.084328659	9.970000E-01
323	  0.084529065	-3.050700E+01	  0.084529065	1.833700E+01	  0.084529065	5.290400E+01	  0.084529065	9.930000E-01
324	  0.084729463	-3.045200E+01	  0.084729463	1.864600E+01	  0.084729463	5.291700E+01	  0.084729463	1.016000E+00
325	  0.084929861	-3.040800E+01	  0.084929861	1.892700E+01	  0.084929861	5.292700E+01	  0.084929861	1.036000E+00
326	  0.085130267	-3.039700E+01	  0.085130267	1.879900E+01	  0.085130267	5.293300E+01	  0.085130267	1.031000E+00
327	  0.085330658	-3.038300E+01	  0.085330658	1.916400E+01	  0.085330658	5.293100E+01	  0.085330658	1.052000E+00
328	  0.085531056	-3.036900E+01	  0.085531056	1.905900E+01	  0.085531056	5.293800E+01	  0.085531056	1.048000E+00
329	  0.085731462	-3.037000E+01	  0.085731462	1.868500E+01	  0.085731462	5.294500E+01	  0.085731462	1.028000E+00
330	  0.085931860	-3.037400E+01	  0.085931860	1.924900E+01	  0.085931860	5.293200E+01	  0.085931860	1.058000E+00
331	  0.086132258	-3.042300E+01	  0.086132258	1.949700E+01	  0.086132258	5.291100E+01	  0.086132258	1.064000E+00
332	  0.086332664	-3.038200E+01	  0.086332664	1.928300E+01	  0.086332664	5.292900E+01	  0.086332664	1.058000E+00
333	  0.086533062	-3.041800E+01	  0.086533062	1.929700E+01	  0.086533062	5.291600E+01	  0.086533062	1.054000E+00
334	  0.086733460	-3.040400E+01	  0.086733460	1.925800E+01	  0.086733460	5.292200E+01	  0.086733460	1.054000E+00
335	  0.086933866	-3.049000E+01	  0.086933866	1.888700E+01	  0.086933866	5.289900E+01	  0.086933866	1.024000E+00
336	  0.087134264	-3.041400E+01	  0.087134264	1.863500E+01	  0.087134264	5.293000E+01	  0.087134264	1.020000E+00
337	  0.087334670	-3.042000E+01	  0.087334670	1.882500E+01	  0.087334670	5.292500E+01	  0.087334670	1.030000E+00
338	  0.087535068	-3.048500E+01	  0.087535068	1.872700E+01	  0.087535068	5.290400E+01	  0.087535068	1.016000E+00
339	  0.087735467	-3.046400E+01	  0.087735467	1.834100E+01	  0.087735467	5.291800E+01	  0.087735467	9.990000E-01
340	  0.087935872	-3.045600E+01	  0.087935872	1.821400E+01	  0.087935872	5.292300E+01	  0.087935872	9.930000E-01
341	  0.088136271	-3.042500E+01	  0.088136271	1.804900E+01	  0.088136271	5.293700E+01	  0.088136271	9.880000E-01
342	  0.088336669	-3.047400E+01	  0.088336669	1.792600E+01	  0.088336669	5.292200E+01	  0.088336669	9.760000E-01
343	  0.088537075	-3.039800E+01	  0.088537075	1.769300E+01	  0.088537075	5.295300E+01	  0.088537075	9.730000E-01
344	  0.088737473	-3.044200E+01	  0.088737473	1.804100E+01	  0.088737473	5.293200E+01	  0.088737473	9.860000E-01
345	  0.088937871	-3.046700E+01	  0.088937871	1.763400E+01	  0.088937871	5.293000E+01	  0.088937871	9.610000E-01
346	  0.089138277	-3.046600E+01	  0.089138277	1.745100E+01	  0.089138277	5.293400E+01	  0.089138277	9.520000E-01
347	  0.089338675	-3.042000E+01	  0.089338675	1.733500E+01	  0.089338675	5.295200E+01	  0.089338675	9.510000E-01
348	  0.089539073	-3.041000E+01	  0.089539073	1.762700E+01	  0.089539073	5.295000E+01	  0.089539073	9.680000E-01
349	  0.089739479	-3.039800E+01	  0.089739479	1.761400E+01	  0.089739479	5.295500E+01	  0.089739479	9.690000E-01
350	  0.089939877	-3.041100E+01	  0.089939877	1.731700E+01	  0.089939877	5.295500E+01	  0.089939877	9.510000E-01
351	  0.090140276	-3.044000E+01	  0.090140276	1.748600E+01	  0.090140276	5.294200E+01	  0.090140276	9.570000E-01
352	  0.090340681	-3.049600E+01	  0.090340681	1.781300E+01	  0.090340681	5.291700E+01	  0.090340681	9.670000E-01
353	  0.090541080	-3.049100E+01	  0.090541080	1.732400E+01	  0.090541080	5.292700E+01	  0.090541080	9.420000E-01
354	  0.090741485	-3.050900E+01	  0.090741485	1.740200E+01	  0.090741485	5.292000E+01	  0.090741485	9.440000E-01
355	  0.090941884	-3.054500E+01	  0.090941884	1.692400E+01	  0.090941884	5.291600E+01	  0.090941884	9.150000E-01
356	  0.091142282	-3.060200E+01	  0.091142282	1.722800E+01	  0.091142282	5.289100E+01	  0.091142282	9.250000E-01
357	  0.091342688	-3.055300E+01	  0.091342688	1.700700E+01	  0.091342688	5.291100E+01	  0.091342688	9.190000E-01
358	  0.091543086	-3.062100E+01	  0.091543086	1.682700E+01	  0.091543086	5.289100E+01	  0.091543086	9.020000E-01
359	  0.091743484	-3.058100E+01	  0.091743484	1.636500E+01	  0.091743484	5.291200E+01	  0.091743484	8.820000E-01
360	  0.091943890	-3.058800E+01	  0.091943890	1.615700E+01	  0.091943890	5.291300E+01	  0.091943890	8.710000E-01
361	  0.092144288	-3.061000E+01	  0.092144288	1.578700E+01	  0.092144288	5.291200E+01	  0.092144288	8.490000E-01
362	  0.092344686	-3.062300E+01	  0.092344686	1.556700E+01	  0.092344686	5.291100E+01	  0.092344686	8.360000E-01
363	  0.092545092	-3.065400E+01	  0.092545092	1.471700E+01	  0.092545092	5.291300E+01	  0.092545092	7.890000E-01
364	  0.092745490	-3.066400E+01	  0.092745490	1.493600E+01	  0.092745490	5.290600E+01	  0.092745490	7.990000E-01
365	  0.092945889	-3.064900E+01	  0.092945889	1.420700E+01	  0.092945889	5.292200E+01	  0.092945889	7.620000E-01
366	  0.093146294	-3.062600E+01	  0.093146294	1.365700E+01	  0.093146294	5.293700E+01	  0.093146294	7.360000E-01
367	  0.093346693	-3.053300E+01	  0.093346693	1.345000E+01	  0.093346693	5.297300E+01	  0.093346693	7.330000E-01
368	  0.093547091	-3.055700E+01	  0.093547091	1.305200E+01	  0.093547091	5.297000E+01	  0.093547091	7.100000E-01
369	  0.093747497	-3.056100E+01	  0.093747497	1.297900E+01	  0.093747497	5.296900E+01	  0.093747497	7.050000E-01
370	  0.093947895	-3.050500E+01	  0.093947895	1.275900E+01	  0.093947895	5.299200E+01	  0.093947895	6.990000E-01
371	  0.094148301	-3.041100E+01	  0.094148301	1.284200E+01	  0.094148301	5.302400E+01	  0.094148301	7.110000E-01
372	  0.094348699	-3.044000E+01	  0.094348699	1.245200E+01	  0.094348699	5.301900E+01	  0.094348699	6.870000E-01
373	  0.094549097	-3.042100E+01	  0.094549097	1.228700E+01	  0.094549097	5.302800E+01	  0.094549097	6.800000E-01
374	  0.094749503	-3.038600E+01	  0.094749503	1.229400E+01	  0.094749503	5.304000E+01	  0.094749503	6.830000E-01
375	  0.094949901	-3.035300E+01	  0.094949901	1.211300E+01	  0.094949901	5.305400E+01	  0.094949901	6.760000E-01
376	  0.095150299	-3.034700E+01	  0.095150299	1.197800E+01	  0.095150299	5.305800E+01	  0.095150299	6.690000E-01
377	  0.095350705	-3.034000E+01	  0.095350705	1.198600E+01	  0.095350705	5.306100E+01	  0.095350705	6.700000E-01
378	  0.095551103	-3.032200E+01	  0.095551103	1.134300E+01	  0.095551103	5.307500E+01	  0.095551103	6.360000E-01
379	  0.095751502	-3.029200E+01	  0.095751502	1.170900E+01	  0.095751502	5.308200E+01	  0.095751502	6.590000E-01
380	  0.095951907	-3.029900E+01	  0.095951907	1.149000E+01	  0.095951907	5.308200E+01	  0.095951907	6.460000E-01
381	  0.096152306	-3.029800E+01	  0.096152306	1.128700E+01	  0.096152306	5.308400E+01	  0.096152306	6.350000E-01
382	  0.096352704	-3.028700E+01	  0.096352704	1.127900E+01	  0.096352704	5.308800E+01	  0.096352704	6.350000E-01
383	  0.096553110	-3.027700E+01	  0.096553110	1.090000E+01	  0.096553110	5.309700E+01	  0.096553110	6.150000E-01
384	  0.096753508	-3.022900E+01	  0.096753508	1.076800E+01	  0.096753508	5.311600E+01	  0.096753508	6.110000E-01
385	  0.096953906	-3.024400E+01	  0.096953906	1.027400E+01	  0.096953906	5.311600E+01	  0.096953906	5.830000E-01
386	  0.097154312	-3.022200E+01	  0.097154312	1.040600E+01	  0.097154312	5.312200E+01	  0.097154312	5.920000E-01
387	  0.097354710	-3.019800E+01	  0.097354710	9.808000E+00	  0.097354710	5.313800E+01	  0.097354710	5.600000E-01
388	  0.097555116	-3.021700E+01	  0.097555116	9.826000E+00	  0.097555116	5.313100E+01	  0.097555116	5.590000E-01
389	  0.097755514	-3.013000E+01	  0.097755514	9.696000E+00	  0.097755514	5.316400E+01	  0.097755514	5.580000E-01
390	  0.097955912	-3.007200E+01	  0.097955912	9.795000E+00	  0.097955912	5.318500E+01	  0.097955912	5.680000E-01
391	  0.098156318	-3.002800E+01	  0.098156318	9.625000E+00	  0.098156318	5.320400E+01	  0.098156318	5.610000E-01
392	  0.098356716	-2.999500E+01	  0.098356716	9.381000E+00	  0.098356716	5.321900E+01	  0.098356716	5.490000E-01
393	  0.098557115	-2.989600E+01	  0.098557115	9.271000E+00	  0.098557115	5.325800E+01	  0.098557115	5.490000E-01
394	  0.098757520	-2.987600E+01	  0.098757520	9.237000E+00	  0.098757520	5.326600E+01	  0.098757520	5.490000E-01
395	  0.098957919	-2.981500E+01	  0.098957919	9.270000E+00	  0.098957919	5.329000E+01	  0.098957919	5.550000E-01
396	  0.099158317	-2.982700E+01	  0.099158317	9.669000E+00	  0.099158317	5.328100E+01	  0.099158317	5.770000E-01
397	  0.099358723	-2.975100E+01	  0.099358723	9.920000E+00	  0.099358723	5.330800E+01	  0.099358723	5.980000E-01
398	  0.099559121	-2.974700E+01	  0.099559121	1.029100E+01	  0.099559121	5.330500E+01	  0.099559121	6.200000E-01
399	  0.099759519	-2.971100E+01	  0.099759519	1.042700E+01	  0.099759519	5.331700E+01	  0.099759519	6.310000E-01
400	  0.099959925	-2.961500E+01	  0.099959925	1.124400E+01	  0.099959925	5.334500E+01	  0.099959925	6.880000E-01
401	  0.100160323	-2.975000E+01	  0.100160323	1.134100E+01	  0.100160323	5.329100E+01	  0.100160323	6.820000E-01
402	  0.100360721	-2.966800E+01	  0.100360721	1.207000E+01	  0.100360721	5.331400E+01	  0.100360721	7.330000E-01
403	  0.100561127	-2.974700E+01	  0.100561127	1.164700E+01	  0.100561127	5.328800E+01	  0.100561127	7.010000E-01
404	  0.100761525	-2.981600E+01	  0.100761525	1.220200E+01	  0.100761525	5.325400E+01	  0.100761525	7.270000E-01
405	  0.100961931	-2.989600E+01	  0.100961931	1.239300E+01	  0.100961931	5.322100E+01	  0.100961931	7.310000E-01
406	  0.101162329	-2.990200E+01	  0.101162329	1.258400E+01	  0.101162329	5.321600E+01	  0.101162329	7.420000E-01
407	  0.101362728	-3.007000E+01	  0.101362728	1.276600E+01	  0.101362728	5.315000E+01	  0.101362728	7.370000E-01
408	  0.101563133	-3.009700E+01	  0.101563133	1.259300E+01	  0.101563133	5.314200E+01	  0.101563133	7.250000E-01
409	  0.101763532	-3.020000E+01	  0.101763532	1.200500E+01	  0.101763532	5.311200E+01	  0.101763532	6.830000E-01
410	  0.101963930	-3.023700E+01	  0.101963930	1.235700E+01	  0.101963930	5.309400E+01	  0.101963930	6.990000E-01
411	  0.102164336	-3.033400E+01	  0.102164336	1.230900E+01	  0.102164336	5.305900E+01	  0.102164336	6.890000E-01
412	  0.102364734	-3.038800E+01	  0.102364734	1.141700E+01	  0.102364734	5.305000E+01	  0.102364734	6.350000E-01
413	  0.102565132	-3.047000E+01	  0.102565132	1.131900E+01	  0.102565132	5.302200E+01	  0.102565132	6.240000E-01
414	  0.102765530	-3.056700E+01	  0.102765530	9.973000E+00	  0.102765530	5.300200E+01	  0.102765530	5.440000E-01
415	  0.102965929	-3.054400E+01	  0.102965929	9.484000E+00	  0.102965929	5.301500E+01	  0.102965929	5.190000E-01
416	  0.103166327	-3.060700E+01	  0.103166327	8.925000E+00	  0.103166327	5.299700E+01	  0.103166327	4.850000E-01
417	  0.103366733	-3.056000E+01	  0.103366733	8.103000E+00	  0.103366733	5.302200E+01	  0.103366733	4.430000E-01
418	  0.103567131	-3.055300E+01	  0.103567131	7.642000E+00	  0.103567131	5.302800E+01	  0.103567131	4.180000E-01
419	  0.103767529	-3.050800E+01	  0.103767529	6.288000E+00	  0.103767529	5.305300E+01	  0.103767529	3.460000E-01
420	  0.103967935	-3.039100E+01	  0.103967935	5.576000E+00	  0.103967935	5.310000E+01	  0.103967935	3.120000E-01
421	  0.104168333	-3.034200E+01	  0.104168333	4.929000E+00	  0.104168333	5.312200E+01	  0.104168333	2.770000E-01
422	  0.104368731	-3.025300E+01	  0.104368731	4.973000E+00	  0.104368731	5.315500E+01	  0.104368731	2.830000E-01
423	  0.104569137	-3.019900E+01	  0.104569137	4.701000E+00	  0.104569137	5.317700E+01	  0.104569137	2.690000E-01
424	  0.104769535	-3.009200E+01	  0.104769535	4.124000E+00	  0.104769535	5.322000E+01	  0.104769535	2.390000E-01
425	  0.104969934	-2.996800E+01	  0.104969934	4.679000E+00	  0.104969934	5.326500E+01	  0.104969934	2.760000E-01
426	  0.105170339	-2.994600E+01	  0.105170339	4.774000E+00	  0.105170339	5.327300E+01	  0.105170339	2.820000E-01
427	  0.105370738	-2.988500E+01	  0.105370738	5.037000E+00	  0.105370738	5.329600E+01	  0.105370738	3.000000E-01
428	  0.105571143	-2.979400E+01	  0.105571143	5.108000E+00	  0.105571143	5.333100E+01	  0.105571143	3.070000E-01
429	  0.105771542	-2.971700E+01	  0.105771542	5.601000E+00	  0.105771542	5.335900E+01	  0.105771542	3.400000E-01
430	  0.105971940	-2.980100E+01	  0.105971940	5.748000E+00	  0.105971940	5.332500E+01	  0.105971940	3.450000E-01
431	  0.106172346	-2.971700E+01	  0.106172346	6.373000E+00	  0.106172346	5.335400E+01	  0.106172346	3.870000E-01
432	  0.106372744	-2.967800E+01	  0.106372744	6.543000E+00	  0.106372744	5.336800E+01	  0.106372744	3.990000E-01
433	  0.106573142	-2.975500E+01	  0.106573142	6.298000E+00	  0.106573142	5.333900E+01	  0.106573142	3.810000E-01
434	  0.106773548	-2.973900E+01	  0.106773548	7.301000E+00	  0.106773548	5.333800E+01	  0.106773548	4.420000E-01
435	  0.106973946	-2.981700E+01	  0.106973946	7.943000E+00	  0.106973946	5.330100E+01	  0.106973946	4.760000E-01
436	  0.107174344	-2.993100E+01	  0.107174344	7.712000E+00	  0.107174344	5.325900E+01	  0.107174344	4.560000E-01
437	  0.107374750	-2.996300E+01	  0.107374750	7.621000E+00	  0.107374750	5.324700E+01	  0.107374750	4.490000E-01
438	  0.107575148	-3.002800E+01	  0.107575148	8.206000E+00	  0.107575148	5.321700E+01	  0.107575148	4.790000E-01
439	  0.107775547	-3.006100E+01	  0.107775547	7.528000E+00	  0.107775547	5.321100E+01	  0.107775547	4.380000E-01
440	  0.107975952	-3.014900E+01	  0.107975952	7.040000E+00	  0.107975952	5.318100E+01	  0.107975952	4.050000E-01
441	  0.108176351	-3.014200E+01	  0.108176351	6.841000E+00	  0.108176351	5.318500E+01	  0.108176351	3.940000E-01
442	  0.108376749	-3.013400E+01	  0.108376749	6.416000E+00	  0.108376749	5.319100E+01	  0.108376749	3.700000E-01
443	  0.108577155	-3.028200E+01	  0.108577155	5.844000E+00	  0.108577155	5.313900E+01	  0.108577155	3.310000E-01
444	  0.108777553	-3.027800E+01	  0.108777553	5.280000E+00	  0.108777553	5.314400E+01	  0.108777553	2.990000E-01
445	  0.108977959	-3.027100E+01	  0.108977959	5.134000E+00	  0.108977959	5.314700E+01	  0.108977959	2.910000E-01
446	  0.109178357	-3.024100E+01	  0.109178357	4.303000E+00	  0.109178357	5.316300E+01	  0.109178357	2.450000E-01
447	  0.109378755	-3.022000E+01	  0.109378755	4.427000E+00	  0.109378755	5.317000E+01	  0.109378755	2.530000E-01
448	  0.109579161	-3.019000E+01	  0.109579161	3.989000E+00	  0.109579161	5.318300E+01	  0.109579161	2.290000E-01
449	  0.109779559	-3.017200E+01	  0.109779559	3.653000E+00	  0.109779559	5.319100E+01	  0.109779559	2.100000E-01
450	  0.109979957	-3.012700E+01	  0.109979957	3.549000E+00	  0.109979957	5.320900E+01	  0.109979957	2.050000E-01
451	  0.110180363	-3.004900E+01	  0.110180363	3.802000E+00	  0.110180363	5.323800E+01	  0.110180363	2.220000E-01
452	  0.110380761	-3.003100E+01	  0.110380761	3.372000E+00	  0.110380761	5.324700E+01	  0.110380761	1.970000E-01
453	  0.110581160	-2.999300E+01	  0.110581160	3.301000E+00	  0.110581160	5.326200E+01	  0.110581160	1.940000E-01
454	  0.110781565	-2.988700E+01	  0.110781565	3.704000E+00	  0.110781565	5.330100E+01	  0.110781565	2.200000E-01
455	  0.110981964	-2.990200E+01	  0.110981964	4.002000E+00	  0.110981964	5.329400E+01	  0.110981964	2.380000E-01
456	  0.111182362	-2.991600E+01	  0.111182362	3.105000E+00	  0.111182362	5.329200E+01	  0.111182362	1.840000E-01
457	  0.111382768	-2.993400E+01	  0.111382768	3.983000E+00	  0.111382768	5.328200E+01	  0.111382768	2.360000E-01
458	  0.111583166	-2.991400E+01	  0.111583166	4.506000E+00	  0.111583166	5.328700E+01	  0.111583166	2.670000E-01
459	  0.111783572	-2.999100E+01	  0.111783572	3.924000E+00	  0.111783572	5.326000E+01	  0.111783572	2.300000E-01
460	  0.111983970	-3.001500E+01	  0.111983970	4.527000E+00	  0.111983970	5.324800E+01	  0.111983970	2.650000E-01
461	  0.112184368	-3.003800E+01	  0.112184368	4.584000E+00	  0.112184368	5.323900E+01	  0.112184368	2.680000E-01
462	  0.112384774	-3.017300E+01	  0.112384774	4.536000E+00	  0.112384774	5.318700E+01	  0.112384774	2.610000E-01
463	  0.112585172	-3.017300E+01	  0.112585172	4.659000E+00	  0.112585172	5.318700E+01	  0.112585172	2.680000E-01
464	  0.112785570	-3.031700E+01	  0.112785570	4.709000E+00	  0.112785570	5.313300E+01	  0.112785570	2.660000E-01
465	  0.112985976	-3.036900E+01	  0.112985976	4.651000E+00	  0.112985976	5.311400E+01	  0.112985976	2.610000E-01
466	  0.113186374	-3.034400E+01	  0.113186374	3.983000E+00	  0.113186374	5.312600E+01	  0.113186374	2.240000E-01
467	  0.113386773	-3.047300E+01	  0.113386773	3.389000E+00	  0.113386773	5.308000E+01	  0.113386773	1.880000E-01
468	  0.113587178	-3.048200E+01	  0.113587178	2.916000E+00	  0.113587178	5.307900E+01	  0.113587178	1.610000E-01
469	  0.113787577	-3.052600E+01	  0.113787577	1.968000E+00	  0.113787577	5.306500E+01	  0.113787577	1.080000E-01
470	  0.113987975	-3.058000E+01	  0.113987975	1.304000E+00	  0.113987975	5.304700E+01	  0.113987975	7.100000E-02
471	  0.114188381	-3.058800E+01	  0.114188381	4.080000E-01	  0.114188381	5.304400E+01	  0.114188381	2.200000E-02
472	  0.114388779	-3.054400E+01	  0.114388779	-4.370000E-01	  0.114388779	5.306000E+01	  0.114388779	-2.400000E-02
473	  0.114589177	-3.056200E+01	  0.114589177	-1.263000E+00	  0.114589177	5.305300E+01	  0.114589177	-6.900000E-02
474	  0.114789583	-3.045200E+01	  0.114789583	-1.765000E+00	  0.114789583	5.309300E+01	  0.114789583	-9.800000E-02
475	  0.114989981	-3.032800E+01	  0.114989981	-2.354000E+00	  0.114989981	5.313700E+01	  0.114989981	-1.330000E-01
476	  0.115190387	-3.030500E+01	  0.115190387	-2.944000E+00	  0.115190387	5.314400E+01	  0.115190387	-1.660000E-01
477	  0.115390785	-3.013700E+01	  0.115390785	-2.323000E+00	  0.115390785	5.320900E+01	  0.115390785	-1.340000E-01
478	  0.115591183	-3.017200E+01	  0.115591183	-3.320000E+00	  0.115591183	5.319300E+01	  0.115591183	-1.910000E-01
479	  0.115791589	-3.012200E+01	  0.115791589	-3.468000E+00	  0.115791589	5.321100E+01	  0.115791589	-2.000000E-01
480	  0.115991987	-2.996600E+01	  0.115991987	-2.898000E+00	  0.115991987	5.327300E+01	  0.115991987	-1.710000E-01
481	  0.116192386	-2.991900E+01	  0.116192386	-3.379000E+00	  0.116192386	5.329000E+01	  0.116192386	-2.000000E-01
482	  0.116392791	-2.985700E+01	  0.116392791	-2.058000E+00	  0.116392791	5.331800E+01	  0.116392791	-1.230000E-01
483	  0.116593190	-2.981800E+01	  0.116593190	-2.697000E+00	  0.116593190	5.333200E+01	  0.116593190	-1.620000E-01
484	  0.116793588	-2.981500E+01	  0.116793588	-1.832000E+00	  0.116793588	5.333500E+01	  0.116793588	-1.100000E-01
485	  0.116993994	-2.976400E+01	  0.116993994	-1.857000E+00	  0.116993994	5.335600E+01	  0.116993994	-1.120000E-01
486	  0.117194392	-2.973700E+01	  0.117194392	-1.917000E+00	  0.117194392	5.336700E+01	  0.117194392	-1.160000E-01
487	  0.117394790	-2.979800E+01	  0.117394790	-1.496000E+00	  0.117394790	5.334300E+01	  0.117394790	-9.000000E-02
488	  0.117595196	-2.986300E+01	  0.117595196	-5.880000E-01	  0.117595196	5.331800E+01	  0.117595196	-3.500000E-02
489	  0.117795594	-2.987900E+01	  0.117795594	-3.290000E-01	  0.117795594	5.331200E+01	  0.117795594	-1.900000E-02
490	  0.117995992	-2.990200E+01	  0.117995992	-2.700000E-01	  0.117995992	5.330300E+01	  0.117995992	-1.600000E-02
491	  0.118196398	-2.999800E+01	  0.118196398	-7.570000E-01	  0.118196398	5.326500E+01	  0.118196398	-4.400000E-02
492	  0.118396796	-3.010000E+01	  0.118396796	-4.120000E-01	  0.118396796	5.322600E+01	  0.118396796	-2.300000E-02
493	  0.118597202	-3.012200E+01	  0.118597202	-5.090000E-01	  0.118597202	5.321800E+01	  0.118597202	-2.900000E-02
494	  0.118797600	-3.021300E+01	  0.118797600	-6.480000E-01	  0.118797600	5.318300E+01	  0.118797600	-3.700000E-02
495	  0.118997999	-3.029700E+01	  0.118997999	-1.315000E+00	  0.118997999	5.315100E+01	  0.118997999	-7.400000E-02
496	  0.119198404	-3.030500E+01	  0.119198404	-1.570000E+00	  0.119198404	5.314700E+01	  0.119198404	-8.800000E-02
497	  0.119398803	-3.031400E+01	  0.119398803	-2.096000E+00	  0.119398803	5.314300E+01	  0.119398803	-1.180000E-01
498	  0.119599201	-3.033600E+01	  0.119599201	-2.625000E+00	  0.119599201	5.313400E+01	  0.119599201	-1.480000E-01
499	  0.119799607	-3.039800E+01	  0.119799607	-3.243000E+00	  0.119799607	5.310800E+01	  0.119799607	-1.810000E-01
500	  0.120000005	-3.038700E+01	  0.120000005	-3.898000E+00	  0.120000005	5.311000E+01	  0.120000005	-2.180000E-01
