! Anritsu VNA Master:             	Model: MS2036C/10/77
! SN:             	1601066
! /card0/usr/18may27.balun/5b.r20.txt
! Existing Calibration Information:
! TYPE:             	Current Settings	Active Cal Settings
! TIME:             	05/27/2018 03:33:01 PM	05/27/2018 03:21:57 PM
! INTERNAL TEMP:    	53.0 C	52.3 C
! # POINTS:         	500	500
! START FREQ:       	20.000 MHz	20.000 MHz
! STOP FREQ:        	120.000 MHz	120.000 MHz
! SOURCE POWER:     	High	High
! IFBW:             	50 Hz	50 Hz
! AVG FACTOR:       	  1 	  1 
! REF PLANE 1:      	0 mm	0 mm
! REF PLANE 2:      	0 mm	0 mm
! CAL TYPE:         	Full S11	Full S11
! CAL METHOD:       	SOLT	SOLT
! CAL LINE TYPE:    	Coax	Coax
! DUT PORT 1:       	K-Conn(M)	K-Conn(M)
! DUT PORT 2:       	K-Conn(M)	K-Conn(M)
! CAL STATUS:       	OK: Accuracy High	--
! PROP-V:       	0.700
! CABLE LOSS:       	0.000 dB/m
! REF IMPEDANCE:       	50.0
! Trace Specific Parameters:	TR1	TR2	TR3	TR4
! TRACE.#.Y (GRAPH TYPE)	LOG MAG	PHASE	REAL IMPEDANCE	IMAGINARY IMPEDANCE
! TRACE.#.X 	FREQ.GHZ	FREQ.GHZ	FREQ.GHZ	FREQ.GHZ
! S-PARAMETER	S11	S11	S11	S11
! SMOOTH/APERTURE %	0	0	0	0
! WINDOW	NSL	NSL	NSL	NSL
! GATING	OFF	OFF	OFF	OFF
! FGTD	OFF	OFF	OFF	OFF
Marker Information per Trace:	TR1	TR2	TR3	TR4
!MK1	--	--	--	"MK1 TR4:  70.100 200 MHz,Z:(31.611 ohm, 34.165 ohm)"
!MK2	--	--	--	--
!MK3	--	--	--	--
!MK4	--	--	--	--
!MK5	--	--	--	--
!MK6	--	--	--	--
!MK7	--	--	--	--
!MK8	--	--	--	--
PNT	TR1.FREQ.GHZ	TR1.LOG MAG.dB	TR2.FREQ.GHZ	TR2.PHASE.deg	TR3.FREQ.GHZ	TR3.REAL IMPEDANCE.ohm	TR4.FREQ.GHZ	TR4.IMAGINARY IMPEDANCE.ohm
1	  0.020000000	-7.350000E+00	  0.020000000	1.551320E+02	  0.020000000	2.078900E+01	  0.020000000	9.192000E+00
2	  0.020200402	-7.356000E+00	  0.020200402	1.548290E+02	  0.020200402	2.082300E+01	  0.020200402	9.303000E+00
3	  0.020400802	-7.358000E+00	  0.020400802	1.545270E+02	  0.020400802	2.084900E+01	  0.020400802	9.416000E+00
4	  0.020601204	-7.354000E+00	  0.020601204	1.541910E+02	  0.020601204	2.086200E+01	  0.020601204	9.544000E+00
5	  0.020801604	-7.348000E+00	  0.020801604	1.538800E+02	  0.020801604	2.086900E+01	  0.020801604	9.664000E+00
6	  0.021002004	-7.344000E+00	  0.021002004	1.535560E+02	  0.021002004	2.088300E+01	  0.021002004	9.788000E+00
7	  0.021202406	-7.336000E+00	  0.021202406	1.532540E+02	  0.021202406	2.088400E+01	  0.021202406	9.906000E+00
8	  0.021402806	-7.331000E+00	  0.021402806	1.529870E+02	  0.021402806	2.089000E+01	  0.021402806	1.000900E+01
9	  0.021603208	-7.323000E+00	  0.021603208	1.527290E+02	  0.021603208	2.088900E+01	  0.021603208	1.011000E+01
10	  0.021803608	-7.319000E+00	  0.021803608	1.524760E+02	  0.021803608	2.089800E+01	  0.021803608	1.020800E+01
11	  0.022004008	-7.311000E+00	  0.022004008	1.522360E+02	  0.022004008	2.089500E+01	  0.022004008	1.030300E+01
12	  0.022204408	-7.302000E+00	  0.022204408	1.520580E+02	  0.022204408	2.088800E+01	  0.022204408	1.037400E+01
13	  0.022404809	-7.291000E+00	  0.022404809	1.518720E+02	  0.022404809	2.087400E+01	  0.022404809	1.045100E+01
14	  0.022605211	-7.286000E+00	  0.022605211	1.516700E+02	  0.022605211	2.087700E+01	  0.022605211	1.053000E+01
15	  0.022805611	-7.281000E+00	  0.022805611	1.515030E+02	  0.022805611	2.087700E+01	  0.022805611	1.059600E+01
16	  0.023006011	-7.274000E+00	  0.023006011	1.513210E+02	  0.023006011	2.087400E+01	  0.023006011	1.066800E+01
17	  0.023206413	-7.273000E+00	  0.023206413	1.511550E+02	  0.023206413	2.088200E+01	  0.023206413	1.073200E+01
18	  0.023406813	-7.274000E+00	  0.023406813	1.509720E+02	  0.023406813	2.090000E+01	  0.023406813	1.080200E+01
19	  0.023607215	-7.278000E+00	  0.023607215	1.507880E+02	  0.023607215	2.092600E+01	  0.023607215	1.086900E+01
20	  0.023807615	-7.284000E+00	  0.023807615	1.505990E+02	  0.023807615	2.095600E+01	  0.023807615	1.093800E+01
21	  0.024008015	-7.291000E+00	  0.024008015	1.503930E+02	  0.024008015	2.098900E+01	  0.024008015	1.101300E+01
22	  0.024208417	-7.298000E+00	  0.024208417	1.502180E+02	  0.024208417	2.102000E+01	  0.024208417	1.107600E+01
23	  0.024408817	-7.311000E+00	  0.024408817	1.499820E+02	  0.024408817	2.107200E+01	  0.024408817	1.115800E+01
24	  0.024609219	-7.322000E+00	  0.024609219	1.497670E+02	  0.024609219	2.111700E+01	  0.024609219	1.123400E+01
25	  0.024809619	-7.333000E+00	  0.024809619	1.495210E+02	  0.024809619	2.116600E+01	  0.024809619	1.132200E+01
26	  0.025010020	-7.343000E+00	  0.025010020	1.492480E+02	  0.025010020	2.121400E+01	  0.025010020	1.142000E+01
27	  0.025210422	-7.354000E+00	  0.025210422	1.489490E+02	  0.025210422	2.126700E+01	  0.025210422	1.152800E+01
28	  0.025410822	-7.362000E+00	  0.025410822	1.486080E+02	  0.025410822	2.131600E+01	  0.025410822	1.165300E+01
29	  0.025611224	-7.364000E+00	  0.025611224	1.482740E+02	  0.025611224	2.135100E+01	  0.025611224	1.177900E+01
30	  0.025811624	-7.361000E+00	  0.025811624	1.479200E+02	  0.025811624	2.137600E+01	  0.025811624	1.191500E+01
31	  0.026012026	-7.353000E+00	  0.026012026	1.475630E+02	  0.026012026	2.138600E+01	  0.026012026	1.205700E+01
32	  0.026212426	-7.346000E+00	  0.026212426	1.472320E+02	  0.026212426	2.140000E+01	  0.026212426	1.218700E+01
33	  0.026412826	-7.340000E+00	  0.026412826	1.468960E+02	  0.026412826	2.141300E+01	  0.026412826	1.232000E+01
34	  0.026613226	-7.327000E+00	  0.026613226	1.466220E+02	  0.026613226	2.140600E+01	  0.026613226	1.243300E+01
35	  0.026813626	-7.315000E+00	  0.026813626	1.463640E+02	  0.026813626	2.140100E+01	  0.026813626	1.253800E+01
36	  0.027014028	-7.309000E+00	  0.027014028	1.461790E+02	  0.027014028	2.140300E+01	  0.027014028	1.261400E+01
37	  0.027214428	-7.299000E+00	  0.027214428	1.459920E+02	  0.027214428	2.139500E+01	  0.027214428	1.269200E+01
38	  0.027414829	-7.284000E+00	  0.027414829	1.458220E+02	  0.027414829	2.137300E+01	  0.027414829	1.276700E+01
39	  0.027615231	-7.280000E+00	  0.027615231	1.456630E+02	  0.027615231	2.137900E+01	  0.027615231	1.283000E+01
40	  0.027815631	-7.278000E+00	  0.027815631	1.454860E+02	  0.027815631	2.139100E+01	  0.027815631	1.289900E+01
41	  0.028016033	-7.276000E+00	  0.028016033	1.453060E+02	  0.028016033	2.140200E+01	  0.028016033	1.297000E+01
42	  0.028216433	-7.272000E+00	  0.028216433	1.451450E+02	  0.028216433	2.140900E+01	  0.028216433	1.303500E+01
43	  0.028416833	-7.273000E+00	  0.028416833	1.449470E+02	  0.028416833	2.142900E+01	  0.028416833	1.311100E+01
44	  0.028617235	-7.272000E+00	  0.028617235	1.447970E+02	  0.028617235	2.144300E+01	  0.028617235	1.316900E+01
45	  0.028817635	-7.276000E+00	  0.028817635	1.446180E+02	  0.028817635	2.147100E+01	  0.028817635	1.323600E+01
46	  0.029018037	-7.281000E+00	  0.029018037	1.444140E+02	  0.029018037	2.150400E+01	  0.029018037	1.331100E+01
47	  0.029218437	-7.288000E+00	  0.029218437	1.442230E+02	  0.029218437	2.154000E+01	  0.029218437	1.338100E+01
48	  0.029418837	-7.294000E+00	  0.029418837	1.440540E+02	  0.029418837	2.157200E+01	  0.029418837	1.344200E+01
49	  0.029619239	-7.300000E+00	  0.029619239	1.438740E+02	  0.029619239	2.160700E+01	  0.029619239	1.350700E+01
50	  0.029819639	-7.311000E+00	  0.029819639	1.437020E+02	  0.029819639	2.165200E+01	  0.029819639	1.356700E+01
51	  0.030020041	-7.322000E+00	  0.030020041	1.434950E+02	  0.030020041	2.170200E+01	  0.030020041	1.363900E+01
52	  0.030220442	-7.335000E+00	  0.030220442	1.432620E+02	  0.030220442	2.175800E+01	  0.030220442	1.372000E+01
53	  0.030420844	-7.351000E+00	  0.030420844	1.429950E+02	  0.030420844	2.182800E+01	  0.030420844	1.381200E+01
54	  0.030621244	-7.371000E+00	  0.030621244	1.426480E+02	  0.030621244	2.191500E+01	  0.030621244	1.393300E+01
55	  0.030821644	-7.380000E+00	  0.030821644	1.422890E+02	  0.030821644	2.197700E+01	  0.030821644	1.406500E+01
56	  0.031022044	-7.385000E+00	  0.031022044	1.418980E+02	  0.031022044	2.203100E+01	  0.031022044	1.421300E+01
57	  0.031222444	-7.380000E+00	  0.031222444	1.415250E+02	  0.031222444	2.206100E+01	  0.031222444	1.436000E+01
58	  0.031422846	-7.375000E+00	  0.031422846	1.411300E+02	  0.031422846	2.209200E+01	  0.031422846	1.451700E+01
59	  0.031623244	-7.370000E+00	  0.031623244	1.407700E+02	  0.031623244	2.211800E+01	  0.031623244	1.466100E+01
60	  0.031823646	-7.356000E+00	  0.031823646	1.404270E+02	  0.031823646	2.212300E+01	  0.031823646	1.480400E+01
61	  0.032024048	-7.341000E+00	  0.032024048	1.401240E+02	  0.032024048	2.211700E+01	  0.032024048	1.493500E+01
62	  0.032224450	-7.323000E+00	  0.032224450	1.398310E+02	  0.032224450	2.210600E+01	  0.032224450	1.506200E+01
63	  0.032424849	-7.300000E+00	  0.032424849	1.395970E+02	  0.032424849	2.207400E+01	  0.032424849	1.517100E+01
64	  0.032625251	-7.283000E+00	  0.032625251	1.393990E+02	  0.032625251	2.205200E+01	  0.032625251	1.526200E+01
65	  0.032825653	-7.269000E+00	  0.032825653	1.391990E+02	  0.032825653	2.204100E+01	  0.032825653	1.535100E+01
66	  0.033026051	-7.258000E+00	  0.033026051	1.390690E+02	  0.033026051	2.202800E+01	  0.033026051	1.541100E+01
67	  0.033226453	-7.250000E+00	  0.033226453	1.389230E+02	  0.033226453	2.202300E+01	  0.033226453	1.547500E+01
68	  0.033426855	-7.245000E+00	  0.033426855	1.387850E+02	  0.033426855	2.202700E+01	  0.033426855	1.553300E+01
69	  0.033627257	-7.243000E+00	  0.033627257	1.386060E+02	  0.033627257	2.204200E+01	  0.033627257	1.560600E+01
70	  0.033827655	-7.244000E+00	  0.033827655	1.384710E+02	  0.033827655	2.206200E+01	  0.033827655	1.565800E+01
71	  0.034028057	-7.249000E+00	  0.034028057	1.383240E+02	  0.034028057	2.209300E+01	  0.034028057	1.571100E+01
72	  0.034228459	-7.255000E+00	  0.034228459	1.381860E+02	  0.034228459	2.212600E+01	  0.034228459	1.576100E+01
73	  0.034428857	-7.266000E+00	  0.034428857	1.380110E+02	  0.034428857	2.217500E+01	  0.034428857	1.582100E+01
74	  0.034629259	-7.273000E+00	  0.034629259	1.378520E+02	  0.034629259	2.221400E+01	  0.034629259	1.587800E+01
75	  0.034829661	-7.284000E+00	  0.034829661	1.376830E+02	  0.034829661	2.226300E+01	  0.034829661	1.593600E+01
76	  0.035030060	-7.290000E+00	  0.035030060	1.374620E+02	  0.035030060	2.230700E+01	  0.035030060	1.601800E+01
77	  0.035230462	-7.296000E+00	  0.035230462	1.372310E+02	  0.035230462	2.234900E+01	  0.035230462	1.610500E+01
78	  0.035430863	-7.304000E+00	  0.035430863	1.369840E+02	  0.035430863	2.240300E+01	  0.035430863	1.619500E+01
79	  0.035631265	-7.314000E+00	  0.035631265	1.367830E+02	  0.035631265	2.245300E+01	  0.035631265	1.626700E+01
80	  0.035831664	-7.327000E+00	  0.035831664	1.365470E+02	  0.035831664	2.251800E+01	  0.035831664	1.634800E+01
81	  0.036032066	-7.343000E+00	  0.036032066	1.362490E+02	  0.036032066	2.259800E+01	  0.036032066	1.645200E+01
82	  0.036232468	-7.359000E+00	  0.036232468	1.359200E+02	  0.036232468	2.268200E+01	  0.036232468	1.656800E+01
83	  0.036432866	-7.374000E+00	  0.036432866	1.355580E+02	  0.036432866	2.276900E+01	  0.036432866	1.669800E+01
84	  0.036633268	-7.380000E+00	  0.036633268	1.351790E+02	  0.036633268	2.283400E+01	  0.036633268	1.684300E+01
85	  0.036833670	-7.385000E+00	  0.036833670	1.347720E+02	  0.036833670	2.290300E+01	  0.036833670	1.699900E+01
86	  0.037034072	-7.381000E+00	  0.037034072	1.344040E+02	  0.037034072	2.294300E+01	  0.037034072	1.714800E+01
87	  0.037234470	-7.375000E+00	  0.037234470	1.340260E+02	  0.037234470	2.298100E+01	  0.037234470	1.730200E+01
88	  0.037434869	-7.358000E+00	  0.037434869	1.336780E+02	  0.037434869	2.298500E+01	  0.037434869	1.745600E+01
89	  0.037635271	-7.341000E+00	  0.037635271	1.333680E+02	  0.037635271	2.298200E+01	  0.037635271	1.759600E+01
90	  0.037835669	-7.319000E+00	  0.037835669	1.330870E+02	  0.037835669	2.296400E+01	  0.037835669	1.772900E+01
91	  0.038036071	-7.297000E+00	  0.038036071	1.328560E+02	  0.038036071	2.294000E+01	  0.038036071	1.784100E+01
92	  0.038236473	-7.280000E+00	  0.038236473	1.326840E+02	  0.038236473	2.291900E+01	  0.038236473	1.792600E+01
93	  0.038436871	-7.270000E+00	  0.038436871	1.325250E+02	  0.038436871	2.291600E+01	  0.038436871	1.799900E+01
94	  0.038637273	-7.263000E+00	  0.038637273	1.323640E+02	  0.038637273	2.292000E+01	  0.038637273	1.807100E+01
95	  0.038837675	-7.255000E+00	  0.038837675	1.322400E+02	  0.038837675	2.291800E+01	  0.038837675	1.812800E+01
96	  0.039038073	-7.256000E+00	  0.039038073	1.320570E+02	  0.039038073	2.294600E+01	  0.039038073	1.820100E+01
97	  0.039238475	-7.255000E+00	  0.039238475	1.319250E+02	  0.039238475	2.296400E+01	  0.039238475	1.825400E+01
98	  0.039438877	-7.261000E+00	  0.039438877	1.317710E+02	  0.039438877	2.300200E+01	  0.039438877	1.831100E+01
99	  0.039639279	-7.263000E+00	  0.039639279	1.316230E+02	  0.039639279	2.302900E+01	  0.039639279	1.836900E+01
100	  0.039839678	-7.267000E+00	  0.039839678	1.314670E+02	  0.039839678	2.306200E+01	  0.039839678	1.842800E+01
101	  0.040040080	-7.271000E+00	  0.040040080	1.313150E+02	  0.040040080	2.309600E+01	  0.040040080	1.848500E+01
102	  0.040240481	-7.275000E+00	  0.040240481	1.311320E+02	  0.040240481	2.313400E+01	  0.040240481	1.855400E+01
103	  0.040440880	-7.282000E+00	  0.040440880	1.309200E+02	  0.040440880	2.318500E+01	  0.040440880	1.863300E+01
104	  0.040641282	-7.287000E+00	  0.040641282	1.306980E+02	  0.040641282	2.323200E+01	  0.040641282	1.871800E+01
105	  0.040841684	-7.291000E+00	  0.040841684	1.304970E+02	  0.040841684	2.327200E+01	  0.040841684	1.879500E+01
106	  0.041042086	-7.305000E+00	  0.041042086	1.302970E+02	  0.041042086	2.334000E+01	  0.041042086	1.886100E+01
107	  0.041242484	-7.321000E+00	  0.041242484	1.300700E+02	  0.041242484	2.341800E+01	  0.041242484	1.893600E+01
108	  0.041442886	-7.338000E+00	  0.041442886	1.298130E+02	  0.041442886	2.350200E+01	  0.041442886	1.902300E+01
109	  0.041643288	-7.353000E+00	  0.041643288	1.295240E+02	  0.041643288	2.358800E+01	  0.041643288	1.912300E+01
110	  0.041843686	-7.365000E+00	  0.041843686	1.291680E+02	  0.041843686	2.367600E+01	  0.041843686	1.925500E+01
111	  0.042044088	-7.379000E+00	  0.042044088	1.287990E+02	  0.042044088	2.377200E+01	  0.042044088	1.938900E+01
112	  0.042244490	-7.382000E+00	  0.042244490	1.284330E+02	  0.042244490	2.384000E+01	  0.042244490	1.953300E+01
113	  0.042444889	-7.384000E+00	  0.042444889	1.280620E+02	  0.042444889	2.390600E+01	  0.042444889	1.968100E+01
114	  0.042645290	-7.377000E+00	  0.042645290	1.276720E+02	  0.042645290	2.395200E+01	  0.042645290	1.984600E+01
115	  0.042845692	-7.369000E+00	  0.042845692	1.273350E+02	  0.042845692	2.398600E+01	  0.042845692	1.999200E+01
116	  0.043046094	-7.351000E+00	  0.043046094	1.269600E+02	  0.043046094	2.400000E+01	  0.043046094	2.016400E+01
117	  0.043246493	-7.331000E+00	  0.043246493	1.266820E+02	  0.043246493	2.399400E+01	  0.043246493	2.029900E+01
118	  0.043446895	-7.316000E+00	  0.043446895	1.263910E+02	  0.043446895	2.400300E+01	  0.043446895	2.043600E+01
119	  0.043647297	-7.300000E+00	  0.043647297	1.261630E+02	  0.043647297	2.399900E+01	  0.043647297	2.054700E+01
120	  0.043847695	-7.293000E+00	  0.043847695	1.259630E+02	  0.043847695	2.401500E+01	  0.043847695	2.063700E+01
121	  0.044048097	-7.284000E+00	  0.044048097	1.258090E+02	  0.044048097	2.401800E+01	  0.044048097	2.071000E+01
122	  0.044248499	-7.280000E+00	  0.044248499	1.256210E+02	  0.044248499	2.403900E+01	  0.044248499	2.079200E+01
123	  0.044448901	-7.275000E+00	  0.044448901	1.254320E+02	  0.044448901	2.406000E+01	  0.044448901	2.087500E+01
124	  0.044649299	-7.269000E+00	  0.044649299	1.252440E+02	  0.044649299	2.407600E+01	  0.044649299	2.096000E+01
125	  0.044849701	-7.270000E+00	  0.044849701	1.251020E+02	  0.044849701	2.410200E+01	  0.044849701	2.101700E+01
126	  0.045050103	-7.270000E+00	  0.045050103	1.249220E+02	  0.045050103	2.413600E+01	  0.045050103	2.109000E+01
127	  0.045250501	-7.267000E+00	  0.045250501	1.247570E+02	  0.045250501	2.415600E+01	  0.045250501	2.116300E+01
128	  0.045450903	-7.267000E+00	  0.045450903	1.245790E+02	  0.045450903	2.418900E+01	  0.045450903	2.123600E+01
129	  0.045651305	-7.262000E+00	  0.045651305	1.243600E+02	  0.045651305	2.421600E+01	  0.045651305	2.133200E+01
130	  0.045851704	-7.264000E+00	  0.045851704	1.241260E+02	  0.045851704	2.426300E+01	  0.045851704	2.142600E+01
131	  0.046052106	-7.265000E+00	  0.046052106	1.239420E+02	  0.046052106	2.429800E+01	  0.046052106	2.150200E+01
132	  0.046252504	-7.271000E+00	  0.046252504	1.237670E+02	  0.046252504	2.434600E+01	  0.046252504	2.156800E+01
133	  0.046452906	-7.277000E+00	  0.046452906	1.235760E+02	  0.046452906	2.439700E+01	  0.046452906	2.163900E+01
134	  0.046653304	-7.286000E+00	  0.046653304	1.233980E+02	  0.046653304	2.445500E+01	  0.046653304	2.170200E+01
135	  0.046853706	-7.300000E+00	  0.046853706	1.231590E+02	  0.046853706	2.453900E+01	  0.046853706	2.178300E+01
136	  0.047054108	-7.311000E+00	  0.047054108	1.228940E+02	  0.047054108	2.461800E+01	  0.047054108	2.187900E+01
137	  0.047254506	-7.321000E+00	  0.047254506	1.226200E+02	  0.047254506	2.469700E+01	  0.047254506	2.198100E+01
138	  0.047454908	-7.331000E+00	  0.047454908	1.222930E+02	  0.047454908	2.478700E+01	  0.047454908	2.210300E+01
139	  0.047655310	-7.331000E+00	  0.047655310	1.219680E+02	  0.047655310	2.484800E+01	  0.047655310	2.223900E+01
140	  0.047855709	-7.331000E+00	  0.047855709	1.216440E+02	  0.047855709	2.491300E+01	  0.047855709	2.237300E+01
141	  0.048056111	-7.326000E+00	  0.048056111	1.213110E+02	  0.048056111	2.496400E+01	  0.048056111	2.251700E+01
142	  0.048256513	-7.319000E+00	  0.048256513	1.209830E+02	  0.048256513	2.500700E+01	  0.048256513	2.266400E+01
143	  0.048456915	-7.306000E+00	  0.048456915	1.206910E+02	  0.048456915	2.503100E+01	  0.048456915	2.280200E+01
144	  0.048657313	-7.294000E+00	  0.048657313	1.203980E+02	  0.048657313	2.505700E+01	  0.048657313	2.294000E+01
145	  0.048857715	-7.286000E+00	  0.048857715	1.201450E+02	  0.048857715	2.508400E+01	  0.048857715	2.305800E+01
146	  0.049058117	-7.274000E+00	  0.049058117	1.199420E+02	  0.049058117	2.509400E+01	  0.049058117	2.315800E+01
147	  0.049258515	-7.269000E+00	  0.049258515	1.197400E+02	  0.049258515	2.512100E+01	  0.049258515	2.324900E+01
148	  0.049458917	-7.266000E+00	  0.049458917	1.195250E+02	  0.049458917	2.515400E+01	  0.049458917	2.334500E+01
149	  0.049659319	-7.262000E+00	  0.049659319	1.193290E+02	  0.049659319	2.518500E+01	  0.049659319	2.343200E+01
150	  0.049859721	-7.257000E+00	  0.049859721	1.191480E+02	  0.049859721	2.520800E+01	  0.049859721	2.351600E+01
151	  0.050060119	-7.255000E+00	  0.050060119	1.189490E+02	  0.050060119	2.524400E+01	  0.050060119	2.360200E+01
152	  0.050260521	-7.256000E+00	  0.050260521	1.187750E+02	  0.050260521	2.528200E+01	  0.050260521	2.367500E+01
153	  0.050460923	-7.257000E+00	  0.050460923	1.185670E+02	  0.050460923	2.532900E+01	  0.050460923	2.376200E+01
154	  0.050661322	-7.253000E+00	  0.050661322	1.183620E+02	  0.050661322	2.536200E+01	  0.050661322	2.385300E+01
155	  0.050861724	-7.255000E+00	  0.050861724	1.181300E+02	  0.050861724	2.541500E+01	  0.050861724	2.395000E+01
156	  0.051062126	-7.253000E+00	  0.051062126	1.179210E+02	  0.051062126	2.545500E+01	  0.051062126	2.404100E+01
157	  0.051262524	-7.251000E+00	  0.051262524	1.177100E+02	  0.051262524	2.549600E+01	  0.051262524	2.413200E+01
158	  0.051462926	-7.250000E+00	  0.051462926	1.174990E+02	  0.051462926	2.553700E+01	  0.051462926	2.422400E+01
159	  0.051663328	-7.254000E+00	  0.051663328	1.173400E+02	  0.051663328	2.558300E+01	  0.051663328	2.428600E+01
160	  0.051863730	-7.256000E+00	  0.051863730	1.171340E+02	  0.051863730	2.563300E+01	  0.051863730	2.437100E+01
161	  0.052064128	-7.263000E+00	  0.052064128	1.169080E+02	  0.052064128	2.570200E+01	  0.052064128	2.445700E+01
162	  0.052264530	-7.271000E+00	  0.052264530	1.167130E+02	  0.052264530	2.576700E+01	  0.052264530	2.452800E+01
163	  0.052464932	-7.278000E+00	  0.052464932	1.164550E+02	  0.052464932	2.584300E+01	  0.052464932	2.462800E+01
164	  0.052665330	-7.285000E+00	  0.052665330	1.161780E+02	  0.052665330	2.592500E+01	  0.052665330	2.473500E+01
165	  0.052865732	-7.293000E+00	  0.052865732	1.159040E+02	  0.052865732	2.601100E+01	  0.052865732	2.483900E+01
166	  0.053066134	-7.292000E+00	  0.053066134	1.156290E+02	  0.053066134	2.606800E+01	  0.053066134	2.495900E+01
167	  0.053266536	-7.296000E+00	  0.053266536	1.153350E+02	  0.053266536	2.614700E+01	  0.053266536	2.507800E+01
168	  0.053466935	-7.290000E+00	  0.053466935	1.150170E+02	  0.053466935	2.620300E+01	  0.053466935	2.522300E+01
169	  0.053667337	-7.285000E+00	  0.053667337	1.147010E+02	  0.053667337	2.626300E+01	  0.053667337	2.536600E+01
170	  0.053867739	-7.274000E+00	  0.053867739	1.144360E+02	  0.053867739	2.629400E+01	  0.053867739	2.549600E+01
171	  0.054068137	-7.265000E+00	  0.054068137	1.141520E+02	  0.054068137	2.633400E+01	  0.054068137	2.563300E+01
172	  0.054268539	-7.263000E+00	  0.054268539	1.139280E+02	  0.054268539	2.638200E+01	  0.054268539	2.573200E+01
173	  0.054468941	-7.256000E+00	  0.054468941	1.137080E+02	  0.054468941	2.641600E+01	  0.054468941	2.583600E+01
174	  0.054669339	-7.249000E+00	  0.054669339	1.134960E+02	  0.054669339	2.644600E+01	  0.054669339	2.593900E+01
175	  0.054869737	-7.250000E+00	  0.054869737	1.132920E+02	  0.054869737	2.649800E+01	  0.054869737	2.602600E+01
176	  0.055070139	-7.250000E+00	  0.055070139	1.130920E+02	  0.055070139	2.654400E+01	  0.055070139	2.611300E+01
177	  0.055270538	-7.247000E+00	  0.055270538	1.128370E+02	  0.055270538	2.660000E+01	  0.055270538	2.622700E+01
178	  0.055470940	-7.247000E+00	  0.055470940	1.126530E+02	  0.055470940	2.664400E+01	  0.055470940	2.630800E+01
179	  0.055671342	-7.247000E+00	  0.055671342	1.124580E+02	  0.055671342	2.669000E+01	  0.055671342	2.639300E+01
180	  0.055871744	-7.248000E+00	  0.055871744	1.122410E+02	  0.055871744	2.674800E+01	  0.055871744	2.648500E+01
181	  0.056072142	-7.247000E+00	  0.056072142	1.119690E+02	  0.056072142	2.681400E+01	  0.056072142	2.660300E+01
182	  0.056272544	-7.244000E+00	  0.056272544	1.117490E+02	  0.056272544	2.686000E+01	  0.056272544	2.670400E+01
183	  0.056472946	-7.244000E+00	  0.056472946	1.114990E+02	  0.056472946	2.692100E+01	  0.056472946	2.681400E+01
184	  0.056673344	-7.240000E+00	  0.056673344	1.113030E+02	  0.056673344	2.696000E+01	  0.056673344	2.690500E+01
185	  0.056873746	-7.242000E+00	  0.056873746	1.110640E+02	  0.056873746	2.702700E+01	  0.056873746	2.700600E+01
186	  0.057074148	-7.242000E+00	  0.057074148	1.108660E+02	  0.057074148	2.707700E+01	  0.057074148	2.709300E+01
187	  0.057274550	-7.244000E+00	  0.057274550	1.106440E+02	  0.057274550	2.713800E+01	  0.057274550	2.718700E+01
188	  0.057474948	-7.244000E+00	  0.057474948	1.104430E+02	  0.057474948	2.719300E+01	  0.057474948	2.727300E+01
189	  0.057675350	-7.249000E+00	  0.057675350	1.102170E+02	  0.057675350	2.726300E+01	  0.057675350	2.736500E+01
190	  0.057875752	-7.255000E+00	  0.057875752	1.099720E+02	  0.057875752	2.734700E+01	  0.057875752	2.746100E+01
191	  0.058076151	-7.259000E+00	  0.058076151	1.097570E+02	  0.058076151	2.741400E+01	  0.058076151	2.754900E+01
192	  0.058276553	-7.264000E+00	  0.058276553	1.094970E+02	  0.058276553	2.749600E+01	  0.058276553	2.765400E+01
193	  0.058476955	-7.263000E+00	  0.058476955	1.092080E+02	  0.058476955	2.757300E+01	  0.058476955	2.778100E+01
194	  0.058677353	-7.257000E+00	  0.058677353	1.089370E+02	  0.058677353	2.762600E+01	  0.058677353	2.791200E+01
195	  0.058877755	-7.255000E+00	  0.058877755	1.086800E+02	  0.058877755	2.769100E+01	  0.058877755	2.802800E+01
196	  0.059078157	-7.252000E+00	  0.059078157	1.083870E+02	  0.059078157	2.776100E+01	  0.059078157	2.816200E+01
197	  0.059278559	-7.251000E+00	  0.059278559	1.081580E+02	  0.059278559	2.782200E+01	  0.059278559	2.826400E+01
198	  0.059478957	-7.249000E+00	  0.059478957	1.079380E+02	  0.059478957	2.787600E+01	  0.059478957	2.836600E+01
199	  0.059679359	-7.244000E+00	  0.059679359	1.077020E+02	  0.059679359	2.792800E+01	  0.059679359	2.847800E+01
200	  0.059879761	-7.240000E+00	  0.059879761	1.075110E+02	  0.059879761	2.796800E+01	  0.059879761	2.857000E+01
201	  0.060080159	-7.235000E+00	  0.060080159	1.072850E+02	  0.060080159	2.801800E+01	  0.060080159	2.867900E+01
202	  0.060280561	-7.239000E+00	  0.060280561	1.070700E+02	  0.060280561	2.808900E+01	  0.060280561	2.876700E+01
203	  0.060480963	-7.244000E+00	  0.060480963	1.068300E+02	  0.060480963	2.817000E+01	  0.060480963	2.886500E+01
204	  0.060681365	-7.240000E+00	  0.060681365	1.066450E+02	  0.060681365	2.821100E+01	  0.060681365	2.895500E+01
205	  0.060881764	-7.243000E+00	  0.060881764	1.064100E+02	  0.060881764	2.828800E+01	  0.060881764	2.905300E+01
206	  0.061082166	-7.245000E+00	  0.061082166	1.062020E+02	  0.061082166	2.835400E+01	  0.061082166	2.914100E+01
207	  0.061282568	-7.241000E+00	  0.061282568	1.059550E+02	  0.061282568	2.841400E+01	  0.061282568	2.925800E+01
208	  0.061482966	-7.242000E+00	  0.061482966	1.056840E+02	  0.061482966	2.849500E+01	  0.061482966	2.937800E+01
209	  0.061683368	-7.242000E+00	  0.061683368	1.054230E+02	  0.061683368	2.857100E+01	  0.061683368	2.949400E+01
210	  0.061883770	-7.243000E+00	  0.061883770	1.052080E+02	  0.061883770	2.863800E+01	  0.061883770	2.958800E+01
211	  0.062084168	-7.240000E+00	  0.062084168	1.049560E+02	  0.062084168	2.870500E+01	  0.062084168	2.970500E+01
212	  0.062284570	-7.236000E+00	  0.062284570	1.047200E+02	  0.062284570	2.876300E+01	  0.062284570	2.981900E+01
213	  0.062484972	-7.230000E+00	  0.062484972	1.045150E+02	  0.062484972	2.880800E+01	  0.062484972	2.992200E+01
214	  0.062685370	-7.229000E+00	  0.062685370	1.043190E+02	  0.062685370	2.886200E+01	  0.062685370	3.001400E+01
215	  0.062885776	-7.226000E+00	  0.062885776	1.040820E+02	  0.062885776	2.892600E+01	  0.062885776	3.012500E+01
216	  0.063086174	-7.227000E+00	  0.063086174	1.038770E+02	  0.063086174	2.899200E+01	  0.063086174	3.021500E+01
217	  0.063286573	-7.231000E+00	  0.063286573	1.036600E+02	  0.063286573	2.907100E+01	  0.063286573	3.030400E+01
218	  0.063486971	-7.231000E+00	  0.063486971	1.034020E+02	  0.063486971	2.914900E+01	  0.063486971	3.042000E+01
219	  0.063687377	-7.241000E+00	  0.063687377	1.031960E+02	  0.063687377	2.924200E+01	  0.063687377	3.049300E+01
220	  0.063887775	-7.244000E+00	  0.063887775	1.029100E+02	  0.063887775	2.934100E+01	  0.063887775	3.061500E+01
221	  0.064088173	-7.237000E+00	  0.064088173	1.026810E+02	  0.064088173	2.939300E+01	  0.064088173	3.073200E+01
222	  0.064288579	-7.244000E+00	  0.064288579	1.024120E+02	  0.064288579	2.949800E+01	  0.064288579	3.083900E+01
223	  0.064488977	-7.237000E+00	  0.064488977	1.021450E+02	  0.064488977	2.956400E+01	  0.064488977	3.097300E+01
224	  0.064689375	-7.243000E+00	  0.064689375	1.018780E+02	  0.064689375	2.966500E+01	  0.064689375	3.108300E+01
225	  0.064889781	-7.242000E+00	  0.064889781	1.016230E+02	  0.064889781	2.974400E+01	  0.064889781	3.120000E+01
226	  0.065090179	-7.242000E+00	  0.065090179	1.013860E+02	  0.065090179	2.982200E+01	  0.065090179	3.130600E+01
227	  0.065290578	-7.244000E+00	  0.065290578	1.011710E+02	  0.065290578	2.989700E+01	  0.065290578	3.140000E+01
228	  0.065490983	-7.241000E+00	  0.065490983	1.009400E+02	  0.065490983	2.996600E+01	  0.065490983	3.151000E+01
229	  0.065691382	-7.244000E+00	  0.065691382	1.006650E+02	  0.065691382	3.006700E+01	  0.065691382	3.162700E+01
230	  0.065891780	-7.247000E+00	  0.065891780	1.004120E+02	  0.065891780	3.015800E+01	  0.065891780	3.173700E+01
231	  0.066092186	-7.237000E+00	  0.066092186	1.001350E+02	  0.066092186	3.022300E+01	  0.066092186	3.188300E+01
232	  0.066292584	-7.242000E+00	  0.066292584	9.990000E+01	  0.066292584	3.031700E+01	  0.066292584	3.197900E+01
233	  0.066492982	-7.240000E+00	  0.066492982	9.962800E+01	  0.066492982	3.040300E+01	  0.066492982	3.210700E+01
234	  0.066693388	-7.241000E+00	  0.066693388	9.935100E+01	  0.066693388	3.050100E+01	  0.066693388	3.223100E+01
235	  0.066893786	-7.243000E+00	  0.066893786	9.909300E+01	  0.066893786	3.059500E+01	  0.066893786	3.234500E+01
236	  0.067094192	-7.228000E+00	  0.067094192	9.880100E+01	  0.067094192	3.065000E+01	  0.067094192	3.251300E+01
237	  0.067294590	-7.226000E+00	  0.067294590	9.851500E+01	  0.067294590	3.074600E+01	  0.067294590	3.264600E+01
238	  0.067494988	-7.218000E+00	  0.067494988	9.825600E+01	  0.067494988	3.081300E+01	  0.067494988	3.278300E+01
239	  0.067695394	-7.207000E+00	  0.067695394	9.797600E+01	  0.067695394	3.087800E+01	  0.067695394	3.293800E+01
240	  0.067895792	-7.199000E+00	  0.067895792	9.778400E+01	  0.067895792	3.092300E+01	  0.067895792	3.304500E+01
241	  0.068096191	-7.198000E+00	  0.068096191	9.755800E+01	  0.068096191	3.100000E+01	  0.068096191	3.315100E+01
242	  0.068296596	-7.187000E+00	  0.068296596	9.730300E+01	  0.068296596	3.105700E+01	  0.068296596	3.329600E+01
243	  0.068496995	-7.178000E+00	  0.068496995	9.714400E+01	  0.068496995	3.108800E+01	  0.068496995	3.339000E+01
244	  0.068697393	-7.179000E+00	  0.068697393	9.695600E+01	  0.068697393	3.116100E+01	  0.068697393	3.347400E+01
245	  0.068897791	-7.170000E+00	  0.068897791	9.676800E+01	  0.068897791	3.120000E+01	  0.068897791	3.358400E+01
246	  0.069098189	-7.167000E+00	  0.069098189	9.657700E+01	  0.069098189	3.126100E+01	  0.069098189	3.368000E+01
247	  0.069298595	-7.167000E+00	  0.069298595	9.638600E+01	  0.069298595	3.133000E+01	  0.069298595	3.376900E+01
248	  0.069498993	-7.164000E+00	  0.069498993	9.614300E+01	  0.069498993	3.141100E+01	  0.069498993	3.389000E+01
249	  0.069699399	-7.163000E+00	  0.069699399	9.596800E+01	  0.069699399	3.147400E+01	  0.069699399	3.397200E+01
250	  0.069899797	-7.169000E+00	  0.069899797	9.578900E+01	  0.069899797	3.155900E+01	  0.069899797	3.404100E+01
251	  0.070100196	-7.159000E+00	  0.070100196	9.557400E+01	  0.070100196	3.161000E+01	  0.070100196	3.416500E+01
252	  0.070300601	-7.166000E+00	  0.070300601	9.537700E+01	  0.070300601	3.170700E+01	  0.070300601	3.423900E+01
253	  0.070501000	-7.173000E+00	  0.070501000	9.520500E+01	  0.070501000	3.179200E+01	  0.070501000	3.430300E+01
254	  0.070701398	-7.165000E+00	  0.070701398	9.498400E+01	  0.070701398	3.185400E+01	  0.070701398	3.442500E+01
255	  0.070901804	-7.173000E+00	  0.070901804	9.478700E+01	  0.070901804	3.195300E+01	  0.070901804	3.449600E+01
256	  0.071102202	-7.181000E+00	  0.071102202	9.460300E+01	  0.071102202	3.204800E+01	  0.071102202	3.456200E+01
257	  0.071302600	-7.179000E+00	  0.071302600	9.436300E+01	  0.071302600	3.213500E+01	  0.071302600	3.467900E+01
258	  0.071503006	-7.190000E+00	  0.071503006	9.412000E+01	  0.071503006	3.226300E+01	  0.071503006	3.476400E+01
259	  0.071703404	-7.189000E+00	  0.071703404	9.388900E+01	  0.071703404	3.235200E+01	  0.071703404	3.487300E+01
260	  0.071903802	-7.195000E+00	  0.071903802	9.361000E+01	  0.071903802	3.248100E+01	  0.071903802	3.498800E+01
261	  0.072104208	-7.201000E+00	  0.072104208	9.330200E+01	  0.072104208	3.262200E+01	  0.072104208	3.511500E+01
262	  0.072304606	-7.205000E+00	  0.072304606	9.301400E+01	  0.072304606	3.274800E+01	  0.072304606	3.524000E+01
263	  0.072505005	-7.204000E+00	  0.072505005	9.276500E+01	  0.072505005	3.284700E+01	  0.072505005	3.535800E+01
264	  0.072705410	-7.200000E+00	  0.072705410	9.244900E+01	  0.072705410	3.296200E+01	  0.072705410	3.551800E+01
265	  0.072905809	-7.192000E+00	  0.072905809	9.218700E+01	  0.072905809	3.304600E+01	  0.072905809	3.566000E+01
266	  0.073106214	-7.188000E+00	  0.073106214	9.182700E+01	  0.073106214	3.318100E+01	  0.073106214	3.584100E+01
267	  0.073306613	-7.179000E+00	  0.073306613	9.159400E+01	  0.073306613	3.325100E+01	  0.073306613	3.597500E+01
268	  0.073507011	-7.171000E+00	  0.073507011	9.136200E+01	  0.073507011	3.332300E+01	  0.073507011	3.610600E+01
269	  0.073707417	-7.161000E+00	  0.073707417	9.117000E+01	  0.073707417	3.337300E+01	  0.073707417	3.622400E+01
270	  0.073907815	-7.153000E+00	  0.073907815	9.096400E+01	  0.073907815	3.343700E+01	  0.073907815	3.634200E+01
271	  0.074108213	-7.150000E+00	  0.074108213	9.075200E+01	  0.074108213	3.351600E+01	  0.074108213	3.645200E+01
272	  0.074308619	-7.144000E+00	  0.074308619	9.053700E+01	  0.074308619	3.359000E+01	  0.074308619	3.656900E+01
273	  0.074509017	-7.140000E+00	  0.074509017	9.032000E+01	  0.074509017	3.367000E+01	  0.074509017	3.668400E+01
274	  0.074709415	-7.138000E+00	  0.074709415	9.010500E+01	  0.074709415	3.375600E+01	  0.074709415	3.679200E+01
275	  0.074909821	-7.132000E+00	  0.074909821	8.988600E+01	  0.074909821	3.383400E+01	  0.074909821	3.691200E+01
276	  0.075110219	-7.139000E+00	  0.075110219	8.971600E+01	  0.075110219	3.393000E+01	  0.075110219	3.697300E+01
277	  0.075310618	-7.133000E+00	  0.075310618	8.951700E+01	  0.075310618	3.399900E+01	  0.075310618	3.708400E+01
278	  0.075511023	-7.134000E+00	  0.075511023	8.935900E+01	  0.075511023	3.407000E+01	  0.075511023	3.715700E+01
279	  0.075711422	-7.133000E+00	  0.075711422	8.909900E+01	  0.075711422	3.418500E+01	  0.075711422	3.728200E+01
280	  0.075911827	-7.136000E+00	  0.075911827	8.893000E+01	  0.075911827	3.426800E+01	  0.075911827	3.735500E+01
281	  0.076112226	-7.133000E+00	  0.076112226	8.872700E+01	  0.076112226	3.435100E+01	  0.076112226	3.745900E+01
282	  0.076312624	-7.131000E+00	  0.076312624	8.852800E+01	  0.076312624	3.443500E+01	  0.076312624	3.755900E+01
283	  0.076513030	-7.141000E+00	  0.076513030	8.839600E+01	  0.076513030	3.452400E+01	  0.076513030	3.759400E+01
284	  0.076713428	-7.143000E+00	  0.076713428	8.821000E+01	  0.076713428	3.461300E+01	  0.076713428	3.767700E+01
285	  0.076913826	-7.147000E+00	  0.076913826	8.793100E+01	  0.076913826	3.475500E+01	  0.076913826	3.779600E+01
286	  0.077114232	-7.156000E+00	  0.077114232	8.769400E+01	  0.077114232	3.489300E+01	  0.077114232	3.788100E+01
287	  0.077314630	-7.160000E+00	  0.077314630	8.742000E+01	  0.077314630	3.503000E+01	  0.077314630	3.800000E+01
288	  0.077515028	-7.164000E+00	  0.077515028	8.716300E+01	  0.077515028	3.516400E+01	  0.077515028	3.810800E+01
289	  0.077715434	-7.166000E+00	  0.077715434	8.687100E+01	  0.077715434	3.530700E+01	  0.077715434	3.824100E+01
290	  0.077915832	-7.169000E+00	  0.077915832	8.656900E+01	  0.077915832	3.545800E+01	  0.077915832	3.837500E+01
291	  0.078116231	-7.161000E+00	  0.078116231	8.629900E+01	  0.078116231	3.556400E+01	  0.078116231	3.852700E+01
292	  0.078316636	-7.161000E+00	  0.078316636	8.602100E+01	  0.078316636	3.569700E+01	  0.078316636	3.865900E+01
293	  0.078517035	-7.153000E+00	  0.078517035	8.570400E+01	  0.078517035	3.582400E+01	  0.078517035	3.883700E+01
294	  0.078717433	-7.144000E+00	  0.078717433	8.544700E+01	  0.078717433	3.592300E+01	  0.078717433	3.898600E+01
295	  0.078917839	-7.133000E+00	  0.078917839	8.517500E+01	  0.078917839	3.602100E+01	  0.078917839	3.915100E+01
296	  0.079118237	-7.128000E+00	  0.079118237	8.497000E+01	  0.079118237	3.610500E+01	  0.079118237	3.926800E+01
297	  0.079318643	-7.118000E+00	  0.079318643	8.476500E+01	  0.079318643	3.617700E+01	  0.079318643	3.939700E+01
298	  0.079519041	-7.109000E+00	  0.079519041	8.458500E+01	  0.079519041	3.623700E+01	  0.079519041	3.951300E+01
299	  0.079719439	-7.106000E+00	  0.079719439	8.429600E+01	  0.079719439	3.637300E+01	  0.079719439	3.966200E+01
300	  0.079919845	-7.104000E+00	  0.079919845	8.412200E+01	  0.079919845	3.645300E+01	  0.079919845	3.975300E+01
301	  0.080120243	-7.101000E+00	  0.080120243	8.392100E+01	  0.080120243	3.654600E+01	  0.080120243	3.985900E+01
302	  0.080320641	-7.095000E+00	  0.080320641	8.373300E+01	  0.080320641	3.662500E+01	  0.080320641	3.996700E+01
303	  0.080521047	-7.091000E+00	  0.080521047	8.356800E+01	  0.080521047	3.669500E+01	  0.080521047	4.006300E+01
304	  0.080721445	-7.094000E+00	  0.080721445	8.337800E+01	  0.080721445	3.680300E+01	  0.080721445	4.014300E+01
305	  0.080921844	-7.095000E+00	  0.080921844	8.318800E+01	  0.080921844	3.690400E+01	  0.080921844	4.023200E+01
306	  0.081122249	-7.088000E+00	  0.081122249	8.299700E+01	  0.081122249	3.698200E+01	  0.081122249	4.034700E+01
307	  0.081322648	-7.087000E+00	  0.081322648	8.282200E+01	  0.081322648	3.706800E+01	  0.081322648	4.043600E+01
308	  0.081523046	-7.084000E+00	  0.081523046	8.270500E+01	  0.081523046	3.712100E+01	  0.081523046	4.050200E+01
309	  0.081723452	-7.086000E+00	  0.081723452	8.252000E+01	  0.081723452	3.722400E+01	  0.081723452	4.058400E+01
310	  0.081923850	-7.092000E+00	  0.081923850	8.232700E+01	  0.081923850	3.734500E+01	  0.081923850	4.065700E+01
311	  0.082124248	-7.101000E+00	  0.082124248	8.217400E+01	  0.082124248	3.745500E+01	  0.082124248	4.069900E+01
312	  0.082324654	-7.101000E+00	  0.082324654	8.196400E+01	  0.082324654	3.756800E+01	  0.082324654	4.079900E+01
313	  0.082525052	-7.115000E+00	  0.082525052	8.172200E+01	  0.082525052	3.774300E+01	  0.082525052	4.086500E+01
314	  0.082725458	-7.121000E+00	  0.082725458	8.153000E+01	  0.082725458	3.786600E+01	  0.082725458	4.093500E+01
315	  0.082925856	-7.129000E+00	  0.082925856	8.128700E+01	  0.082925856	3.802300E+01	  0.082925856	4.102200E+01
316	  0.083126254	-7.133000E+00	  0.083126254	8.103400E+01	  0.083126254	3.817200E+01	  0.083126254	4.113100E+01
317	  0.083326660	-7.142000E+00	  0.083326660	8.076400E+01	  0.083326660	3.835000E+01	  0.083326660	4.122500E+01
318	  0.083527058	-7.149000E+00	  0.083527058	8.049200E+01	  0.083527058	3.852300E+01	  0.083527058	4.133000E+01
319	  0.083727457	-7.153000E+00	  0.083727457	8.014300E+01	  0.083727457	3.872800E+01	  0.083727457	4.148300E+01
320	  0.083927862	-7.153000E+00	  0.083927862	7.988200E+01	  0.083927862	3.887800E+01	  0.083927862	4.160400E+01
321	  0.084128261	-7.146000E+00	  0.084128261	7.959100E+01	  0.084128261	3.901900E+01	  0.084128261	4.177000E+01
322	  0.084328659	-7.147000E+00	  0.084328659	7.932500E+01	  0.084328659	3.917500E+01	  0.084328659	4.189100E+01
323	  0.084529065	-7.146000E+00	  0.084529065	7.905200E+01	  0.084529065	3.932900E+01	  0.084529065	4.202400E+01
324	  0.084729463	-7.145000E+00	  0.084729463	7.877900E+01	  0.084729463	3.948400E+01	  0.084729463	4.215800E+01
325	  0.084929861	-7.141000E+00	  0.084929861	7.849700E+01	  0.084929861	3.963600E+01	  0.084929861	4.230700E+01
326	  0.085130267	-7.137000E+00	  0.085130267	7.824500E+01	  0.085130267	3.977000E+01	  0.085130267	4.244300E+01
327	  0.085330658	-7.137000E+00	  0.085330658	7.794100E+01	  0.085330658	3.995000E+01	  0.085330658	4.258700E+01
328	  0.085531056	-7.134000E+00	  0.085531056	7.772200E+01	  0.085531056	4.007100E+01	  0.085531056	4.270300E+01
329	  0.085731462	-7.128000E+00	  0.085731462	7.744400E+01	  0.085731462	4.022000E+01	  0.085731462	4.285800E+01
330	  0.085931860	-7.126000E+00	  0.085931860	7.718900E+01	  0.085931860	4.036600E+01	  0.085931860	4.298800E+01
331	  0.086132258	-7.119000E+00	  0.086132258	7.694000E+01	  0.086132258	4.049600E+01	  0.086132258	4.313400E+01
332	  0.086332664	-7.115000E+00	  0.086332664	7.669400E+01	  0.086332664	4.063400E+01	  0.086332664	4.326600E+01
333	  0.086533062	-7.106000E+00	  0.086533062	7.648900E+01	  0.086533062	4.073100E+01	  0.086533062	4.340200E+01
334	  0.086733460	-7.090000E+00	  0.086733460	7.624500E+01	  0.086733460	4.083300E+01	  0.086733460	4.358100E+01
335	  0.086933866	-7.083000E+00	  0.086933866	7.604300E+01	  0.086933866	4.093800E+01	  0.086933866	4.370500E+01
336	  0.087134264	-7.079000E+00	  0.087134264	7.586100E+01	  0.087134264	4.103700E+01	  0.087134264	4.381300E+01
337	  0.087334670	-7.071000E+00	  0.087334670	7.566000E+01	  0.087334670	4.113900E+01	  0.087334670	4.393900E+01
338	  0.087535068	-7.060000E+00	  0.087535068	7.548000E+01	  0.087535068	4.121900E+01	  0.087535068	4.407000E+01
339	  0.087735467	-7.065000E+00	  0.087735467	7.534300E+01	  0.087735467	4.132100E+01	  0.087735467	4.411800E+01
340	  0.087935872	-7.063000E+00	  0.087935872	7.514300E+01	  0.087935872	4.144400E+01	  0.087935872	4.421900E+01
341	  0.088136271	-7.064000E+00	  0.088136271	7.497100E+01	  0.088136271	4.155600E+01	  0.088136271	4.429900E+01
342	  0.088336669	-7.059000E+00	  0.088336669	7.480100E+01	  0.088336669	4.165000E+01	  0.088336669	4.440100E+01
343	  0.088537075	-7.064000E+00	  0.088537075	7.459700E+01	  0.088537075	4.179900E+01	  0.088537075	4.447500E+01
344	  0.088737473	-7.067000E+00	  0.088737473	7.435400E+01	  0.088737473	4.196500E+01	  0.088737473	4.458100E+01
345	  0.088937871	-7.066000E+00	  0.088937871	7.416500E+01	  0.088937871	4.208700E+01	  0.088937871	4.467300E+01
346	  0.089138277	-7.071000E+00	  0.089138277	7.396300E+01	  0.089138277	4.223300E+01	  0.089138277	4.474900E+01
347	  0.089338675	-7.070000E+00	  0.089338675	7.374200E+01	  0.089338675	4.237800E+01	  0.089338675	4.485700E+01
348	  0.089539073	-7.072000E+00	  0.089539073	7.355500E+01	  0.089539073	4.250800E+01	  0.089539073	4.493800E+01
349	  0.089739479	-7.072000E+00	  0.089739479	7.332100E+01	  0.089739479	4.266600E+01	  0.089739479	4.504700E+01
350	  0.089939877	-7.083000E+00	  0.089939877	7.313100E+01	  0.089939877	4.282600E+01	  0.089939877	4.508900E+01
351	  0.090140276	-7.081000E+00	  0.090140276	7.287300E+01	  0.090140276	4.299400E+01	  0.090140276	4.522100E+01
352	  0.090340681	-7.084000E+00	  0.090340681	7.264800E+01	  0.090340681	4.315700E+01	  0.090340681	4.531200E+01
353	  0.090541080	-7.096000E+00	  0.090541080	7.241100E+01	  0.090541080	4.335600E+01	  0.090541080	4.537000E+01
354	  0.090741485	-7.093000E+00	  0.090741485	7.213300E+01	  0.090741485	4.354000E+01	  0.090741485	4.551000E+01
355	  0.090941884	-7.101000E+00	  0.090941884	7.191500E+01	  0.090941884	4.371400E+01	  0.090941884	4.557800E+01
356	  0.091142282	-7.101000E+00	  0.091142282	7.165800E+01	  0.091142282	4.389500E+01	  0.091142282	4.569500E+01
357	  0.091342688	-7.105000E+00	  0.091342688	7.136000E+01	  0.091342688	4.411700E+01	  0.091342688	4.581400E+01
358	  0.091543086	-7.104000E+00	  0.091543086	7.109600E+01	  0.091543086	4.430000E+01	  0.091543086	4.594200E+01
359	  0.091743484	-7.105000E+00	  0.091743484	7.080300E+01	  0.091743484	4.451100E+01	  0.091743484	4.607500E+01
360	  0.091943890	-7.094000E+00	  0.091943890	7.053400E+01	  0.091943890	4.467100E+01	  0.091943890	4.625000E+01
361	  0.092144288	-7.093000E+00	  0.092144288	7.026600E+01	  0.092144288	4.486200E+01	  0.092144288	4.637800E+01
362	  0.092344686	-7.082000E+00	  0.092344686	7.001600E+01	  0.092344686	4.501200E+01	  0.092344686	4.654400E+01
363	  0.092545092	-7.067000E+00	  0.092545092	6.976700E+01	  0.092545092	4.514800E+01	  0.092545092	4.673300E+01
364	  0.092745490	-7.070000E+00	  0.092745490	6.954200E+01	  0.092745490	4.532200E+01	  0.092745490	4.682400E+01
365	  0.092945889	-7.056000E+00	  0.092945889	6.931300E+01	  0.092945889	4.545200E+01	  0.092945889	4.699600E+01
366	  0.093146294	-7.052000E+00	  0.093146294	6.914600E+01	  0.093146294	4.556500E+01	  0.093146294	4.709100E+01
367	  0.093346693	-7.041000E+00	  0.093346693	6.895100E+01	  0.093346693	4.567600E+01	  0.093346693	4.724000E+01
368	  0.093547091	-7.044000E+00	  0.093547091	6.877000E+01	  0.093547091	4.582100E+01	  0.093547091	4.730800E+01
369	  0.093747497	-7.035000E+00	  0.093747497	6.857600E+01	  0.093747497	4.594400E+01	  0.093747497	4.744000E+01
370	  0.093947895	-7.035000E+00	  0.093947895	6.837000E+01	  0.093947895	4.610100E+01	  0.093947895	4.753400E+01
371	  0.094148301	-7.033000E+00	  0.094148301	6.821300E+01	  0.094148301	4.621500E+01	  0.094148301	4.761700E+01
372	  0.094348699	-7.028000E+00	  0.094348699	6.803700E+01	  0.094348699	4.633300E+01	  0.094348699	4.772500E+01
373	  0.094549097	-7.020000E+00	  0.094549097	6.786400E+01	  0.094549097	4.644400E+01	  0.094549097	4.784600E+01
374	  0.094749503	-7.026000E+00	  0.094749503	6.771400E+01	  0.094749503	4.657900E+01	  0.094749503	4.788100E+01
375	  0.094949901	-7.022000E+00	  0.094949901	6.754600E+01	  0.094949901	4.669700E+01	  0.094949901	4.798200E+01
376	  0.095150299	-7.025000E+00	  0.095150299	6.737700E+01	  0.095150299	4.684000E+01	  0.095150299	4.804000E+01
377	  0.095350705	-7.028000E+00	  0.095350705	6.717800E+01	  0.095350705	4.700400E+01	  0.095350705	4.811900E+01
378	  0.095551103	-7.035000E+00	  0.095551103	6.700600E+01	  0.095551103	4.716100E+01	  0.095551103	4.816000E+01
379	  0.095751502	-7.041000E+00	  0.095751502	6.678700E+01	  0.095751502	4.735400E+01	  0.095751502	4.822600E+01
380	  0.095951907	-7.049000E+00	  0.095951907	6.659600E+01	  0.095951907	4.753100E+01	  0.095951907	4.826800E+01
381	  0.096152306	-7.064000E+00	  0.096152306	6.640000E+01	  0.096152306	4.773200E+01	  0.096152306	4.827700E+01
382	  0.096352704	-7.071000E+00	  0.096352704	6.611900E+01	  0.096352704	4.798000E+01	  0.096352704	4.836300E+01
383	  0.096553110	-7.080000E+00	  0.096553110	6.588300E+01	  0.096553110	4.819700E+01	  0.096553110	4.842100E+01
384	  0.096753508	-7.088000E+00	  0.096753508	6.559800E+01	  0.096753508	4.845500E+01	  0.096753508	4.850200E+01
385	  0.096953906	-7.093000E+00	  0.096953906	6.532100E+01	  0.096953906	4.869700E+01	  0.096953906	4.859400E+01
386	  0.097154312	-7.095000E+00	  0.097154312	6.500900E+01	  0.097154312	4.896100E+01	  0.097154312	4.871800E+01
387	  0.097354710	-7.097000E+00	  0.097354710	6.471300E+01	  0.097354710	4.921300E+01	  0.097354710	4.883800E+01
388	  0.097555116	-7.097000E+00	  0.097555116	6.439000E+01	  0.097555116	4.948700E+01	  0.097555116	4.897300E+01
389	  0.097755514	-7.095000E+00	  0.097755514	6.410600E+01	  0.097755514	4.972200E+01	  0.097755514	4.910700E+01
390	  0.097955912	-7.096000E+00	  0.097955912	6.380000E+01	  0.097955912	4.998500E+01	  0.097955912	4.923500E+01
391	  0.098156318	-7.083000E+00	  0.098156318	6.350200E+01	  0.098156318	5.020600E+01	  0.098156318	4.943400E+01
392	  0.098356716	-7.076000E+00	  0.098356716	6.323900E+01	  0.098356716	5.041500E+01	  0.098356716	4.958600E+01
393	  0.098557115	-7.066000E+00	  0.098557115	6.299500E+01	  0.098557115	5.060200E+01	  0.098557115	4.974200E+01
394	  0.098757520	-7.055000E+00	  0.098757520	6.275600E+01	  0.098757520	5.078200E+01	  0.098757520	4.990800E+01
395	  0.098957919	-7.049000E+00	  0.098957919	6.250600E+01	  0.098957919	5.098800E+01	  0.098957919	5.004700E+01
396	  0.099158317	-7.039000E+00	  0.099158317	6.225400E+01	  0.099158317	5.118500E+01	  0.099158317	5.021300E+01
397	  0.099358723	-7.032000E+00	  0.099358723	6.205900E+01	  0.099358723	5.134000E+01	  0.099358723	5.033800E+01
398	  0.099559121	-7.021000E+00	  0.099559121	6.183700E+01	  0.099559121	5.151100E+01	  0.099559121	5.049700E+01
399	  0.099759519	-7.010000E+00	  0.099759519	6.165400E+01	  0.099759519	5.164900E+01	  0.099759519	5.063600E+01
400	  0.099959925	-7.009000E+00	  0.099959925	6.148900E+01	  0.099959925	5.179400E+01	  0.099959925	5.071600E+01
401	  0.100160323	-6.992000E+00	  0.100160323	6.130000E+01	  0.100160323	5.192400E+01	  0.100160323	5.089400E+01
402	  0.100360721	-7.002000E+00	  0.100360721	6.115600E+01	  0.100360721	5.208500E+01	  0.100360721	5.089100E+01
403	  0.100561127	-6.991000E+00	  0.100561127	6.104400E+01	  0.100561127	5.215700E+01	  0.100561127	5.100800E+01
404	  0.100761525	-6.996000E+00	  0.100761525	6.089500E+01	  0.100761525	5.230800E+01	  0.100761525	5.104200E+01
405	  0.100961931	-6.990000E+00	  0.100961931	6.074000E+01	  0.100961931	5.243800E+01	  0.100961931	5.113900E+01
406	  0.101162329	-7.002000E+00	  0.101162329	6.058000E+01	  0.101162329	5.262100E+01	  0.101162329	5.113100E+01
407	  0.101362728	-7.005000E+00	  0.101362728	6.048500E+01	  0.101362728	5.271900E+01	  0.101362728	5.114900E+01
408	  0.101563133	-7.010000E+00	  0.101563133	6.026800E+01	  0.101563133	5.293400E+01	  0.101563133	5.121100E+01
409	  0.101763532	-7.030000E+00	  0.101763532	6.003800E+01	  0.101763532	5.320700E+01	  0.101763532	5.117700E+01
410	  0.101963930	-7.034000E+00	  0.101963930	5.984700E+01	  0.101963930	5.339900E+01	  0.101963930	5.123000E+01
411	  0.102164336	-7.035000E+00	  0.102164336	5.962500E+01	  0.102164336	5.361500E+01	  0.102164336	5.130800E+01
412	  0.102364734	-7.052000E+00	  0.102364734	5.940300E+01	  0.102364734	5.387200E+01	  0.102364734	5.128900E+01
413	  0.102565132	-7.055000E+00	  0.102565132	5.908500E+01	  0.102565132	5.418800E+01	  0.102565132	5.139200E+01
414	  0.102765530	-7.074000E+00	  0.102765530	5.882900E+01	  0.102765530	5.448600E+01	  0.102765530	5.136700E+01
415	  0.102965929	-7.071000E+00	  0.102965929	5.854700E+01	  0.102965929	5.475400E+01	  0.102965929	5.149300E+01
416	  0.103166327	-7.075000E+00	  0.103166327	5.828400E+01	  0.103166327	5.502400E+01	  0.103166327	5.156400E+01
417	  0.103366733	-7.064000E+00	  0.103366733	5.798600E+01	  0.103366733	5.529500E+01	  0.103366733	5.174500E+01
418	  0.103567131	-7.067000E+00	  0.103567131	5.770300E+01	  0.103567131	5.558500E+01	  0.103567131	5.183000E+01
419	  0.103767529	-7.065000E+00	  0.103767529	5.738900E+01	  0.103767529	5.589600E+01	  0.103767529	5.196100E+01
420	  0.103967935	-7.068000E+00	  0.103967935	5.716600E+01	  0.103967935	5.613100E+01	  0.103967935	5.201800E+01
421	  0.104168333	-7.056000E+00	  0.104168333	5.688000E+01	  0.104168333	5.639500E+01	  0.104168333	5.220400E+01
422	  0.104368731	-7.058000E+00	  0.104368731	5.661300E+01	  0.104368731	5.667400E+01	  0.104368731	5.228500E+01
423	  0.104569137	-7.050000E+00	  0.104569137	5.638000E+01	  0.104569137	5.689800E+01	  0.104569137	5.242000E+01
424	  0.104769535	-7.052000E+00	  0.104769535	5.612300E+01	  0.104769535	5.716900E+01	  0.104769535	5.250000E+01
425	  0.104969934	-7.039000E+00	  0.104969934	5.591500E+01	  0.104969934	5.735900E+01	  0.104969934	5.266100E+01
426	  0.105170339	-7.029000E+00	  0.105170339	5.569400E+01	  0.105170339	5.757100E+01	  0.105170339	5.280600E+01
427	  0.105370738	-7.024000E+00	  0.105370738	5.547300E+01	  0.105370738	5.779400E+01	  0.105370738	5.291800E+01
428	  0.105571143	-7.025000E+00	  0.105571143	5.530100E+01	  0.105571143	5.798100E+01	  0.105571143	5.296900E+01
429	  0.105771542	-7.016000E+00	  0.105771542	5.508900E+01	  0.105771542	5.818800E+01	  0.105771542	5.310700E+01
430	  0.105971940	-7.019000E+00	  0.105971940	5.491600E+01	  0.105971940	5.838200E+01	  0.105971940	5.314400E+01
431	  0.106172346	-7.013000E+00	  0.106172346	5.474700E+01	  0.106172346	5.855200E+01	  0.106172346	5.324300E+01
432	  0.106372744	-7.017000E+00	  0.106372744	5.459000E+01	  0.106372744	5.873200E+01	  0.106372744	5.326400E+01
433	  0.106573142	-7.013000E+00	  0.106573142	5.441500E+01	  0.106573142	5.891500E+01	  0.106573142	5.335200E+01
434	  0.106773548	-7.027000E+00	  0.106773548	5.420000E+01	  0.106773548	5.918200E+01	  0.106773548	5.331800E+01
435	  0.106973946	-7.019000E+00	  0.106973946	5.393300E+01	  0.106973946	5.946100E+01	  0.106973946	5.345900E+01
436	  0.107174344	-7.028000E+00	  0.107174344	5.376900E+01	  0.107174344	5.966200E+01	  0.107174344	5.344600E+01
437	  0.107374750	-7.032000E+00	  0.107374750	5.354500E+01	  0.107374750	5.991800E+01	  0.107374750	5.349000E+01
438	  0.107575148	-7.035000E+00	  0.107575148	5.332800E+01	  0.107575148	6.016900E+01	  0.107575148	5.353300E+01
439	  0.107775547	-7.042000E+00	  0.107775547	5.308300E+01	  0.107775547	6.045800E+01	  0.107775547	5.355300E+01
440	  0.107975952	-7.043000E+00	  0.107975952	5.282200E+01	  0.107975952	6.075600E+01	  0.107975952	5.362300E+01
441	  0.108176351	-7.047000E+00	  0.108176351	5.249100E+01	  0.108176351	6.114100E+01	  0.108176351	5.369200E+01
442	  0.108376749	-7.056000E+00	  0.108376749	5.222400E+01	  0.108376749	6.146500E+01	  0.108376749	5.369900E+01
443	  0.108577155	-7.039000E+00	  0.108577155	5.193800E+01	  0.108577155	6.176600E+01	  0.108577155	5.390300E+01
444	  0.108777553	-7.042000E+00	  0.108777553	5.173800E+01	  0.108777553	6.200500E+01	  0.108777553	5.393600E+01
445	  0.108977959	-7.042000E+00	  0.108977959	5.139400E+01	  0.108977959	6.240700E+01	  0.108977959	5.403200E+01
446	  0.109178357	-7.026000E+00	  0.109178357	5.111700E+01	  0.109178357	6.270700E+01	  0.109178357	5.422700E+01
447	  0.109378755	-7.018000E+00	  0.109378755	5.083100E+01	  0.109378755	6.303300E+01	  0.109378755	5.437000E+01
448	  0.109579161	-7.019000E+00	  0.109579161	5.064500E+01	  0.109579161	6.325900E+01	  0.109579161	5.440500E+01
449	  0.109779559	-7.011000E+00	  0.109779559	5.037500E+01	  0.109779559	6.357200E+01	  0.109779559	5.453600E+01
450	  0.109979957	-7.006000E+00	  0.109979957	5.012700E+01	  0.109979957	6.386300E+01	  0.109979957	5.464300E+01
451	  0.110180363	-6.989000E+00	  0.110180363	4.995400E+01	  0.110180363	6.404800E+01	  0.110180363	5.481700E+01
452	  0.110380761	-6.985000E+00	  0.110380761	4.970200E+01	  0.110380761	6.435000E+01	  0.110380761	5.491500E+01
453	  0.110581160	-6.982000E+00	  0.110581160	4.953200E+01	  0.110581160	6.455700E+01	  0.110581160	5.497700E+01
454	  0.110781565	-6.974000E+00	  0.110781565	4.934800E+01	  0.110781565	6.477300E+01	  0.110781565	5.508400E+01
455	  0.110981964	-6.963000E+00	  0.110981964	4.917500E+01	  0.110981964	6.497200E+01	  0.110981964	5.521400E+01
456	  0.111182362	-6.967000E+00	  0.111182362	4.900200E+01	  0.111182362	6.519600E+01	  0.111182362	5.522100E+01
457	  0.111382768	-6.963000E+00	  0.111382768	4.887600E+01	  0.111382768	6.534700E+01	  0.111382768	5.528700E+01
458	  0.111583166	-6.964000E+00	  0.111583166	4.865100E+01	  0.111583166	6.563300E+01	  0.111583166	5.532500E+01
459	  0.111783572	-6.975000E+00	  0.111783572	4.853400E+01	  0.111783572	6.579800E+01	  0.111783572	5.526300E+01
460	  0.111983970	-6.973000E+00	  0.111983970	4.834500E+01	  0.111983970	6.603600E+01	  0.111983970	5.531400E+01
461	  0.112184368	-6.980000E+00	  0.112184368	4.818900E+01	  0.112184368	6.624400E+01	  0.112184368	5.528700E+01
462	  0.112384774	-6.985000E+00	  0.112384774	4.798100E+01	  0.112384774	6.651800E+01	  0.112384774	5.528700E+01
463	  0.112585172	-6.991000E+00	  0.112585172	4.781200E+01	  0.112585172	6.674200E+01	  0.112585172	5.526900E+01
464	  0.112785570	-7.002000E+00	  0.112785570	4.754800E+01	  0.112785570	6.709600E+01	  0.112785570	5.523200E+01
465	  0.112985976	-7.004000E+00	  0.112985976	4.732000E+01	  0.112985976	6.739400E+01	  0.112985976	5.525400E+01
466	  0.113186374	-7.007000E+00	  0.113186374	4.704500E+01	  0.113186374	6.775700E+01	  0.113186374	5.527400E+01
467	  0.113386773	-7.021000E+00	  0.113386773	4.681100E+01	  0.113386773	6.807800E+01	  0.113386773	5.518700E+01
468	  0.113587178	-7.030000E+00	  0.113587178	4.653900E+01	  0.113587178	6.844500E+01	  0.113587178	5.515200E+01
469	  0.113787577	-7.023000E+00	  0.113787577	4.621700E+01	  0.113787577	6.886400E+01	  0.113787577	5.526300E+01
470	  0.113987975	-7.023000E+00	  0.113987975	4.601100E+01	  0.113987975	6.913800E+01	  0.113987975	5.529500E+01
471	  0.114188381	-7.015000E+00	  0.114188381	4.574000E+01	  0.114188381	6.949300E+01	  0.114188381	5.540000E+01
472	  0.114388779	-7.018000E+00	  0.114388779	4.540700E+01	  0.114388779	6.994500E+01	  0.114388779	5.541400E+01
473	  0.114589177	-7.004000E+00	  0.114589177	4.517400E+01	  0.114589177	7.025100E+01	  0.114589177	5.556400E+01
474	  0.114789583	-7.006000E+00	  0.114789583	4.491300E+01	  0.114789583	7.060900E+01	  0.114789583	5.557400E+01
475	  0.114989981	-6.998000E+00	  0.114989981	4.468300E+01	  0.114989981	7.091900E+01	  0.114989981	5.567000E+01
476	  0.115190387	-6.979000E+00	  0.115190387	4.447100E+01	  0.115190387	7.120100E+01	  0.115190387	5.586600E+01
477	  0.115390785	-6.977000E+00	  0.115390785	4.429000E+01	  0.115390785	7.145100E+01	  0.115390785	5.590200E+01
478	  0.115591183	-6.962000E+00	  0.115591183	4.406200E+01	  0.115591183	7.176200E+01	  0.115591183	5.605600E+01
479	  0.115791589	-6.959000E+00	  0.115791589	4.387800E+01	  0.115791589	7.202000E+01	  0.115791589	5.609900E+01
480	  0.115991987	-6.954000E+00	  0.115991987	4.367600E+01	  0.115991987	7.230300E+01	  0.115991987	5.616100E+01
481	  0.116192386	-6.948000E+00	  0.116192386	4.354400E+01	  0.116192386	7.248700E+01	  0.116192386	5.623100E+01
482	  0.116392791	-6.940000E+00	  0.116392791	4.336300E+01	  0.116392791	7.274100E+01	  0.116392791	5.632300E+01
483	  0.116593190	-6.943000E+00	  0.116593190	4.320700E+01	  0.116593190	7.296500E+01	  0.116593190	5.630300E+01
484	  0.116793588	-6.943000E+00	  0.116793588	4.303700E+01	  0.116793588	7.320900E+01	  0.116793588	5.631300E+01
485	  0.116993994	-6.948000E+00	  0.116993994	4.289700E+01	  0.116993994	7.341400E+01	  0.116993994	5.626800E+01
486	  0.117194392	-6.950000E+00	  0.117194392	4.269500E+01	  0.117194392	7.370500E+01	  0.117194392	5.626100E+01
487	  0.117394790	-6.956000E+00	  0.117394790	4.255800E+01	  0.117394790	7.390500E+01	  0.117394790	5.620900E+01
488	  0.117595196	-6.953000E+00	  0.117595196	4.234800E+01	  0.117595196	7.421100E+01	  0.117595196	5.624200E+01
489	  0.117795594	-6.963000E+00	  0.117795594	4.216700E+01	  0.117795594	7.447600E+01	  0.117795594	5.615300E+01
490	  0.117995992	-6.970000E+00	  0.117995992	4.199700E+01	  0.117995992	7.472500E+01	  0.117995992	5.608300E+01
491	  0.118196398	-6.986000E+00	  0.118196398	4.170800E+01	  0.118196398	7.514900E+01	  0.118196398	5.593000E+01
492	  0.118396796	-6.992000E+00	  0.118396796	4.150700E+01	  0.118396796	7.544400E+01	  0.118396796	5.586800E+01
493	  0.118597202	-6.999000E+00	  0.118597202	4.122500E+01	  0.118597202	7.585800E+01	  0.118597202	5.580200E+01
494	  0.118797600	-7.001000E+00	  0.118797600	4.095800E+01	  0.118797600	7.625400E+01	  0.118797600	5.577500E+01
495	  0.118997999	-7.011000E+00	  0.118997999	4.073200E+01	  0.118997999	7.658700E+01	  0.118997999	5.566000E+01
496	  0.119198404	-7.008000E+00	  0.119198404	4.044700E+01	  0.119198404	7.701400E+01	  0.119198404	5.568100E+01
497	  0.119398803	-7.010000E+00	  0.119398803	4.012700E+01	  0.119398803	7.749300E+01	  0.119398803	5.563800E+01
498	  0.119599201	-7.011000E+00	  0.119599201	3.986800E+01	  0.119599201	7.788300E+01	  0.119599201	5.560400E+01
499	  0.119799607	-7.011000E+00	  0.119799607	3.959000E+01	  0.119799607	7.830400E+01	  0.119799607	5.558100E+01
500	  0.120000005	-7.008000E+00	  0.120000005	3.928500E+01	  0.120000005	7.877200E+01	  0.120000005	5.558600E+01
