! Anritsu VNA Master:             	Model: MS2036C/10/77
! SN:             	1601066
! /bd0/18may10/255.ew.m10.txt
! Existing Calibration Information:
! TYPE:             	Current Settings	Active Cal Settings
! TIME:             	05/10/2018 01:59:44 PM	05/10/2018 01:50:32 PM
! INTERNAL TEMP:    	56.8 C	56.0 C
! # POINTS:         	492	492
! START FREQ:       	20.000 MHz	20.000 MHz
! STOP FREQ:        	118.396 793 MHz	118.396 793 MHz
! SOURCE POWER:     	High	High
! IFBW:             	50 Hz	50 Hz
! AVG FACTOR:       	  1 	  1 
! REF PLANE 1:      	0 mm	0 mm
! REF PLANE 2:      	0 mm	0 mm
! CAL TYPE:         	Full S22	Full S22
! CAL METHOD:       	SOLT	SOLT
! CAL LINE TYPE:    	Coax	Coax
! DUT PORT 1:       	K-Conn(M)	K-Conn(M)
! DUT PORT 2:       	K-Conn(M)	K-Conn(M)
! CAL STATUS:       	OK: Accuracy High	--
! PROP-V:       	0.700
! CABLE LOSS:       	0.000 dB/m
! REF IMPEDANCE:       	50.0
! Trace Specific Parameters:	TR1	TR2	TR3	TR4
! TRACE.#.Y (GRAPH TYPE)	LOG MAG	PHASE	REAL IMPEDANCE	IMAGINARY IMPEDANCE
! TRACE.#.X 	FREQ.GHZ	FREQ.GHZ	FREQ.GHZ	FREQ.GHZ
! S-PARAMETER	S22	S22	S22	S22
! SMOOTH/APERTURE %	0	0	0	0
! WINDOW	NSL	NSL	NSL	NSL
! GATING	OFF	OFF	OFF	OFF
! FGTD	OFF	OFF	OFF	OFF
Marker Information per Trace:	TR1	TR2	TR3	TR4
!MK1	--	"MK1 TR2:  20.000 MHz,PH:-125.63°"	--	--
!MK2	--	--	"MK2 TR3:  70.100 200 MHz,Z:(16.754 ohm, -1.563 ohm)"	--
!MK3	--	--	--	--
!MK4	--	--	--	--
!MK5	--	--	--	--
!MK6	--	--	--	--
!MK7	--	--	--	--
!MK8	--	--	--	--
PNT	TR1.FREQ.GHZ	TR1.LOG MAG.dB	TR2.FREQ.GHZ	TR2.PHASE.deg	TR3.FREQ.GHZ	TR3.REAL IMPEDANCE.ohm	TR4.FREQ.GHZ	TR4.IMAGINARY IMPEDANCE.ohm
1	  0.020000000	-9.160000E-01	  0.020000000	-1.256290E+02	  0.020000000	3.329000E+00	  0.020000000	-2.559000E+01
2	  0.020200402	-9.270000E-01	  0.020200402	-1.270730E+02	  0.020200402	3.324000E+00	  0.020200402	-2.480000E+01
3	  0.020400802	-9.350000E-01	  0.020400802	-1.285050E+02	  0.020400802	3.313000E+00	  0.020400802	-2.402800E+01
4	  0.020601204	-9.440000E-01	  0.020601204	-1.299690E+02	  0.020601204	3.306000E+00	  0.020601204	-2.324700E+01
5	  0.020801604	-9.550000E-01	  0.020801604	-1.314540E+02	  0.020801604	3.304000E+00	  0.020801604	-2.246500E+01
6	  0.021002004	-9.640000E-01	  0.021002004	-1.329590E+02	  0.021002004	3.296000E+00	  0.021002004	-2.168200E+01
7	  0.021202406	-9.730000E-01	  0.021202406	-1.344590E+02	  0.021202406	3.291000E+00	  0.021202406	-2.091000E+01
8	  0.021402806	-9.830000E-01	  0.021402806	-1.359460E+02	  0.021402806	3.289000E+00	  0.021402806	-2.015300E+01
9	  0.021603208	-9.920000E-01	  0.021603208	-1.374420E+02	  0.021603208	3.283000E+00	  0.021603208	-1.939900E+01
10	  0.021803608	-1.003000E+00	  0.021803608	-1.389390E+02	  0.021803608	3.287000E+00	  0.021803608	-1.865300E+01
11	  0.022004008	-1.012000E+00	  0.022004008	-1.404320E+02	  0.022004008	3.285000E+00	  0.022004008	-1.791600E+01
12	  0.022204408	-1.023000E+00	  0.022204408	-1.419420E+02	  0.022204408	3.291000E+00	  0.022204408	-1.717700E+01
13	  0.022404809	-1.033000E+00	  0.022404809	-1.434780E+02	  0.022404809	3.294000E+00	  0.022404809	-1.643300E+01
14	  0.022605211	-1.045000E+00	  0.022605211	-1.450270E+02	  0.022605211	3.301000E+00	  0.022605211	-1.568900E+01
15	  0.022805611	-1.055000E+00	  0.022805611	-1.465790E+02	  0.022805611	3.307000E+00	  0.022805611	-1.495000E+01
16	  0.023006011	-1.064000E+00	  0.023006011	-1.481340E+02	  0.023006011	3.307000E+00	  0.023006011	-1.421600E+01
17	  0.023206413	-1.071000E+00	  0.023206413	-1.496770E+02	  0.023206413	3.304000E+00	  0.023206413	-1.349300E+01
18	  0.023406813	-1.080000E+00	  0.023406813	-1.512300E+02	  0.023406813	3.308000E+00	  0.023406813	-1.277100E+01
19	  0.023607215	-1.092000E+00	  0.023607215	-1.527970E+02	  0.023607215	3.324000E+00	  0.023607215	-1.204600E+01
20	  0.023807615	-1.107000E+00	  0.023807615	-1.543690E+02	  0.023807615	3.346000E+00	  0.023807615	-1.132500E+01
21	  0.024008015	-1.120000E+00	  0.024008015	-1.559610E+02	  0.024008015	3.367000E+00	  0.024008015	-1.059900E+01
22	  0.024208417	-1.131000E+00	  0.024208417	-1.575900E+02	  0.024208417	3.379000E+00	  0.024208417	-9.860000E+00
23	  0.024408817	-1.141000E+00	  0.024408817	-1.592050E+02	  0.024408817	3.391000E+00	  0.024408817	-9.133000E+00
24	  0.024609219	-1.152000E+00	  0.024609219	-1.608470E+02	  0.024609219	3.406000E+00	  0.024609219	-8.397000E+00
25	  0.024809619	-1.165000E+00	  0.024809619	-1.624720E+02	  0.024809619	3.429000E+00	  0.024809619	-7.672000E+00
26	  0.025010020	-1.180000E+00	  0.025010020	-1.641180E+02	  0.025010020	3.458000E+00	  0.025010020	-6.941000E+00
27	  0.025210422	-1.194000E+00	  0.025210422	-1.657560E+02	  0.025210422	3.486000E+00	  0.025210422	-6.217000E+00
28	  0.025410822	-1.212000E+00	  0.025410822	-1.674170E+02	  0.025410822	3.527000E+00	  0.025410822	-5.485000E+00
29	  0.025611224	-1.228000E+00	  0.025611224	-1.690880E+02	  0.025611224	3.560000E+00	  0.025611224	-4.751000E+00
30	  0.025811624	-1.243000E+00	  0.025811624	-1.707640E+02	  0.025811624	3.595000E+00	  0.025811624	-4.017000E+00
31	  0.026012026	-1.261000E+00	  0.026012026	-1.724690E+02	  0.026012026	3.638000E+00	  0.026012026	-3.273000E+00
32	  0.026212426	-1.276000E+00	  0.026212426	-1.741760E+02	  0.026212426	3.676000E+00	  0.026212426	-2.529000E+00
33	  0.026412826	-1.293000E+00	  0.026412826	-1.758850E+02	  0.026412826	3.721000E+00	  0.026412826	-1.786000E+00
34	  0.026613226	-1.313000E+00	  0.026613226	-1.775920E+02	  0.026613226	3.773000E+00	  0.026613226	-1.044000E+00
35	  0.026813626	-1.332000E+00	  0.026813626	-1.793310E+02	  0.026813626	3.829000E+00	  0.026813626	-2.890000E-01
36	  0.027014028	-1.354000E+00	  0.027014028	1.789350E+02	  0.027014028	3.891000E+00	  0.027014028	4.610000E-01
37	  0.027214428	-1.376000E+00	  0.027214428	1.771870E+02	  0.027214428	3.956000E+00	  0.027214428	1.219000E+00
38	  0.027414829	-1.400000E+00	  0.027414829	1.754430E+02	  0.027414829	4.027000E+00	  0.027414829	1.976000E+00
39	  0.027615231	-1.421000E+00	  0.027615231	1.736690E+02	  0.027615231	4.093000E+00	  0.027615231	2.746000E+00
40	  0.027815631	-1.444000E+00	  0.027815631	1.718980E+02	  0.027815631	4.168000E+00	  0.027815631	3.516000E+00
41	  0.028016033	-1.468000E+00	  0.028016033	1.701030E+02	  0.028016033	4.247000E+00	  0.028016033	4.297000E+00
42	  0.028216433	-1.494000E+00	  0.028216433	1.683020E+02	  0.028216433	4.335000E+00	  0.028216433	5.083000E+00
43	  0.028416833	-1.522000E+00	  0.028416833	1.664940E+02	  0.028416833	4.430000E+00	  0.028416833	5.874000E+00
44	  0.028617235	-1.547000E+00	  0.028617235	1.646810E+02	  0.028617235	4.522000E+00	  0.028617235	6.670000E+00
45	  0.028817635	-1.575000E+00	  0.028817635	1.628640E+02	  0.028817635	4.624000E+00	  0.028817635	7.470000E+00
46	  0.029018037	-1.604000E+00	  0.029018037	1.610480E+02	  0.029018037	4.732000E+00	  0.029018037	8.272000E+00
47	  0.029218437	-1.634000E+00	  0.029218437	1.592010E+02	  0.029218437	4.846000E+00	  0.029218437	9.092000E+00
48	  0.029418837	-1.665000E+00	  0.029418837	1.573480E+02	  0.029418837	4.969000E+00	  0.029418837	9.919000E+00
49	  0.029619239	-1.695000E+00	  0.029619239	1.554790E+02	  0.029619239	5.091000E+00	  0.029619239	1.075700E+01
50	  0.029819639	-1.727000E+00	  0.029819639	1.535890E+02	  0.029819639	5.225000E+00	  0.029819639	1.161000E+01
51	  0.030020041	-1.760000E+00	  0.030020041	1.517110E+02	  0.030020041	5.366000E+00	  0.030020041	1.246300E+01
52	  0.030220442	-1.792000E+00	  0.030220442	1.498200E+02	  0.030220442	5.509000E+00	  0.030220442	1.332800E+01
53	  0.030420844	-1.825000E+00	  0.030420844	1.479320E+02	  0.030420844	5.661000E+00	  0.030420844	1.419900E+01
54	  0.030621244	-1.860000E+00	  0.030621244	1.460300E+02	  0.030621244	5.825000E+00	  0.030621244	1.508200E+01
55	  0.030821642	-1.894000E+00	  0.030821642	1.441350E+02	  0.030821642	5.992000E+00	  0.030821642	1.596900E+01
56	  0.031022044	-1.931000E+00	  0.031022044	1.422110E+02	  0.031022044	6.175000E+00	  0.031022044	1.687900E+01
57	  0.031222444	-1.959000E+00	  0.031222444	1.402940E+02	  0.031222444	6.338000E+00	  0.031222444	1.779600E+01
58	  0.031422846	-1.996000E+00	  0.031422846	1.383420E+02	  0.031422846	6.537000E+00	  0.031422846	1.873700E+01
59	  0.031623244	-2.035000E+00	  0.031623244	1.363620E+02	  0.031623244	6.750000E+00	  0.031623244	1.970200E+01
60	  0.031823646	-2.071000E+00	  0.031823646	1.344000E+02	  0.031823646	6.963000E+00	  0.031823646	2.067000E+01
61	  0.032024048	-2.110000E+00	  0.032024048	1.324260E+02	  0.032024048	7.197000E+00	  0.032024048	2.165500E+01
62	  0.032224450	-2.151000E+00	  0.032224450	1.304610E+02	  0.032224450	7.448000E+00	  0.032224450	2.264700E+01
63	  0.032424849	-2.192000E+00	  0.032424849	1.284600E+02	  0.032424849	7.713000E+00	  0.032424849	2.367000E+01
64	  0.032625251	-2.231000E+00	  0.032625251	1.264650E+02	  0.032625251	7.981000E+00	  0.032625251	2.470600E+01
65	  0.032825653	-2.271000E+00	  0.032825653	1.244530E+02	  0.032825653	8.265000E+00	  0.032825653	2.576600E+01
66	  0.033026051	-2.311000E+00	  0.033026051	1.224320E+02	  0.033026051	8.565000E+00	  0.033026051	2.684600E+01
67	  0.033226453	-2.353000E+00	  0.033226453	1.204190E+02	  0.033226453	8.886000E+00	  0.033226453	2.793900E+01
68	  0.033426855	-2.397000E+00	  0.033426855	1.183920E+02	  0.033426855	9.233000E+00	  0.033426855	2.905500E+01
69	  0.033627257	-2.438000E+00	  0.033627257	1.163840E+02	  0.033627257	9.582000E+00	  0.033627257	3.018200E+01
70	  0.033827655	-2.482000E+00	  0.033827655	1.143640E+02	  0.033827655	9.963000E+00	  0.033827655	3.133200E+01
71	  0.034028057	-2.525000E+00	  0.034028057	1.123730E+02	  0.034028057	1.035900E+01	  0.034028057	3.248700E+01
72	  0.034228459	-2.570000E+00	  0.034228459	1.103230E+02	  0.034228459	1.079000E+01	  0.034228459	3.369700E+01
73	  0.034428857	-2.617000E+00	  0.034428857	1.082680E+02	  0.034428857	1.125200E+01	  0.034428857	3.493100E+01
74	  0.034629259	-2.663000E+00	  0.034629259	1.061930E+02	  0.034629259	1.174400E+01	  0.034629259	3.620300E+01
75	  0.034829661	-2.710000E+00	  0.034829661	1.041440E+02	  0.034829661	1.225900E+01	  0.034829661	3.748300E+01
76	  0.035030060	-2.760000E+00	  0.035030060	1.020980E+02	  0.035030060	1.282000E+01	  0.035030060	3.878400E+01
77	  0.035230462	-2.810000E+00	  0.035230462	1.000460E+02	  0.035230462	1.341300E+01	  0.035230462	4.011700E+01
78	  0.035430863	-2.857000E+00	  0.035430863	9.796900E+01	  0.035430863	1.403500E+01	  0.035430863	4.149700E+01
79	  0.035631265	-2.908000E+00	  0.035631265	9.591700E+01	  0.035631265	1.470600E+01	  0.035631265	4.288600E+01
80	  0.035831664	-2.957000E+00	  0.035831664	9.382300E+01	  0.035831664	1.542100E+01	  0.035831664	4.433700E+01
81	  0.036032066	-3.005000E+00	  0.036032066	9.176300E+01	  0.036032066	1.617100E+01	  0.036032066	4.579800E+01
82	  0.036232468	-3.055000E+00	  0.036232468	8.966100E+01	  0.036232468	1.699200E+01	  0.036232468	4.732000E+01
83	  0.036432866	-3.104000E+00	  0.036432866	8.757800E+01	  0.036432866	1.785500E+01	  0.036432866	4.886500E+01
84	  0.036633268	-3.148000E+00	  0.036633268	8.548100E+01	  0.036633268	1.875300E+01	  0.036633268	5.046900E+01
85	  0.036833670	-3.196000E+00	  0.036833670	8.337000E+01	  0.036833670	1.974700E+01	  0.036833670	5.211200E+01
86	  0.037034072	-3.239000E+00	  0.037034072	8.124300E+01	  0.037034072	2.078400E+01	  0.037034072	5.382300E+01
87	  0.037234470	-3.279000E+00	  0.037234470	7.911100E+01	  0.037234470	2.188500E+01	  0.037234470	5.559100E+01
88	  0.037434869	-3.317000E+00	  0.037434869	7.694300E+01	  0.037434869	2.307400E+01	  0.037434869	5.744300E+01
89	  0.037635271	-3.351000E+00	  0.037635271	7.472100E+01	  0.037635271	2.436000E+01	  0.037635271	5.940800E+01
90	  0.037835669	-3.392000E+00	  0.037835669	7.239000E+01	  0.037835669	2.585300E+01	  0.037835669	6.151500E+01
91	  0.038036071	-3.447000E+00	  0.038036071	7.001200E+01	  0.038036071	2.760200E+01	  0.038036071	6.367000E+01
92	  0.038236473	-3.522000E+00	  0.038236473	6.766100E+01	  0.038236473	2.963000E+01	  0.038236473	6.575700E+01
93	  0.038436871	-3.602000E+00	  0.038436871	6.538000E+01	  0.038436871	3.181800E+01	  0.038436871	6.777300E+01
94	  0.038637273	-3.681000E+00	  0.038637273	6.319500E+01	  0.038637273	3.410300E+01	  0.038637273	6.970300E+01
95	  0.038837675	-3.753000E+00	  0.038837675	6.106300E+01	  0.038837675	3.647400E+01	  0.038837675	7.161700E+01
96	  0.039038073	-3.817000E+00	  0.039038073	5.895900E+01	  0.039038073	3.895100E+01	  0.039038073	7.354400E+01
97	  0.039238475	-3.878000E+00	  0.039238475	5.684600E+01	  0.039238475	4.161700E+01	  0.039238475	7.549500E+01
98	  0.039438877	-3.940000E+00	  0.039438877	5.473300E+01	  0.039438877	4.451000E+01	  0.039438877	7.741700E+01
99	  0.039639279	-3.998000E+00	  0.039639279	5.264600E+01	  0.039639279	4.756900E+01	  0.039639279	7.931600E+01
100	  0.039839678	-4.053000E+00	  0.039839678	5.053600E+01	  0.039839678	5.089300E+01	  0.039839678	8.121700E+01
101	  0.040040080	-4.105000E+00	  0.040040080	4.842800E+01	  0.040040080	5.446200E+01	  0.040040080	8.308400E+01
102	  0.040240481	-4.154000E+00	  0.040240481	4.632400E+01	  0.040240481	5.830500E+01	  0.040240481	8.488300E+01
103	  0.040440880	-4.205000E+00	  0.040440880	4.422000E+01	  0.040440880	6.246900E+01	  0.040440880	8.655500E+01
104	  0.040641282	-4.256000E+00	  0.040641282	4.213800E+01	  0.040641282	6.691900E+01	  0.040641282	8.805900E+01
105	  0.040841684	-4.307000E+00	  0.040841684	4.005300E+01	  0.040841684	7.172400E+01	  0.040841684	8.935700E+01
106	  0.041042086	-4.356000E+00	  0.041042086	3.797300E+01	  0.041042086	7.685700E+01	  0.041042086	9.044300E+01
107	  0.041242484	-4.407000E+00	  0.041242484	3.588200E+01	  0.041242484	8.239700E+01	  0.041242484	9.120100E+01
108	  0.041442886	-4.458000E+00	  0.041442886	3.379500E+01	  0.041442886	8.829000E+01	  0.041442886	9.159200E+01
109	  0.041643288	-4.507000E+00	  0.041643288	3.170700E+01	  0.041643288	9.453300E+01	  0.041643288	9.158100E+01
110	  0.041843686	-4.556000E+00	  0.041843686	2.960900E+01	  0.041843686	1.011500E+02	  0.041843686	9.104100E+01
111	  0.042044088	-4.602000E+00	  0.042044088	2.752100E+01	  0.042044088	1.080380E+02	  0.042044088	8.994100E+01
112	  0.042244490	-4.650000E+00	  0.042244490	2.546200E+01	  0.042244490	1.150700E+02	  0.042244490	8.811900E+01
113	  0.042444889	-4.697000E+00	  0.042444889	2.340100E+01	  0.042444889	1.222680E+02	  0.042444889	8.555900E+01
114	  0.042645290	-4.748000E+00	  0.042645290	2.134300E+01	  0.042645290	1.294850E+02	  0.042645290	8.206600E+01
115	  0.042845692	-4.794000E+00	  0.042845692	1.929600E+01	  0.042845692	1.366180E+02	  0.042845692	7.777600E+01
116	  0.043046094	-4.841000E+00	  0.043046094	1.724700E+01	  0.043046094	1.435390E+02	  0.043046094	7.254100E+01
117	  0.043246493	-4.886000E+00	  0.043246493	1.518400E+01	  0.043246493	1.501590E+02	  0.043246493	6.636000E+01
118	  0.043446895	-4.931000E+00	  0.043446895	1.313500E+01	  0.043446895	1.561550E+02	  0.043446895	5.926700E+01
119	  0.043647297	-4.972000E+00	  0.043647297	1.109500E+01	  0.043647297	1.615070E+02	  0.043647297	5.144000E+01
120	  0.043847695	-5.013000E+00	  0.043847695	9.068000E+00	  0.043847695	1.659300E+02	  0.043847695	4.289200E+01
121	  0.044048097	-5.053000E+00	  0.044048097	7.041000E+00	  0.044048097	1.693730E+02	  0.044048097	3.375500E+01
122	  0.044248499	-5.091000E+00	  0.044248499	5.022000E+00	  0.044248499	1.717180E+02	  0.044248499	2.423400E+01
123	  0.044448901	-5.129000E+00	  0.044448901	3.024000E+00	  0.044448901	1.728680E+02	  0.044448901	1.458200E+01
124	  0.044649299	-5.167000E+00	  0.044649299	1.034000E+00	  0.044649299	1.728510E+02	  0.044649299	4.947000E+00
125	  0.044849701	-5.204000E+00	  0.044849701	-9.490000E-01	  0.044849701	1.717420E+02	  0.044849701	-4.479000E+00
126	  0.045050103	-5.239000E+00	  0.045050103	-2.930000E+00	  0.045050103	1.695920E+02	  0.045050103	-1.353800E+01
127	  0.045250501	-5.271000E+00	  0.045250501	-4.895000E+00	  0.045250501	1.665860E+02	  0.045250501	-2.204200E+01
128	  0.045450903	-5.305000E+00	  0.045450903	-6.868000E+00	  0.045450903	1.627170E+02	  0.045450903	-2.996000E+01
129	  0.045651305	-5.334000E+00	  0.045651305	-8.819000E+00	  0.045651305	1.582980E+02	  0.045651305	-3.714000E+01
130	  0.045851704	-5.364000E+00	  0.045851704	-1.075900E+01	  0.045851704	1.533420E+02	  0.045851704	-4.353200E+01
131	  0.046052102	-5.389000E+00	  0.046052102	-1.269300E+01	  0.046052102	1.480890E+02	  0.046052102	-4.922300E+01
132	  0.046252504	-5.420000E+00	  0.046252504	-1.460400E+01	  0.046252504	1.425110E+02	  0.046252504	-5.400600E+01
133	  0.046452906	-5.448000E+00	  0.046452906	-1.649800E+01	  0.046452906	1.368840E+02	  0.046452906	-5.808700E+01
134	  0.046653304	-5.474000E+00	  0.046653304	-1.839900E+01	  0.046653304	1.312070E+02	  0.046653304	-6.155300E+01
135	  0.046853706	-5.500000E+00	  0.046853706	-2.029500E+01	  0.046853706	1.255490E+02	  0.046853706	-6.437400E+01
136	  0.047054108	-5.526000E+00	  0.047054108	-2.215900E+01	  0.047054108	1.200640E+02	  0.047054108	-6.658500E+01
137	  0.047254506	-5.551000E+00	  0.047254506	-2.403000E+01	  0.047254506	1.147040E+02	  0.047254506	-6.833500E+01
138	  0.047454908	-5.574000E+00	  0.047454908	-2.588600E+01	  0.047454908	1.095490E+02	  0.047454908	-6.965000E+01
139	  0.047655310	-5.597000E+00	  0.047655310	-2.773100E+01	  0.047655310	1.046080E+02	  0.047655310	-7.055300E+01
140	  0.047855709	-5.618000E+00	  0.047855709	-2.954700E+01	  0.047855709	9.994300E+01	  0.047855709	-7.113400E+01
141	  0.048056111	-5.639000E+00	  0.048056111	-3.135300E+01	  0.048056111	9.550300E+01	  0.048056111	-7.140900E+01
142	  0.048256513	-5.663000E+00	  0.048256513	-3.315700E+01	  0.048256513	9.127300E+01	  0.048256513	-7.139600E+01
143	  0.048456915	-5.684000E+00	  0.048456915	-3.495000E+01	  0.048456915	8.727900E+01	  0.048456915	-7.120800E+01
144	  0.048657313	-5.704000E+00	  0.048657313	-3.677100E+01	  0.048657313	8.343000E+01	  0.048657313	-7.084100E+01
145	  0.048857715	-5.724000E+00	  0.048857715	-3.853300E+01	  0.048857715	7.990300E+01	  0.048857715	-7.032900E+01
146	  0.049058117	-5.741000E+00	  0.049058117	-4.030500E+01	  0.049058117	7.654100E+01	  0.049058117	-6.971600E+01
147	  0.049258515	-5.758000E+00	  0.049258515	-4.207500E+01	  0.049258515	7.336200E+01	  0.049258515	-6.899100E+01
148	  0.049458917	-5.775000E+00	  0.049458917	-4.379400E+01	  0.049458917	7.044400E+01	  0.049458917	-6.818300E+01
149	  0.049659319	-5.796000E+00	  0.049659319	-4.556500E+01	  0.049659319	6.761200E+01	  0.049659319	-6.724000E+01
150	  0.049859721	-5.813000E+00	  0.049859721	-4.726600E+01	  0.049859721	6.503300E+01	  0.049859721	-6.630400E+01
151	  0.050060119	-5.829000E+00	  0.050060119	-4.898800E+01	  0.050060119	6.255800E+01	  0.050060119	-6.532300E+01
152	  0.050260521	-5.845000E+00	  0.050260521	-5.070400E+01	  0.050260521	6.022900E+01	  0.050260521	-6.429800E+01
153	  0.050460923	-5.857000E+00	  0.050460923	-5.240300E+01	  0.050460923	5.803700E+01	  0.050460923	-6.327900E+01
154	  0.050661322	-5.870000E+00	  0.050661322	-5.408100E+01	  0.050661322	5.598800E+01	  0.050661322	-6.224000E+01
155	  0.050861724	-5.879000E+00	  0.050861724	-5.576700E+01	  0.050861724	5.402300E+01	  0.050861724	-6.120200E+01
156	  0.051062126	-5.895000E+00	  0.051062126	-5.745300E+01	  0.051062126	5.218900E+01	  0.051062126	-6.009700E+01
157	  0.051262524	-5.906000E+00	  0.051262524	-5.909400E+01	  0.051262524	5.048300E+01	  0.051262524	-5.903800E+01
158	  0.051462926	-5.919000E+00	  0.051462926	-6.074600E+01	  0.051462926	4.885700E+01	  0.051462926	-5.796000E+01
159	  0.051663328	-5.929000E+00	  0.051663328	-6.238200E+01	  0.051663328	4.732000E+01	  0.051663328	-5.689900E+01
160	  0.051863730	-5.936000E+00	  0.051863730	-6.400900E+01	  0.051863730	4.585700E+01	  0.051863730	-5.586000E+01
161	  0.052064128	-5.943000E+00	  0.052064128	-6.561300E+01	  0.052064128	4.448500E+01	  0.052064128	-5.483500E+01
162	  0.052264530	-5.945000E+00	  0.052264530	-6.722600E+01	  0.052264530	4.315600E+01	  0.052264530	-5.382500E+01
163	  0.052464932	-5.954000E+00	  0.052464932	-6.880500E+01	  0.052464932	4.194200E+01	  0.052464932	-5.280500E+01
164	  0.052665330	-5.960000E+00	  0.052665330	-7.039800E+01	  0.052665330	4.076100E+01	  0.052665330	-5.179900E+01
165	  0.052865732	-5.967000E+00	  0.052865732	-7.193700E+01	  0.052865732	3.968300E+01	  0.052865732	-5.081800E+01
166	  0.053066134	-5.976000E+00	  0.053066134	-7.349400E+01	  0.053066134	3.864700E+01	  0.053066134	-4.982800E+01
167	  0.053266536	-5.979000E+00	  0.053266536	-7.503200E+01	  0.053266536	3.764900E+01	  0.053266536	-4.888100E+01
168	  0.053466935	-5.989000E+00	  0.053466935	-7.658300E+01	  0.053466935	3.671400E+01	  0.053466935	-4.790400E+01
169	  0.053667337	-5.992000E+00	  0.053667337	-7.808200E+01	  0.053667337	3.582600E+01	  0.053667337	-4.699100E+01
170	  0.053867739	-5.997000E+00	  0.053867739	-7.959900E+01	  0.053867739	3.497300E+01	  0.053867739	-4.607000E+01
171	  0.054068137	-6.001000E+00	  0.054068137	-8.111100E+01	  0.054068137	3.415800E+01	  0.054068137	-4.515900E+01
172	  0.054268539	-6.007000E+00	  0.054268539	-8.260600E+01	  0.054268539	3.339100E+01	  0.054268539	-4.426500E+01
173	  0.054468941	-6.012000E+00	  0.054468941	-8.405000E+01	  0.054468941	3.268000E+01	  0.054468941	-4.340900E+01
174	  0.054669335	-6.015000E+00	  0.054669335	-8.553400E+01	  0.054669335	3.197300E+01	  0.054669335	-4.254200E+01
175	  0.054869737	-6.022000E+00	  0.054869737	-8.697600E+01	  0.054869737	3.132700E+01	  0.054869737	-4.170000E+01
176	  0.055070139	-6.027000E+00	  0.055070139	-8.839900E+01	  0.055070139	3.071100E+01	  0.055070139	-4.087800E+01
177	  0.055270538	-6.033000E+00	  0.055270538	-8.982300E+01	  0.055270538	3.011900E+01	  0.055270538	-4.006400E+01
178	  0.055470940	-6.037000E+00	  0.055470940	-9.124100E+01	  0.055470940	2.955100E+01	  0.055470940	-3.926300E+01
179	  0.055671342	-6.035000E+00	  0.055671342	-9.263600E+01	  0.055671342	2.898800E+01	  0.055671342	-3.850100E+01
180	  0.055871744	-6.041000E+00	  0.055871744	-9.404700E+01	  0.055871744	2.847200E+01	  0.055871744	-3.771500E+01
181	  0.056072142	-6.043000E+00	  0.056072142	-9.542900E+01	  0.056072142	2.797100E+01	  0.056072142	-3.696300E+01
182	  0.056272544	-6.043000E+00	  0.056272544	-9.680300E+01	  0.056272544	2.748400E+01	  0.056272544	-3.622700E+01
183	  0.056472946	-6.044000E+00	  0.056472946	-9.816100E+01	  0.056472946	2.702400E+01	  0.056472946	-3.550200E+01
184	  0.056673344	-6.046000E+00	  0.056673344	-9.948600E+01	  0.056673344	2.659600E+01	  0.056673344	-3.480000E+01
185	  0.056873746	-6.046000E+00	  0.056873746	-1.008170E+02	  0.056873746	2.617300E+01	  0.056873746	-3.410600E+01
186	  0.057074148	-6.045000E+00	  0.057074148	-1.021560E+02	  0.057074148	2.575800E+01	  0.057074148	-3.341600E+01
187	  0.057274550	-6.044000E+00	  0.057274550	-1.034730E+02	  0.057274550	2.536500E+01	  0.057274550	-3.274200E+01
188	  0.057474948	-6.042000E+00	  0.057474948	-1.048080E+02	  0.057474948	2.498000E+01	  0.057474948	-3.206600E+01
189	  0.057675350	-6.040000E+00	  0.057675350	-1.061130E+02	  0.057675350	2.461600E+01	  0.057675350	-3.141000E+01
190	  0.057875752	-6.038000E+00	  0.057875752	-1.074060E+02	  0.057875752	2.426400E+01	  0.057875752	-3.076700E+01
191	  0.058076151	-6.036000E+00	  0.058076151	-1.087290E+02	  0.058076151	2.392200E+01	  0.058076151	-3.011200E+01
192	  0.058276553	-6.034000E+00	  0.058276553	-1.100270E+02	  0.058276553	2.359300E+01	  0.058276553	-2.947600E+01
193	  0.058476955	-6.026000E+00	  0.058476955	-1.112710E+02	  0.058476955	2.326900E+01	  0.058476955	-2.888100E+01
194	  0.058677353	-6.025000E+00	  0.058677353	-1.125630E+02	  0.058677353	2.296800E+01	  0.058677353	-2.825600E+01
195	  0.058877755	-6.021000E+00	  0.058877755	-1.138450E+02	  0.058877755	2.267000E+01	  0.058877755	-2.764300E+01
196	  0.059078157	-6.012000E+00	  0.059078157	-1.151160E+02	  0.059078157	2.237000E+01	  0.059078157	-2.704800E+01
197	  0.059278559	-6.007000E+00	  0.059278559	-1.163760E+02	  0.059278559	2.209400E+01	  0.059278559	-2.645500E+01
198	  0.059478957	-6.004000E+00	  0.059478957	-1.176730E+02	  0.059478957	2.182200E+01	  0.059478957	-2.584900E+01
199	  0.059679359	-5.999000E+00	  0.059679359	-1.189350E+02	  0.059679359	2.156300E+01	  0.059679359	-2.526400E+01
200	  0.059879761	-5.995000E+00	  0.059879761	-1.201900E+02	  0.059879761	2.131700E+01	  0.059879761	-2.468500E+01
201	  0.060080159	-5.994000E+00	  0.060080159	-1.214260E+02	  0.060080159	2.109100E+01	  0.060080159	-2.411500E+01
202	  0.060280561	-5.991000E+00	  0.060280561	-1.226700E+02	  0.060280561	2.086400E+01	  0.060280561	-2.354900E+01
203	  0.060480963	-5.989000E+00	  0.060480963	-1.239050E+02	  0.060480963	2.065100E+01	  0.060480963	-2.298800E+01
204	  0.060681365	-5.988000E+00	  0.060681365	-1.251370E+02	  0.060681365	2.044700E+01	  0.060681365	-2.243100E+01
205	  0.060881764	-5.985000E+00	  0.060881764	-1.263510E+02	  0.060881764	2.024500E+01	  0.060881764	-2.188900E+01
206	  0.061082166	-5.980000E+00	  0.061082166	-1.275840E+02	  0.061082166	2.004300E+01	  0.061082166	-2.134300E+01
207	  0.061282568	-5.978000E+00	  0.061282568	-1.288090E+02	  0.061282568	1.985700E+01	  0.061282568	-2.080000E+01
208	  0.061482966	-5.975000E+00	  0.061482966	-1.300040E+02	  0.061482966	1.968100E+01	  0.061482966	-2.027500E+01
209	  0.061683368	-5.973000E+00	  0.061683368	-1.312320E+02	  0.061683368	1.950600E+01	  0.061683368	-1.973800E+01
210	  0.061883770	-5.973000E+00	  0.061883770	-1.324190E+02	  0.061883770	1.935000E+01	  0.061883770	-1.921900E+01
211	  0.062084168	-5.973000E+00	  0.062084168	-1.335890E+02	  0.062084168	1.920000E+01	  0.062084168	-1.871100E+01
212	  0.062284570	-5.971000E+00	  0.062284570	-1.347850E+02	  0.062284570	1.904700E+01	  0.062284570	-1.819600E+01
213	  0.062484972	-5.962000E+00	  0.062484972	-1.359060E+02	  0.062484972	1.888800E+01	  0.062484972	-1.772100E+01
214	  0.062685370	-5.956000E+00	  0.062685370	-1.371110E+02	  0.062685370	1.873300E+01	  0.062685370	-1.721000E+01
215	  0.062885776	-5.957000E+00	  0.062885776	-1.382780E+02	  0.062885776	1.860700E+01	  0.062885776	-1.671300E+01
216	  0.063086174	-5.955000E+00	  0.063086174	-1.394250E+02	  0.063086174	1.847900E+01	  0.063086174	-1.622800E+01
217	  0.063286573	-5.958000E+00	  0.063286573	-1.405750E+02	  0.063286573	1.836800E+01	  0.063286573	-1.574100E+01
218	  0.063486971	-5.952000E+00	  0.063486971	-1.417250E+02	  0.063486971	1.823900E+01	  0.063486971	-1.526200E+01
219	  0.063687377	-5.949000E+00	  0.063687377	-1.428190E+02	  0.063687377	1.812600E+01	  0.063687377	-1.480700E+01
220	  0.063887775	-5.950000E+00	  0.063887775	-1.439400E+02	  0.063887775	1.802700E+01	  0.063887775	-1.433900E+01
221	  0.064088173	-5.947000E+00	  0.064088173	-1.450680E+02	  0.064088173	1.791900E+01	  0.064088173	-1.387300E+01
222	  0.064288579	-5.948000E+00	  0.064288579	-1.462060E+02	  0.064288579	1.782300E+01	  0.064288579	-1.340300E+01
223	  0.064488977	-5.951000E+00	  0.064488977	-1.473290E+02	  0.064488977	1.773900E+01	  0.064488977	-1.293900E+01
224	  0.064689375	-5.951000E+00	  0.064689375	-1.484220E+02	  0.064689375	1.765400E+01	  0.064689375	-1.249100E+01
225	  0.064889781	-5.955000E+00	  0.064889781	-1.495180E+02	  0.064889781	1.758200E+01	  0.064889781	-1.204200E+01
226	  0.065090179	-5.956000E+00	  0.065090179	-1.506290E+02	  0.065090179	1.750400E+01	  0.065090179	-1.158900E+01
227	  0.065290578	-5.958000E+00	  0.065290578	-1.516900E+02	  0.065290578	1.743500E+01	  0.065290578	-1.115800E+01
228	  0.065490983	-5.962000E+00	  0.065490983	-1.527590E+02	  0.065490983	1.737700E+01	  0.065490983	-1.072300E+01
229	  0.065691382	-5.967000E+00	  0.065691382	-1.538190E+02	  0.065691382	1.732100E+01	  0.065691382	-1.029400E+01
230	  0.065891780	-5.970000E+00	  0.065891780	-1.548870E+02	  0.065891780	1.726500E+01	  0.065891780	-9.864000E+00
231	  0.066092186	-5.971000E+00	  0.066092186	-1.559470E+02	  0.066092186	1.720600E+01	  0.066092186	-9.439000E+00
232	  0.066292584	-5.975000E+00	  0.066292584	-1.569980E+02	  0.066292584	1.715900E+01	  0.066292584	-9.017000E+00
233	  0.066492982	-5.983000E+00	  0.066492982	-1.580550E+02	  0.066492982	1.712400E+01	  0.066492982	-8.593000E+00
234	  0.066693388	-5.987000E+00	  0.066693388	-1.591080E+02	  0.066693388	1.708100E+01	  0.066693388	-8.173000E+00
235	  0.066893786	-5.994000E+00	  0.066893786	-1.601350E+02	  0.066893786	1.705100E+01	  0.066893786	-7.764000E+00
236	  0.067094192	-5.997000E+00	  0.067094192	-1.611490E+02	  0.067094192	1.701200E+01	  0.067094192	-7.362000E+00
237	  0.067294590	-6.001000E+00	  0.067294590	-1.621790E+02	  0.067294590	1.697900E+01	  0.067294590	-6.954000E+00
238	  0.067494988	-6.007000E+00	  0.067494988	-1.632040E+02	  0.067494988	1.695400E+01	  0.067494988	-6.548000E+00
239	  0.067695394	-6.010000E+00	  0.067695394	-1.641880E+02	  0.067695394	1.692400E+01	  0.067695394	-6.160000E+00
240	  0.067895792	-6.017000E+00	  0.067895792	-1.652190E+02	  0.067895792	1.690600E+01	  0.067895792	-5.754000E+00
241	  0.068096191	-6.022000E+00	  0.068096191	-1.662310E+02	  0.068096191	1.688600E+01	  0.068096191	-5.356000E+00
242	  0.068296596	-6.027000E+00	  0.068296596	-1.672420E+02	  0.068296596	1.686900E+01	  0.068296596	-4.960000E+00
243	  0.068496995	-6.030000E+00	  0.068496995	-1.682080E+02	  0.068496995	1.685000E+01	  0.068496995	-4.582000E+00
244	  0.068697393	-6.035000E+00	  0.068697393	-1.691910E+02	  0.068697393	1.683700E+01	  0.068697393	-4.198000E+00
245	  0.068897791	-6.037000E+00	  0.068897791	-1.701900E+02	  0.068897791	1.681800E+01	  0.068897791	-3.808000E+00
246	  0.069098189	-6.036000E+00	  0.069098189	-1.711480E+02	  0.069098189	1.679600E+01	  0.069098189	-3.435000E+00
247	  0.069298595	-6.041000E+00	  0.069298595	-1.721060E+02	  0.069298595	1.679000E+01	  0.069298595	-3.062000E+00
248	  0.069498993	-6.041000E+00	  0.069498993	-1.730830E+02	  0.069498993	1.677300E+01	  0.069498993	-2.682000E+00
249	  0.069699399	-6.047000E+00	  0.069699399	-1.740670E+02	  0.069699399	1.677500E+01	  0.069699399	-2.299000E+00
250	  0.069899797	-6.045000E+00	  0.069899797	-1.750270E+02	  0.069899797	1.675800E+01	  0.069899797	-1.927000E+00
251	  0.070100196	-6.047000E+00	  0.070100196	-1.759670E+02	  0.070100196	1.675400E+01	  0.070100196	-1.562000E+00
252	  0.070300601	-6.047000E+00	  0.070300601	-1.769140E+02	  0.070300601	1.674700E+01	  0.070300601	-1.195000E+00
253	  0.070501000	-6.048000E+00	  0.070501000	-1.778630E+02	  0.070501000	1.674200E+01	  0.070501000	-8.270000E-01
254	  0.070701398	-6.048000E+00	  0.070701398	-1.787670E+02	  0.070701398	1.673900E+01	  0.070701398	-4.770000E-01
255	  0.070901804	-6.049000E+00	  0.070901804	-1.797160E+02	  0.070901804	1.673900E+01	  0.070901804	-1.090000E-01
256	  0.071102202	-6.048000E+00	  0.071102202	1.793550E+02	  0.071102202	1.673800E+01	  0.071102202	2.490000E-01
257	  0.071302600	-6.053000E+00	  0.071302600	1.784150E+02	  0.071302600	1.675400E+01	  0.071302600	6.130000E-01
258	  0.071503006	-6.058000E+00	  0.071503006	1.774930E+02	  0.071503006	1.676900E+01	  0.071503006	9.700000E-01
259	  0.071703404	-6.058000E+00	  0.071703404	1.765770E+02	  0.071703404	1.677700E+01	  0.071703404	1.325000E+00
260	  0.071903802	-6.062000E+00	  0.071903802	1.756630E+02	  0.071903802	1.679500E+01	  0.071903802	1.679000E+00
261	  0.072104208	-6.067000E+00	  0.072104208	1.747090E+02	  0.072104208	1.681800E+01	  0.072104208	2.049000E+00
262	  0.072304606	-6.072000E+00	  0.072304606	1.738090E+02	  0.072304606	1.684200E+01	  0.072304606	2.397000E+00
263	  0.072505005	-6.076000E+00	  0.072505005	1.729010E+02	  0.072505005	1.686600E+01	  0.072505005	2.749000E+00
264	  0.072705410	-6.079000E+00	  0.072705410	1.719870E+02	  0.072705410	1.688900E+01	  0.072705410	3.103000E+00
265	  0.072905809	-6.081000E+00	  0.072905809	1.710560E+02	  0.072905809	1.691300E+01	  0.072905809	3.465000E+00
266	  0.073106214	-6.090000E+00	  0.073106214	1.701430E+02	  0.073106214	1.695600E+01	  0.073106214	3.818000E+00
267	  0.073306613	-6.095000E+00	  0.073306613	1.692140E+02	  0.073306613	1.699200E+01	  0.073306613	4.179000E+00
268	  0.073507011	-6.107000E+00	  0.073507011	1.683270E+02	  0.073507011	1.704400E+01	  0.073507011	4.522000E+00
269	  0.073707417	-6.111000E+00	  0.073707417	1.674010E+02	  0.073707417	1.708100E+01	  0.073707417	4.881000E+00
270	  0.073907815	-6.117000E+00	  0.073907815	1.664760E+02	  0.073907815	1.712400E+01	  0.073907815	5.241000E+00
271	  0.074108213	-6.123000E+00	  0.074108213	1.655870E+02	  0.074108213	1.716800E+01	  0.074108213	5.587000E+00
272	  0.074308619	-6.131000E+00	  0.074308619	1.646730E+02	  0.074308619	1.722100E+01	  0.074308619	5.942000E+00
273	  0.074509017	-6.140000E+00	  0.074509017	1.637390E+02	  0.074509017	1.727700E+01	  0.074509017	6.305000E+00
274	  0.074709415	-6.146000E+00	  0.074709415	1.628130E+02	  0.074709415	1.733100E+01	  0.074709415	6.665000E+00
275	  0.074909821	-6.151000E+00	  0.074909821	1.619240E+02	  0.074909821	1.738000E+01	  0.074909821	7.013000E+00
276	  0.075110219	-6.164000E+00	  0.075110219	1.609910E+02	  0.075110219	1.745500E+01	  0.075110219	7.375000E+00
277	  0.075310618	-6.170000E+00	  0.075310618	1.601010E+02	  0.075310618	1.751100E+01	  0.075310618	7.723000E+00
278	  0.075511023	-6.177000E+00	  0.075511023	1.592270E+02	  0.075511023	1.757000E+01	  0.075511023	8.065000E+00
279	  0.075711422	-6.180000E+00	  0.075711422	1.583170E+02	  0.075711422	1.762600E+01	  0.075711422	8.422000E+00
280	  0.075911827	-6.186000E+00	  0.075911827	1.574500E+02	  0.075911827	1.768700E+01	  0.075911827	8.762000E+00
281	  0.076112226	-6.193000E+00	  0.076112226	1.565590E+02	  0.076112226	1.775300E+01	  0.076112226	9.112000E+00
282	  0.076312624	-6.202000E+00	  0.076312624	1.556630E+02	  0.076312624	1.783000E+01	  0.076312624	9.463000E+00
283	  0.076513030	-6.211000E+00	  0.076513030	1.547920E+02	  0.076513030	1.790500E+01	  0.076513030	9.806000E+00
284	  0.076713428	-6.220000E+00	  0.076713428	1.539080E+02	  0.076713428	1.798500E+01	  0.076713428	1.015300E+01
285	  0.076913826	-6.229000E+00	  0.076913826	1.530290E+02	  0.076913826	1.806600E+01	  0.076913826	1.049900E+01
286	  0.077114232	-6.237000E+00	  0.077114232	1.521830E+02	  0.077114232	1.814200E+01	  0.077114232	1.083400E+01
287	  0.077314630	-6.242000E+00	  0.077314630	1.513480E+02	  0.077314630	1.821500E+01	  0.077314630	1.116500E+01
288	  0.077515028	-6.251000E+00	  0.077515028	1.505030E+02	  0.077515028	1.830000E+01	  0.077515028	1.149900E+01
289	  0.077715434	-6.261000E+00	  0.077715434	1.496460E+02	  0.077715434	1.839000E+01	  0.077715434	1.183800E+01
290	  0.077915832	-6.269000E+00	  0.077915832	1.488100E+02	  0.077915832	1.847400E+01	  0.077915832	1.217100E+01
291	  0.078116231	-6.277000E+00	  0.078116231	1.479710E+02	  0.078116231	1.856400E+01	  0.078116231	1.250400E+01
292	  0.078316636	-6.290000E+00	  0.078316636	1.471220E+02	  0.078316636	1.866700E+01	  0.078316636	1.284000E+01
293	  0.078517035	-6.298000E+00	  0.078517035	1.462920E+02	  0.078517035	1.875900E+01	  0.078517035	1.317200E+01
294	  0.078717433	-6.312000E+00	  0.078717433	1.454770E+02	  0.078717433	1.886800E+01	  0.078717433	1.349500E+01
295	  0.078917839	-6.327000E+00	  0.078917839	1.446610E+02	  0.078917839	1.898200E+01	  0.078917839	1.381700E+01
296	  0.079118237	-6.340000E+00	  0.079118237	1.438380E+02	  0.079118237	1.909300E+01	  0.079118237	1.414400E+01
297	  0.079318643	-6.356000E+00	  0.079318643	1.430270E+02	  0.079318643	1.921400E+01	  0.079318643	1.446500E+01
298	  0.079519041	-6.371000E+00	  0.079519041	1.422270E+02	  0.079519041	1.933300E+01	  0.079519041	1.478200E+01
299	  0.079719439	-6.383000E+00	  0.079719439	1.414330E+02	  0.079719439	1.944700E+01	  0.079719439	1.509900E+01
300	  0.079919845	-6.402000E+00	  0.079919845	1.405970E+02	  0.079919845	1.958400E+01	  0.079919845	1.543000E+01
301	  0.080120243	-6.412000E+00	  0.080120243	1.397860E+02	  0.080120243	1.970000E+01	  0.080120243	1.575600E+01
302	  0.080320641	-6.432000E+00	  0.080320641	1.389660E+02	  0.080320641	1.984300E+01	  0.080320641	1.608000E+01
303	  0.080521047	-6.448000E+00	  0.080521047	1.381720E+02	  0.080521047	1.997600E+01	  0.080521047	1.639600E+01
304	  0.080721445	-6.468000E+00	  0.080721445	1.373650E+02	  0.080721445	2.012600E+01	  0.080721445	1.671400E+01
305	  0.080921844	-6.484000E+00	  0.080921844	1.365720E+02	  0.080921844	2.026200E+01	  0.080921844	1.703100E+01
306	  0.081122249	-6.500000E+00	  0.081122249	1.357420E+02	  0.081122249	2.040800E+01	  0.081122249	1.736300E+01
307	  0.081322648	-6.523000E+00	  0.081322648	1.349580E+02	  0.081322648	2.056900E+01	  0.081322648	1.767100E+01
308	  0.081523046	-6.540000E+00	  0.081523046	1.341480E+02	  0.081523046	2.071900E+01	  0.081523046	1.799500E+01
309	  0.081723452	-6.556000E+00	  0.081723452	1.333420E+02	  0.081723452	2.087200E+01	  0.081723452	1.831800E+01
310	  0.081923850	-6.569000E+00	  0.081923850	1.325460E+02	  0.081923850	2.101500E+01	  0.081923850	1.864000E+01
311	  0.082124248	-6.588000E+00	  0.082124248	1.317370E+02	  0.082124248	2.117800E+01	  0.082124248	1.896300E+01
312	  0.082324654	-6.604000E+00	  0.082324654	1.309360E+02	  0.082324654	2.133600E+01	  0.082324654	1.928600E+01
313	  0.082525052	-6.620000E+00	  0.082525052	1.301610E+02	  0.082525052	2.149500E+01	  0.082525052	1.959700E+01
314	  0.082725458	-6.638000E+00	  0.082725458	1.293780E+02	  0.082725458	2.166100E+01	  0.082725458	1.991100E+01
315	  0.082925856	-6.655000E+00	  0.082925856	1.286100E+02	  0.082925856	2.182600E+01	  0.082925856	2.022000E+01
316	  0.083126254	-6.678000E+00	  0.083126254	1.278280E+02	  0.083126254	2.201200E+01	  0.083126254	2.052900E+01
317	  0.083326660	-6.694000E+00	  0.083326660	1.270290E+02	  0.083326660	2.218500E+01	  0.083326660	2.085100E+01
318	  0.083527058	-6.709000E+00	  0.083527058	1.262700E+02	  0.083527058	2.234900E+01	  0.083527058	2.116000E+01
319	  0.083727457	-6.725000E+00	  0.083727457	1.255040E+02	  0.083727457	2.252400E+01	  0.083727457	2.147000E+01
320	  0.083927862	-6.747000E+00	  0.083927862	1.247640E+02	  0.083927862	2.271200E+01	  0.083927862	2.176200E+01
321	  0.084128261	-6.763000E+00	  0.084128261	1.239800E+02	  0.084128261	2.289400E+01	  0.084128261	2.208000E+01
322	  0.084328659	-6.785000E+00	  0.084328659	1.232550E+02	  0.084328659	2.308500E+01	  0.084328659	2.236700E+01
323	  0.084529065	-6.805000E+00	  0.084529065	1.225060E+02	  0.084529065	2.327900E+01	  0.084529065	2.266500E+01
324	  0.084729463	-6.826000E+00	  0.084729463	1.217620E+02	  0.084729463	2.347800E+01	  0.084729463	2.296100E+01
325	  0.084929854	-6.845000E+00	  0.084929854	1.210160E+02	  0.084929854	2.367200E+01	  0.084929854	2.326000E+01
326	  0.085130259	-6.862000E+00	  0.085130259	1.202720E+02	  0.085130259	2.386500E+01	  0.085130259	2.356100E+01
327	  0.085330658	-6.880000E+00	  0.085330658	1.195560E+02	  0.085330658	2.406000E+01	  0.085330658	2.384700E+01
328	  0.085531056	-6.899000E+00	  0.085531056	1.188520E+02	  0.085531056	2.425800E+01	  0.085531056	2.412800E+01
329	  0.085731462	-6.920000E+00	  0.085731462	1.181170E+02	  0.085731462	2.447000E+01	  0.085731462	2.441900E+01
330	  0.085931860	-6.944000E+00	  0.085931860	1.173980E+02	  0.085931860	2.469000E+01	  0.085931860	2.470000E+01
331	  0.086132258	-6.961000E+00	  0.086132258	1.167350E+02	  0.086132258	2.488100E+01	  0.086132258	2.496600E+01
332	  0.086332664	-6.990000E+00	  0.086332664	1.160100E+02	  0.086332664	2.512200E+01	  0.086332664	2.524100E+01
333	  0.086533062	-7.013000E+00	  0.086533062	1.153180E+02	  0.086533062	2.534400E+01	  0.086533062	2.551000E+01
334	  0.086733460	-7.037000E+00	  0.086733460	1.146180E+02	  0.086733460	2.557300E+01	  0.086733460	2.578000E+01
335	  0.086933866	-7.058000E+00	  0.086933866	1.139070E+02	  0.086933866	2.579800E+01	  0.086933866	2.606000E+01
336	  0.087134264	-7.084000E+00	  0.087134264	1.132500E+02	  0.087134264	2.603100E+01	  0.087134264	2.630700E+01
337	  0.087334670	-7.105000E+00	  0.087334670	1.125670E+02	  0.087334670	2.625600E+01	  0.087334670	2.657400E+01
338	  0.087535068	-7.130000E+00	  0.087535068	1.118430E+02	  0.087535068	2.650700E+01	  0.087535068	2.685100E+01
339	  0.087735467	-7.157000E+00	  0.087735467	1.111630E+02	  0.087735467	2.675600E+01	  0.087735467	2.710500E+01
340	  0.087935872	-7.183000E+00	  0.087935872	1.105030E+02	  0.087935872	2.700000E+01	  0.087935872	2.735200E+01
341	  0.088136271	-7.207000E+00	  0.088136271	1.098320E+02	  0.088136271	2.724500E+01	  0.088136271	2.760500E+01
342	  0.088336669	-7.236000E+00	  0.088336669	1.091270E+02	  0.088336669	2.751400E+01	  0.088336669	2.786600E+01
343	  0.088537075	-7.263000E+00	  0.088537075	1.084580E+02	  0.088537075	2.777300E+01	  0.088537075	2.811100E+01
344	  0.088737473	-7.286000E+00	  0.088737473	1.077620E+02	  0.088737473	2.803300E+01	  0.088737473	2.837500E+01
345	  0.088937871	-7.313000E+00	  0.088937871	1.070820E+02	  0.088937871	2.830100E+01	  0.088937871	2.862400E+01
346	  0.089138277	-7.340000E+00	  0.089138277	1.063940E+02	  0.089138277	2.857600E+01	  0.089138277	2.887600E+01
347	  0.089338675	-7.364000E+00	  0.089338675	1.057530E+02	  0.089338675	2.883100E+01	  0.089338675	2.911100E+01
348	  0.089539073	-7.392000E+00	  0.089539073	1.050830E+02	  0.089539073	2.911000E+01	  0.089539073	2.935100E+01
349	  0.089739479	-7.419000E+00	  0.089739479	1.044550E+02	  0.089739479	2.937800E+01	  0.089739479	2.957200E+01
350	  0.089939877	-7.445000E+00	  0.089939877	1.037940E+02	  0.089939877	2.965500E+01	  0.089939877	2.980900E+01
351	  0.090140276	-7.472000E+00	  0.090140276	1.031390E+02	  0.090140276	2.993700E+01	  0.090140276	3.004100E+01
352	  0.090340681	-7.506000E+00	  0.090340681	1.025280E+02	  0.090340681	3.022700E+01	  0.090340681	3.023800E+01
353	  0.090541080	-7.529000E+00	  0.090541080	1.018360E+02	  0.090541080	3.051700E+01	  0.090541080	3.049000E+01
354	  0.090741485	-7.562000E+00	  0.090741485	1.012250E+02	  0.090741485	3.081200E+01	  0.090741485	3.068400E+01
355	  0.090941884	-7.589000E+00	  0.090941884	1.005880E+02	  0.090941884	3.110000E+01	  0.090941884	3.090400E+01
356	  0.091142282	-7.618000E+00	  0.091142282	9.997500E+01	  0.091142282	3.139100E+01	  0.091142282	3.110400E+01
357	  0.091342688	-7.649000E+00	  0.091342688	9.936200E+01	  0.091342688	3.169200E+01	  0.091342688	3.129800E+01
358	  0.091543086	-7.678000E+00	  0.091543086	9.870700E+01	  0.091543086	3.200200E+01	  0.091543086	3.151400E+01
359	  0.091743484	-7.709000E+00	  0.091743484	9.810300E+01	  0.091743484	3.230400E+01	  0.091743484	3.170200E+01
360	  0.091943890	-7.739000E+00	  0.091943890	9.748300E+01	  0.091943890	3.261100E+01	  0.091943890	3.189800E+01
361	  0.092144288	-7.770000E+00	  0.092144288	9.689000E+01	  0.092144288	3.291700E+01	  0.092144288	3.207400E+01
362	  0.092344686	-7.797000E+00	  0.092344686	9.626400E+01	  0.092344686	3.322400E+01	  0.092344686	3.227700E+01
363	  0.092545092	-7.828000E+00	  0.092545092	9.567200E+01	  0.092545092	3.353500E+01	  0.092545092	3.245000E+01
364	  0.092745490	-7.861000E+00	  0.092745490	9.509300E+01	  0.092745490	3.384900E+01	  0.092745490	3.261100E+01
365	  0.092945889	-7.896000E+00	  0.092945889	9.452000E+01	  0.092945889	3.416900E+01	  0.092945889	3.276200E+01
366	  0.093146294	-7.927000E+00	  0.093146294	9.393600E+01	  0.093146294	3.448300E+01	  0.093146294	3.292800E+01
367	  0.093346693	-7.964000E+00	  0.093346693	9.339700E+01	  0.093346693	3.480100E+01	  0.093346693	3.305400E+01
368	  0.093547091	-7.995000E+00	  0.093547091	9.280200E+01	  0.093547091	3.512600E+01	  0.093547091	3.321900E+01
369	  0.093747497	-8.031000E+00	  0.093747497	9.227100E+01	  0.093747497	3.544200E+01	  0.093747497	3.333900E+01
370	  0.093947895	-8.065000E+00	  0.093947895	9.171000E+01	  0.093947895	3.576600E+01	  0.093947895	3.347700E+01
371	  0.094148301	-8.099000E+00	  0.094148301	9.116900E+01	  0.094148301	3.608500E+01	  0.094148301	3.360400E+01
372	  0.094348699	-8.132000E+00	  0.094348699	9.061300E+01	  0.094348699	3.641000E+01	  0.094348699	3.373600E+01
373	  0.094549097	-8.169000E+00	  0.094549097	9.009900E+01	  0.094549097	3.672900E+01	  0.094549097	3.383800E+01
374	  0.094749503	-8.205000E+00	  0.094749503	8.957000E+01	  0.094749503	3.705500E+01	  0.094749503	3.394600E+01
375	  0.094949901	-8.237000E+00	  0.094949901	8.905000E+01	  0.094949901	3.737000E+01	  0.094949901	3.405600E+01
376	  0.095150299	-8.269000E+00	  0.095150299	8.852800E+01	  0.095150299	3.768400E+01	  0.095150299	3.417000E+01
377	  0.095350705	-8.305000E+00	  0.095350705	8.801500E+01	  0.095350705	3.801000E+01	  0.095350705	3.426200E+01
378	  0.095551103	-8.339000E+00	  0.095551103	8.750400E+01	  0.095551103	3.833100E+01	  0.095551103	3.435600E+01
379	  0.095751502	-8.373000E+00	  0.095751502	8.698400E+01	  0.095751502	3.865600E+01	  0.095751502	3.445400E+01
380	  0.095951907	-8.405000E+00	  0.095951907	8.649300E+01	  0.095951907	3.896800E+01	  0.095951907	3.454200E+01
381	  0.096152306	-8.436000E+00	  0.096152306	8.599200E+01	  0.096152306	3.928200E+01	  0.096152306	3.463400E+01
382	  0.096352704	-8.467000E+00	  0.096352704	8.549900E+01	  0.096352704	3.959300E+01	  0.096352704	3.472200E+01
383	  0.096553110	-8.503000E+00	  0.096553110	8.502300E+01	  0.096553110	3.991200E+01	  0.096553110	3.478300E+01
384	  0.096753508	-8.532000E+00	  0.096753508	8.454400E+01	  0.096753508	4.021500E+01	  0.096753508	3.486800E+01
385	  0.096953906	-8.562000E+00	  0.096953906	8.411200E+01	  0.096953906	4.049900E+01	  0.096953906	3.492800E+01
386	  0.097154312	-8.593000E+00	  0.097154312	8.359800E+01	  0.097154312	4.082800E+01	  0.097154312	3.501200E+01
387	  0.097354710	-8.623000E+00	  0.097354710	8.314400E+01	  0.097354710	4.112600E+01	  0.097354710	3.507600E+01
388	  0.097555116	-8.646000E+00	  0.097555116	8.268100E+01	  0.097555116	4.141500E+01	  0.097555116	3.516200E+01
389	  0.097755514	-8.674000E+00	  0.097755514	8.226800E+01	  0.097755514	4.169100E+01	  0.097755514	3.521200E+01
390	  0.097955912	-8.701000E+00	  0.097955912	8.182800E+01	  0.097955912	4.197900E+01	  0.097955912	3.527300E+01
391	  0.098156318	-8.729000E+00	  0.098156318	8.142800E+01	  0.098156318	4.225100E+01	  0.098156318	3.531400E+01
392	  0.098356716	-8.751000E+00	  0.098356716	8.095800E+01	  0.098356716	4.254400E+01	  0.098356716	3.540100E+01
393	  0.098557115	-8.776000E+00	  0.098557115	8.055000E+01	  0.098557115	4.281600E+01	  0.098557115	3.545100E+01
394	  0.098757520	-8.793000E+00	  0.098757520	8.015800E+01	  0.098757520	4.306300E+01	  0.098757520	3.552100E+01
395	  0.098957919	-8.821000E+00	  0.098957919	7.970000E+01	  0.098957919	4.337000E+01	  0.098957919	3.557300E+01
396	  0.099158317	-8.839000E+00	  0.099158317	7.929600E+01	  0.099158317	4.362700E+01	  0.099158317	3.564100E+01
397	  0.099358723	-8.853000E+00	  0.099358723	7.891000E+01	  0.099358723	4.386600E+01	  0.099358723	3.571800E+01
398	  0.099559121	-8.872000E+00	  0.099559121	7.852700E+01	  0.099559121	4.411800E+01	  0.099559121	3.577000E+01
399	  0.099759519	-8.893000E+00	  0.099759519	7.813500E+01	  0.099759519	4.437700E+01	  0.099759519	3.582200E+01
400	  0.099959925	-8.896000E+00	  0.099959925	7.776400E+01	  0.099959925	4.459100E+01	  0.099959925	3.592500E+01
401	  0.100160323	-8.913000E+00	  0.100160323	7.738900E+01	  0.100160323	4.483600E+01	  0.100160323	3.598100E+01
402	  0.100360721	-8.929000E+00	  0.100360721	7.704000E+01	  0.100360721	4.506500E+01	  0.100360721	3.603000E+01
403	  0.100561127	-8.943000E+00	  0.100561127	7.664600E+01	  0.100561127	4.531900E+01	  0.100561127	3.609700E+01
404	  0.100761525	-8.949000E+00	  0.100761525	7.632800E+01	  0.100761525	4.551300E+01	  0.100761525	3.617300E+01
405	  0.100961931	-8.960000E+00	  0.100961931	7.592200E+01	  0.100961931	4.577000E+01	  0.100961931	3.625100E+01
406	  0.101162329	-8.970000E+00	  0.101162329	7.552000E+01	  0.101162329	4.602200E+01	  0.101162329	3.633400E+01
407	  0.101362728	-8.970000E+00	  0.101362728	7.523800E+01	  0.101362728	4.618800E+01	  0.101362728	3.641600E+01
408	  0.101563133	-8.986000E+00	  0.101563133	7.488900E+01	  0.101563133	4.642500E+01	  0.101563133	3.645600E+01
409	  0.101763532	-8.987000E+00	  0.101763532	7.450400E+01	  0.101763532	4.665400E+01	  0.101763532	3.656700E+01
410	  0.101963930	-8.989000E+00	  0.101963930	7.420400E+01	  0.101963930	4.683800E+01	  0.101963930	3.664400E+01
411	  0.102164328	-8.995000E+00	  0.102164328	7.385500E+01	  0.102164328	4.705800E+01	  0.102164328	3.672200E+01
412	  0.102364726	-9.007000E+00	  0.102364726	7.340800E+01	  0.102364726	4.735100E+01	  0.102364726	3.680100E+01
413	  0.102565125	-9.008000E+00	  0.102565125	7.312800E+01	  0.102565125	4.752300E+01	  0.102565125	3.687500E+01
414	  0.102765530	-9.003000E+00	  0.102765530	7.276600E+01	  0.102765530	4.773800E+01	  0.102765530	3.699500E+01
415	  0.102965929	-9.001000E+00	  0.102965929	7.239200E+01	  0.102965929	4.796500E+01	  0.102965929	3.710700E+01
416	  0.103166327	-9.008000E+00	  0.103166327	7.203100E+01	  0.103166327	4.820200E+01	  0.103166327	3.717900E+01
417	  0.103366733	-9.003000E+00	  0.103366733	7.170100E+01	  0.103366733	4.840200E+01	  0.103366733	3.728600E+01
418	  0.103567131	-8.995000E+00	  0.103567131	7.127700E+01	  0.103567131	4.865600E+01	  0.103567131	3.743300E+01
419	  0.103767529	-8.998000E+00	  0.103767529	7.096500E+01	  0.103767529	4.886100E+01	  0.103767529	3.750300E+01
420	  0.103967935	-9.008000E+00	  0.103967935	7.056000E+01	  0.103967935	4.913800E+01	  0.103967935	3.756700E+01
421	  0.104168333	-9.003000E+00	  0.104168333	7.012300E+01	  0.104168333	4.941100E+01	  0.104168333	3.770500E+01
422	  0.104368731	-9.001000E+00	  0.104368731	6.979000E+01	  0.104368731	4.962600E+01	  0.104368731	3.779600E+01
423	  0.104569137	-8.997000E+00	  0.104569137	6.935600E+01	  0.104569137	4.990400E+01	  0.104569137	3.792400E+01
424	  0.104769535	-8.996000E+00	  0.104769535	6.901400E+01	  0.104769535	5.012800E+01	  0.104769535	3.801800E+01
425	  0.104969934	-8.997000E+00	  0.104969934	6.858200E+01	  0.104969934	5.042000E+01	  0.104969934	3.811800E+01
426	  0.105170339	-8.998000E+00	  0.105170339	6.808900E+01	  0.105170339	5.075300E+01	  0.105170339	3.823400E+01
427	  0.105370738	-8.981000E+00	  0.105370738	6.771700E+01	  0.105370738	5.098000E+01	  0.105370738	3.840000E+01
428	  0.105571143	-8.980000E+00	  0.105571143	6.722800E+01	  0.105571143	5.131300E+01	  0.105571143	3.852200E+01
429	  0.105771542	-8.976000E+00	  0.105771542	6.684100E+01	  0.105771542	5.157500E+01	  0.105771542	3.863200E+01
430	  0.105971940	-8.972000E+00	  0.105971940	6.636300E+01	  0.105971940	5.190300E+01	  0.105971940	3.876100E+01
431	  0.106172346	-8.971000E+00	  0.106172346	6.590200E+01	  0.106172346	5.222700E+01	  0.106172346	3.886800E+01
432	  0.106372744	-8.957000E+00	  0.106372744	6.549700E+01	  0.106372744	5.249500E+01	  0.106372744	3.902300E+01
433	  0.106573142	-8.957000E+00	  0.106573142	6.492400E+01	  0.106573142	5.290700E+01	  0.106573142	3.914700E+01
434	  0.106773548	-8.949000E+00	  0.106773548	6.448400E+01	  0.106773548	5.321500E+01	  0.106773548	3.928300E+01
435	  0.106973946	-8.941000E+00	  0.106973946	6.400100E+01	  0.106973946	5.355800E+01	  0.106973946	3.942100E+01
436	  0.107174344	-8.934000E+00	  0.107174344	6.346300E+01	  0.107174344	5.394700E+01	  0.107174344	3.956700E+01
437	  0.107374750	-8.922000E+00	  0.107374750	6.296900E+01	  0.107374750	5.430100E+01	  0.107374750	3.972400E+01
438	  0.107575148	-8.910000E+00	  0.107575148	6.243600E+01	  0.107575148	5.468900E+01	  0.107575148	3.988900E+01
439	  0.107775547	-8.908000E+00	  0.107775547	6.187400E+01	  0.107775547	5.511800E+01	  0.107775547	4.000400E+01
440	  0.107975952	-8.889000E+00	  0.107975952	6.139100E+01	  0.107975952	5.546900E+01	  0.107975952	4.018600E+01
441	  0.108176351	-8.876000E+00	  0.108176351	6.088900E+01	  0.108176351	5.584500E+01	  0.108176351	4.034700E+01
442	  0.108376749	-8.872000E+00	  0.108376749	6.031600E+01	  0.108376749	5.629400E+01	  0.108376749	4.046700E+01
443	  0.108577155	-8.858000E+00	  0.108577155	5.978800E+01	  0.108577155	5.670200E+01	  0.108577155	4.062500E+01
444	  0.108777553	-8.853000E+00	  0.108777553	5.919800E+01	  0.108777553	5.717300E+01	  0.108777553	4.075000E+01
445	  0.108977959	-8.832000E+00	  0.108977959	5.864600E+01	  0.108977959	5.760300E+01	  0.108977959	4.094500E+01
446	  0.109178357	-8.815000E+00	  0.109178357	5.806800E+01	  0.109178357	5.806700E+01	  0.109178357	4.112100E+01
447	  0.109378755	-8.800000E+00	  0.109378755	5.747400E+01	  0.109378755	5.855000E+01	  0.109378755	4.129000E+01
448	  0.109579161	-8.786000E+00	  0.109579161	5.688100E+01	  0.109579161	5.904200E+01	  0.109579161	4.144400E+01
449	  0.109779559	-8.776000E+00	  0.109779559	5.629600E+01	  0.109779559	5.953700E+01	  0.109779559	4.157100E+01
450	  0.109979957	-8.764000E+00	  0.109979957	5.577100E+01	  0.109979957	5.998300E+01	  0.109979957	4.170100E+01
451	  0.110180363	-8.751000E+00	  0.110180363	5.513200E+01	  0.110180363	6.053600E+01	  0.110180363	4.184800E+01
452	  0.110380761	-8.733000E+00	  0.110380761	5.450100E+01	  0.110380761	6.108500E+01	  0.110380761	4.201200E+01
453	  0.110581160	-8.719000E+00	  0.110581160	5.389500E+01	  0.110581160	6.162300E+01	  0.110581160	4.214800E+01
454	  0.110781565	-8.707000E+00	  0.110781565	5.330400E+01	  0.110781565	6.215600E+01	  0.110781565	4.226700E+01
455	  0.110981964	-8.698000E+00	  0.110981964	5.266400E+01	  0.110981964	6.274200E+01	  0.110981964	4.236700E+01
456	  0.111182362	-8.687000E+00	  0.111182362	5.204500E+01	  0.111182362	6.331600E+01	  0.111182362	4.247100E+01
457	  0.111382768	-8.670000E+00	  0.111382768	5.138300E+01	  0.111382768	6.393600E+01	  0.111382768	4.260900E+01
458	  0.111583166	-8.666000E+00	  0.111583166	5.077400E+01	  0.111583166	6.451800E+01	  0.111583166	4.265200E+01
459	  0.111783572	-8.652000E+00	  0.111783572	5.013900E+01	  0.111783572	6.512900E+01	  0.111783572	4.275500E+01
460	  0.111983970	-8.650000E+00	  0.111983970	4.944200E+01	  0.111983970	6.581000E+01	  0.111983970	4.277500E+01
461	  0.112184368	-8.635000E+00	  0.112184368	4.873400E+01	  0.112184368	6.651100E+01	  0.112184368	4.286600E+01
462	  0.112384774	-8.635000E+00	  0.112384774	4.802700E+01	  0.112384774	6.721800E+01	  0.112384774	4.284800E+01
463	  0.112585172	-8.628000E+00	  0.112585172	4.740700E+01	  0.112585172	6.784700E+01	  0.112585172	4.287400E+01
464	  0.112785570	-8.623000E+00	  0.112785570	4.664000E+01	  0.112785570	6.863100E+01	  0.112785570	4.286500E+01
465	  0.112985976	-8.620000E+00	  0.112985976	4.593200E+01	  0.112985976	6.936400E+01	  0.112985976	4.283100E+01
466	  0.113186374	-8.623000E+00	  0.113186374	4.520700E+01	  0.113186374	7.011800E+01	  0.113186374	4.274500E+01
467	  0.113386773	-8.622000E+00	  0.113386773	4.446200E+01	  0.113386773	7.090100E+01	  0.113386773	4.266300E+01
468	  0.113587178	-8.623000E+00	  0.113587178	4.370000E+01	  0.113587178	7.170800E+01	  0.113587178	4.255700E+01
469	  0.113787577	-8.627000E+00	  0.113787577	4.287400E+01	  0.113787577	7.258800E+01	  0.113787577	4.240000E+01
470	  0.113987975	-8.636000E+00	  0.113987975	4.210700E+01	  0.113987975	7.340300E+01	  0.113987975	4.219300E+01
471	  0.114188381	-8.640000E+00	  0.114188381	4.132200E+01	  0.114188381	7.425000E+01	  0.114188381	4.200700E+01
472	  0.114388779	-8.646000E+00	  0.114388779	4.052200E+01	  0.114388779	7.511400E+01	  0.114388779	4.177600E+01
473	  0.114589177	-8.657000E+00	  0.114589177	3.968000E+01	  0.114589177	7.602000E+01	  0.114589177	4.147700E+01
474	  0.114789583	-8.665000E+00	  0.114789583	3.888200E+01	  0.114789583	7.688700E+01	  0.114789583	4.119700E+01
475	  0.114989981	-8.671000E+00	  0.114989981	3.799700E+01	  0.114989981	7.785400E+01	  0.114989981	4.087100E+01
476	  0.115190387	-8.690000E+00	  0.115190387	3.712700E+01	  0.115190387	7.877900E+01	  0.115190387	4.043400E+01
477	  0.115390785	-8.704000E+00	  0.115390785	3.623000E+01	  0.115390785	7.974100E+01	  0.115390785	3.998900E+01
478	  0.115591183	-8.718000E+00	  0.115591183	3.533600E+01	  0.115591183	8.069700E+01	  0.115591183	3.951900E+01
479	  0.115791589	-8.738000E+00	  0.115791589	3.442300E+01	  0.115791589	8.165500E+01	  0.115791589	3.896700E+01
480	  0.115991987	-8.758000E+00	  0.115991987	3.350800E+01	  0.115991987	8.260800E+01	  0.115991987	3.838600E+01
481	  0.116192386	-8.776000E+00	  0.116192386	3.259300E+01	  0.116192386	8.355500E+01	  0.116192386	3.777900E+01
482	  0.116392791	-8.797000E+00	  0.116392791	3.165200E+01	  0.116392791	8.451200E+01	  0.116392791	3.710600E+01
483	  0.116593190	-8.825000E+00	  0.116593190	3.069200E+01	  0.116593190	8.545200E+01	  0.116593190	3.634500E+01
484	  0.116793588	-8.846000E+00	  0.116793588	2.974200E+01	  0.116793588	8.638900E+01	  0.116793588	3.559800E+01
485	  0.116993994	-8.876000E+00	  0.116993994	2.878500E+01	  0.116993994	8.727800E+01	  0.116993994	3.475100E+01
486	  0.117194392	-8.909000E+00	  0.117194392	2.772800E+01	  0.117194392	8.823600E+01	  0.117194392	3.378300E+01
487	  0.117394790	-8.934000E+00	  0.117394790	2.678800E+01	  0.117394790	8.908500E+01	  0.117394790	3.291600E+01
488	  0.117595196	-8.971000E+00	  0.117595196	2.578900E+01	  0.117595196	8.990500E+01	  0.117595196	3.189100E+01
489	  0.117795594	-9.008000E+00	  0.117795594	2.477900E+01	  0.117795594	9.070500E+01	  0.117795594	3.082600E+01
490	  0.117995992	-9.045000E+00	  0.117995992	2.375700E+01	  0.117995992	9.147600E+01	  0.117995992	2.971500E+01
491	  0.118196398	-9.092000E+00	  0.118196398	2.272300E+01	  0.118196398	9.216800E+01	  0.118196398	2.851100E+01
492	  0.118396796	-9.134000E+00	  0.118396796	2.165600E+01	  0.118396796	9.287600E+01	  0.118396796	2.728000E+01
