! Anritsu VNA Master:             	Model: MS2036C/10/77
! SN:             	1601066
! /bd0/18may10/255.ew.m5.txt
! Existing Calibration Information:
! TYPE:             	Current Settings	Active Cal Settings
! TIME:             	05/10/2018 01:47:08 PM	05/10/2018 01:36:00 PM
! INTERNAL TEMP:    	55.8 C	54.5 C
! # POINTS:         	492	492
! START FREQ:       	20.000 MHz	20.000 MHz
! STOP FREQ:        	118.396 793 MHz	118.396 793 MHz
! SOURCE POWER:     	High	High
! IFBW:             	50 Hz	50 Hz
! AVG FACTOR:       	  1 	  1 
! REF PLANE 1:      	0 mm	0 mm
! REF PLANE 2:      	0 mm	0 mm
! CAL TYPE:         	Full S22	Full S22
! CAL METHOD:       	SOLT	SOLT
! CAL LINE TYPE:    	Coax	Coax
! DUT PORT 1:       	K-Conn(M)	K-Conn(M)
! DUT PORT 2:       	K-Conn(M)	K-Conn(M)
! CAL STATUS:       	OK: Accuracy High	--
! PROP-V:       	0.700
! CABLE LOSS:       	0.000 dB/m
! REF IMPEDANCE:       	50.0
! Trace Specific Parameters:	TR1	TR2	TR3	TR4
! TRACE.#.Y (GRAPH TYPE)	LOG MAG	PHASE	REAL IMPEDANCE	IMAGINARY IMPEDANCE
! TRACE.#.X 	FREQ.GHZ	FREQ.GHZ	FREQ.GHZ	FREQ.GHZ
! S-PARAMETER	S22	S22	S22	S22
! SMOOTH/APERTURE %	0	0	0	0
! WINDOW	NSL	NSL	NSL	NSL
! GATING	OFF	OFF	OFF	OFF
! FGTD	OFF	OFF	OFF	OFF
Marker Information per Trace:	TR1	TR2	TR3	TR4
!MK1	--	"MK1 TR2:  20.000 MHz,PH:-125.57°"	--	--
!MK2	--	--	"MK2 TR3:  70.100 200 MHz,Z:(16.762 ohm, -1.567 ohm)"	--
!MK3	--	--	--	--
!MK4	--	--	--	--
!MK5	--	--	--	--
!MK6	--	--	--	--
!MK7	--	--	--	--
!MK8	--	--	--	--
PNT	TR1.FREQ.GHZ	TR1.LOG MAG.dB	TR2.FREQ.GHZ	TR2.PHASE.deg	TR3.FREQ.GHZ	TR3.REAL IMPEDANCE.ohm	TR4.FREQ.GHZ	TR4.IMAGINARY IMPEDANCE.ohm
1	  0.020000000	-9.200000E-01	  0.020000000	-1.255700E+02	  0.020000000	3.343000E+00	  0.020000000	-2.562100E+01
2	  0.020200402	-9.280000E-01	  0.020200402	-1.270130E+02	  0.020200402	3.331000E+00	  0.020200402	-2.483300E+01
3	  0.020400802	-9.400000E-01	  0.020400802	-1.284420E+02	  0.020400802	3.331000E+00	  0.020400802	-2.406000E+01
4	  0.020601204	-9.470000E-01	  0.020601204	-1.299010E+02	  0.020601204	3.318000E+00	  0.020601204	-2.328300E+01
5	  0.020801604	-9.600000E-01	  0.020801604	-1.314070E+02	  0.020801604	3.320000E+00	  0.020801604	-2.248900E+01
6	  0.021002004	-9.670000E-01	  0.021002004	-1.328980E+02	  0.021002004	3.309000E+00	  0.021002004	-2.171200E+01
7	  0.021202406	-9.770000E-01	  0.021202406	-1.344060E+02	  0.021202406	3.306000E+00	  0.021202406	-2.093600E+01
8	  0.021402806	-9.890000E-01	  0.021402806	-1.359110E+02	  0.021402806	3.309000E+00	  0.021402806	-2.017000E+01
9	  0.021603208	-9.960000E-01	  0.021603208	-1.373960E+02	  0.021603208	3.298000E+00	  0.021603208	-1.942200E+01
10	  0.021803608	-1.007000E+00	  0.021803608	-1.389060E+02	  0.021803608	3.302000E+00	  0.021803608	-1.866900E+01
11	  0.022004008	-1.019000E+00	  0.022004008	-1.404050E+02	  0.022004008	3.308000E+00	  0.022004008	-1.792800E+01
12	  0.022204408	-1.031000E+00	  0.022204408	-1.419240E+02	  0.022204408	3.318000E+00	  0.022204408	-1.718500E+01
13	  0.022404809	-1.043000E+00	  0.022404809	-1.434630E+02	  0.022404809	3.324000E+00	  0.022404809	-1.643900E+01
14	  0.022605211	-1.048000E+00	  0.022605211	-1.450310E+02	  0.022605211	3.313000E+00	  0.022605211	-1.568600E+01
15	  0.022805611	-1.056000E+00	  0.022805611	-1.465950E+02	  0.022805611	3.310000E+00	  0.022805611	-1.494200E+01
16	  0.023006011	-1.065000E+00	  0.023006011	-1.481490E+02	  0.023006011	3.312000E+00	  0.023006011	-1.420800E+01
17	  0.023206413	-1.075000E+00	  0.023206413	-1.496930E+02	  0.023206413	3.318000E+00	  0.023206413	-1.348500E+01
18	  0.023406813	-1.085000E+00	  0.023406813	-1.512450E+02	  0.023406813	3.325000E+00	  0.023406813	-1.276300E+01
19	  0.023607215	-1.097000E+00	  0.023607215	-1.528030E+02	  0.023607215	3.339000E+00	  0.023607215	-1.204300E+01
20	  0.023807615	-1.110000E+00	  0.023807615	-1.543820E+02	  0.023807615	3.355000E+00	  0.023807615	-1.131900E+01
21	  0.024008015	-1.121000E+00	  0.024008015	-1.559860E+02	  0.024008015	3.370000E+00	  0.024008015	-1.058700E+01
22	  0.024208417	-1.134000E+00	  0.024208417	-1.575950E+02	  0.024208417	3.387000E+00	  0.024208417	-9.858000E+00
23	  0.024408817	-1.144000E+00	  0.024408817	-1.592240E+02	  0.024408817	3.398000E+00	  0.024408817	-9.124000E+00
24	  0.024609219	-1.155000E+00	  0.024609219	-1.608360E+02	  0.024609219	3.414000E+00	  0.024609219	-8.402000E+00
25	  0.024809619	-1.169000E+00	  0.024809619	-1.624700E+02	  0.024809619	3.441000E+00	  0.024809619	-7.673000E+00
26	  0.025010020	-1.184000E+00	  0.025010020	-1.641050E+02	  0.025010020	3.468000E+00	  0.025010020	-6.947000E+00
27	  0.025210422	-1.199000E+00	  0.025210422	-1.657410E+02	  0.025210422	3.500000E+00	  0.025210422	-6.223000E+00
28	  0.025410822	-1.214000E+00	  0.025410822	-1.673980E+02	  0.025410822	3.532000E+00	  0.025410822	-5.493000E+00
29	  0.025611224	-1.230000E+00	  0.025611224	-1.690620E+02	  0.025611224	3.569000E+00	  0.025611224	-4.762000E+00
30	  0.025811624	-1.247000E+00	  0.025811624	-1.707480E+02	  0.025811624	3.607000E+00	  0.025811624	-4.024000E+00
31	  0.026012026	-1.263000E+00	  0.026012026	-1.724390E+02	  0.026012026	3.645000E+00	  0.026012026	-3.286000E+00
32	  0.026212426	-1.280000E+00	  0.026212426	-1.741470E+02	  0.026212426	3.689000E+00	  0.026212426	-2.542000E+00
33	  0.026412826	-1.299000E+00	  0.026412826	-1.758580E+02	  0.026412826	3.738000E+00	  0.026412826	-1.797000E+00
34	  0.026613226	-1.319000E+00	  0.026613226	-1.775830E+02	  0.026613226	3.791000E+00	  0.026613226	-1.048000E+00
35	  0.026813626	-1.339000E+00	  0.026813626	-1.793200E+02	  0.026813626	3.848000E+00	  0.026813626	-2.940000E-01
36	  0.027014028	-1.361000E+00	  0.027014028	1.789370E+02	  0.027014028	3.911000E+00	  0.027014028	4.600000E-01
37	  0.027214428	-1.382000E+00	  0.027214428	1.771790E+02	  0.027214428	3.974000E+00	  0.027214428	1.223000E+00
38	  0.027414829	-1.406000E+00	  0.027414829	1.754250E+02	  0.027414829	4.045000E+00	  0.027414829	1.984000E+00
39	  0.027615231	-1.428000E+00	  0.027615231	1.736430E+02	  0.027615231	4.114000E+00	  0.027615231	2.757000E+00
40	  0.027815631	-1.453000E+00	  0.027815631	1.718630E+02	  0.027815631	4.193000E+00	  0.027815631	3.531000E+00
41	  0.028016033	-1.476000E+00	  0.028016033	1.700610E+02	  0.028016033	4.271000E+00	  0.028016033	4.315000E+00
42	  0.028216433	-1.502000E+00	  0.028216433	1.682520E+02	  0.028216433	4.360000E+00	  0.028216433	5.104000E+00
43	  0.028416833	-1.530000E+00	  0.028416833	1.664370E+02	  0.028416833	4.454000E+00	  0.028416833	5.899000E+00
44	  0.028617235	-1.555000E+00	  0.028617235	1.646090E+02	  0.028617235	4.547000E+00	  0.028617235	6.701000E+00
45	  0.028817635	-1.583000E+00	  0.028817635	1.627910E+02	  0.028817635	4.647000E+00	  0.028817635	7.501000E+00
46	  0.029018037	-1.611000E+00	  0.029018037	1.609660E+02	  0.029018037	4.755000E+00	  0.029018037	8.308000E+00
47	  0.029218437	-1.641000E+00	  0.029218437	1.591170E+02	  0.029218437	4.869000E+00	  0.029218437	9.129000E+00
48	  0.029418837	-1.671000E+00	  0.029418837	1.572580E+02	  0.029418837	4.988000E+00	  0.029418837	9.958000E+00
49	  0.029619239	-1.702000E+00	  0.029619239	1.553850E+02	  0.029619239	5.113000E+00	  0.029619239	1.079900E+01
50	  0.029819639	-1.732000E+00	  0.029819639	1.535120E+02	  0.029819639	5.243000E+00	  0.029819639	1.164500E+01
51	  0.030020041	-1.763000E+00	  0.030020041	1.516420E+02	  0.030020041	5.378000E+00	  0.030020041	1.249400E+01
52	  0.030220442	-1.796000E+00	  0.030220442	1.497590E+02	  0.030220442	5.523000E+00	  0.030220442	1.335600E+01
53	  0.030420844	-1.827000E+00	  0.030420844	1.478720E+02	  0.030420844	5.668000E+00	  0.030420844	1.422600E+01
54	  0.030621244	-1.860000E+00	  0.030621244	1.459920E+02	  0.030621244	5.827000E+00	  0.030621244	1.509900E+01
55	  0.030821642	-1.897000E+00	  0.030821642	1.441000E+02	  0.030821642	6.004000E+00	  0.030821642	1.598500E+01
56	  0.031022044	-1.931000E+00	  0.031022044	1.421840E+02	  0.031022044	6.178000E+00	  0.031022044	1.689100E+01
57	  0.031222444	-1.964000E+00	  0.031222444	1.402860E+02	  0.031222444	6.353000E+00	  0.031222444	1.779800E+01
58	  0.031422846	-2.001000E+00	  0.031422846	1.383300E+02	  0.031422846	6.554000E+00	  0.031422846	1.874100E+01
59	  0.031623244	-2.038000E+00	  0.031623244	1.363840E+02	  0.031623244	6.760000E+00	  0.031623244	1.969000E+01
60	  0.031823646	-2.077000E+00	  0.031823646	1.344090E+02	  0.031823646	6.985000E+00	  0.031823646	2.066300E+01
61	  0.032024048	-2.117000E+00	  0.032024048	1.324620E+02	  0.032024048	7.220000E+00	  0.032024048	2.163400E+01
62	  0.032224450	-2.156000E+00	  0.032224450	1.304860E+02	  0.032224450	7.465000E+00	  0.032224450	2.263200E+01
63	  0.032424849	-2.199000E+00	  0.032424849	1.285110E+02	  0.032424849	7.731000E+00	  0.032424849	2.364100E+01
64	  0.032625251	-2.241000E+00	  0.032625251	1.265110E+02	  0.032625251	8.012000E+00	  0.032625251	2.467700E+01
65	  0.032825653	-2.281000E+00	  0.032825653	1.245040E+02	  0.032825653	8.298000E+00	  0.032825653	2.573300E+01
66	  0.033026051	-2.323000E+00	  0.033026051	1.224830E+02	  0.033026051	8.606000E+00	  0.033026051	2.681200E+01
67	  0.033226453	-2.366000E+00	  0.033226453	1.204590E+02	  0.033226453	8.929000E+00	  0.033226453	2.790900E+01
68	  0.033426855	-2.409000E+00	  0.033426855	1.184310E+02	  0.033426855	9.273000E+00	  0.033426855	2.902600E+01
69	  0.033627257	-2.454000E+00	  0.033627257	1.164060E+02	  0.033627257	9.640000E+00	  0.033627257	3.015800E+01
70	  0.033827655	-2.497000E+00	  0.033827655	1.144020E+02	  0.033827655	1.001900E+01	  0.033827655	3.129900E+01
71	  0.034028057	-2.540000E+00	  0.034028057	1.123460E+02	  0.034028057	1.042100E+01	  0.034028057	3.249100E+01
72	  0.034228459	-2.589000E+00	  0.034228459	1.103250E+02	  0.034228459	1.086700E+01	  0.034228459	3.367900E+01
73	  0.034428857	-2.634000E+00	  0.034428857	1.082630E+02	  0.034428857	1.132300E+01	  0.034428857	3.491900E+01
74	  0.034629259	-2.680000E+00	  0.034629259	1.061950E+02	  0.034629259	1.181600E+01	  0.034629259	3.618500E+01
75	  0.034829661	-2.727000E+00	  0.034829661	1.041400E+02	  0.034829661	1.233500E+01	  0.034829661	3.746800E+01
76	  0.035030060	-2.775000E+00	  0.035030060	1.020720E+02	  0.035030060	1.289000E+01	  0.035030060	3.878500E+01
77	  0.035230462	-2.824000E+00	  0.035230462	1.000110E+02	  0.035230462	1.348100E+01	  0.035230462	4.012400E+01
78	  0.035430863	-2.873000E+00	  0.035430863	9.793600E+01	  0.035430863	1.411700E+01	  0.035430863	4.149800E+01
79	  0.035631265	-2.920000E+00	  0.035631265	9.587700E+01	  0.035631265	1.477600E+01	  0.035631265	4.289600E+01
80	  0.035831664	-2.970000E+00	  0.035831664	9.381400E+01	  0.035831664	1.548700E+01	  0.035831664	4.432400E+01
81	  0.036032066	-3.017000E+00	  0.036032066	9.174300E+01	  0.036032066	1.623600E+01	  0.036032066	4.579300E+01
82	  0.036232468	-3.065000E+00	  0.036232468	8.965500E+01	  0.036232468	1.704500E+01	  0.036232468	4.730600E+01
83	  0.036432866	-3.113000E+00	  0.036432866	8.758300E+01	  0.036432866	1.790300E+01	  0.036432866	4.884200E+01
84	  0.036633268	-3.156000E+00	  0.036633268	8.550400E+01	  0.036633268	1.879300E+01	  0.036633268	5.043100E+01
85	  0.036833670	-3.201000E+00	  0.036833670	8.342400E+01	  0.036833670	1.975600E+01	  0.036833670	5.205500E+01
86	  0.037034072	-3.245000E+00	  0.037034072	8.132800E+01	  0.037034072	2.078800E+01	  0.037034072	5.373300E+01
87	  0.037234470	-3.286000E+00	  0.037234470	7.921800E+01	  0.037234470	2.188200E+01	  0.037234470	5.547500E+01
88	  0.037434869	-3.319000E+00	  0.037434869	7.705600E+01	  0.037434869	2.303600E+01	  0.037434869	5.733100E+01
89	  0.037635271	-3.356000E+00	  0.037635271	7.485400E+01	  0.037635271	2.432300E+01	  0.037635271	5.926600E+01
90	  0.037835669	-3.398000E+00	  0.037835669	7.256000E+01	  0.037835669	2.579700E+01	  0.037835669	6.132600E+01
91	  0.038036071	-3.455000E+00	  0.038036071	7.020400E+01	  0.038036071	2.753600E+01	  0.038036071	6.344500E+01
92	  0.038236473	-3.527000E+00	  0.038236473	6.787200E+01	  0.038236473	2.952000E+01	  0.038236473	6.551800E+01
93	  0.038436871	-3.607000E+00	  0.038436871	6.562300E+01	  0.038436871	3.167000E+01	  0.038436871	6.749300E+01
94	  0.038637273	-3.688000E+00	  0.038637273	6.342300E+01	  0.038637273	3.395900E+01	  0.038637273	6.942400E+01
95	  0.038837675	-3.761000E+00	  0.038837675	6.131400E+01	  0.038837675	3.630500E+01	  0.038837675	7.129400E+01
96	  0.039038073	-3.827000E+00	  0.039038073	5.920600E+01	  0.039038073	3.877800E+01	  0.039038073	7.320400E+01
97	  0.039238475	-3.889000E+00	  0.039238475	5.710400E+01	  0.039238475	4.141400E+01	  0.039238475	7.512800E+01
98	  0.039438877	-3.951000E+00	  0.039438877	5.501700E+01	  0.039438877	4.425000E+01	  0.039438877	7.701200E+01
99	  0.039639279	-4.012000E+00	  0.039639279	5.292900E+01	  0.039639279	4.730700E+01	  0.039639279	7.886900E+01
100	  0.039839678	-4.068000E+00	  0.039839678	5.081800E+01	  0.039839678	5.060400E+01	  0.039839678	8.075200E+01
101	  0.040040080	-4.119000E+00	  0.040040080	4.870800E+01	  0.040040080	5.412900E+01	  0.040040080	8.262000E+01
102	  0.040240481	-4.173000E+00	  0.040240481	4.659100E+01	  0.040240481	5.797800E+01	  0.040240481	8.438200E+01
103	  0.040440880	-4.222000E+00	  0.040440880	4.447900E+01	  0.040440880	6.209800E+01	  0.040440880	8.607700E+01
104	  0.040641282	-4.273000E+00	  0.040641282	4.238000E+01	  0.040641282	6.653700E+01	  0.040641282	8.758600E+01
105	  0.040841684	-4.324000E+00	  0.040841684	4.028500E+01	  0.040841684	7.131100E+01	  0.040841684	8.889500E+01
106	  0.041042086	-4.375000E+00	  0.041042086	3.821500E+01	  0.041042086	7.637800E+01	  0.041042086	8.994300E+01
107	  0.041242484	-4.424000E+00	  0.041242484	3.611500E+01	  0.041242484	8.186500E+01	  0.041242484	9.075400E+01
108	  0.041442886	-4.474000E+00	  0.041442886	3.402400E+01	  0.041442886	8.770100E+01	  0.041442886	9.117900E+01
109	  0.041643288	-4.521000E+00	  0.041643288	3.191800E+01	  0.041643288	9.393300E+01	  0.041643288	9.122100E+01
110	  0.041843686	-4.571000E+00	  0.041843686	2.982500E+01	  0.041843686	1.004690E+02	  0.041843686	9.069700E+01
111	  0.042044088	-4.618000E+00	  0.042044088	2.774900E+01	  0.042044088	1.072500E+02	  0.042044088	8.962900E+01
112	  0.042244490	-4.664000E+00	  0.042244490	2.568800E+01	  0.042244490	1.142270E+02	  0.042244490	8.791500E+01
113	  0.042444889	-4.711000E+00	  0.042444889	2.363100E+01	  0.042444889	1.213520E+02	  0.042444889	8.542500E+01
114	  0.042645290	-4.759000E+00	  0.042645290	2.158300E+01	  0.042645290	1.285020E+02	  0.042645290	8.210200E+01
115	  0.042845692	-4.806000E+00	  0.042845692	1.953100E+01	  0.042845692	1.356190E+02	  0.042845692	7.790600E+01
116	  0.043046094	-4.850000E+00	  0.043046094	1.748800E+01	  0.043046094	1.425270E+02	  0.043046094	7.285200E+01
117	  0.043246493	-4.894000E+00	  0.043246493	1.544300E+01	  0.043246493	1.491080E+02	  0.043246493	6.686700E+01
118	  0.043446895	-4.939000E+00	  0.043446895	1.341700E+01	  0.043446895	1.550820E+02	  0.043446895	5.999700E+01
119	  0.043647297	-4.980000E+00	  0.043647297	1.137200E+01	  0.043647297	1.605070E+02	  0.043647297	5.229100E+01
120	  0.043847695	-5.021000E+00	  0.043847695	9.371000E+00	  0.043847695	1.649540E+02	  0.043847695	4.397200E+01
121	  0.044048097	-5.062000E+00	  0.044048097	7.366000E+00	  0.044048097	1.684310E+02	  0.044048097	3.503300E+01
122	  0.044248499	-5.103000E+00	  0.044248499	5.352000E+00	  0.044248499	1.708690E+02	  0.044248499	2.562500E+01
123	  0.044448901	-5.143000E+00	  0.044448901	3.364000E+00	  0.044448901	1.721320E+02	  0.044448901	1.610200E+01
124	  0.044649299	-5.180000E+00	  0.044649299	1.377000E+00	  0.044649299	1.723190E+02	  0.044649299	6.548000E+00
125	  0.044849701	-5.218000E+00	  0.044849701	-5.970000E-01	  0.044849701	1.713730E+02	  0.044849701	-2.803000E+00
126	  0.045050103	-5.251000E+00	  0.045050103	-2.597000E+00	  0.045050103	1.694710E+02	  0.045050103	-1.195800E+01
127	  0.045250501	-5.285000E+00	  0.045250501	-4.558000E+00	  0.045250501	1.666180E+02	  0.045250501	-2.047300E+01
128	  0.045450903	-5.317000E+00	  0.045450903	-6.537000E+00	  0.045450903	1.629220E+02	  0.045450903	-2.848400E+01
129	  0.045651305	-5.350000E+00	  0.045651305	-8.493000E+00	  0.045651305	1.585470E+02	  0.045651305	-3.570900E+01
130	  0.045851704	-5.383000E+00	  0.045851704	-1.043000E+01	  0.045851704	1.536780E+02	  0.045851704	-4.214200E+01
131	  0.046052102	-5.411000E+00	  0.046052102	-1.236000E+01	  0.046052102	1.484870E+02	  0.046052102	-4.785800E+01
132	  0.046252504	-5.443000E+00	  0.046252504	-1.428400E+01	  0.046252504	1.429710E+02	  0.046252504	-5.276600E+01
133	  0.046452906	-5.472000E+00	  0.046452906	-1.617800E+01	  0.046452906	1.374130E+02	  0.046452906	-5.693300E+01
134	  0.046653304	-5.497000E+00	  0.046653304	-1.809100E+01	  0.046653304	1.317730E+02	  0.046653304	-6.052500E+01
135	  0.046853706	-5.524000E+00	  0.046853706	-1.999200E+01	  0.046853706	1.261490E+02	  0.046853706	-6.344700E+01
136	  0.047054108	-5.548000E+00	  0.047054108	-2.188800E+01	  0.047054108	1.206290E+02	  0.047054108	-6.583200E+01
137	  0.047254506	-5.572000E+00	  0.047254506	-2.377300E+01	  0.047254506	1.152590E+02	  0.047254506	-6.768900E+01
138	  0.047454908	-5.592000E+00	  0.047454908	-2.564300E+01	  0.047454908	1.100970E+02	  0.047454908	-6.912700E+01
139	  0.047655310	-5.615000E+00	  0.047655310	-2.748700E+01	  0.047655310	1.051620E+02	  0.047655310	-7.009200E+01
140	  0.047855709	-5.635000E+00	  0.047855709	-2.931600E+01	  0.047855709	1.004650E+02	  0.047855709	-7.074300E+01
141	  0.048056111	-5.658000E+00	  0.048056111	-3.113300E+01	  0.048056111	9.599200E+01	  0.048056111	-7.105400E+01
142	  0.048256513	-5.682000E+00	  0.048256513	-3.292900E+01	  0.048256513	9.177400E+01	  0.048256513	-7.108100E+01
143	  0.048456915	-5.701000E+00	  0.048456915	-3.474400E+01	  0.048456915	8.772300E+01	  0.048456915	-7.096100E+01
144	  0.048657313	-5.720000E+00	  0.048657313	-3.652000E+01	  0.048657313	8.395800E+01	  0.048657313	-7.065100E+01
145	  0.048857715	-5.738000E+00	  0.048857715	-3.831000E+01	  0.048857715	8.036000E+01	  0.048857715	-7.018700E+01
146	  0.049058117	-5.755000E+00	  0.049058117	-4.009200E+01	  0.049058117	7.696300E+01	  0.049058117	-6.959300E+01
147	  0.049258515	-5.773000E+00	  0.049258515	-4.184300E+01	  0.049258515	7.380500E+01	  0.049258515	-6.888600E+01
148	  0.049458917	-5.787000E+00	  0.049458917	-4.358700E+01	  0.049458917	7.082300E+01	  0.049458917	-6.812400E+01
149	  0.049659319	-5.805000E+00	  0.049659319	-4.531800E+01	  0.049659319	6.802800E+01	  0.049659319	-6.725300E+01
150	  0.049859721	-5.821000E+00	  0.049859721	-4.703600E+01	  0.049859721	6.540400E+01	  0.049859721	-6.632900E+01
151	  0.050060119	-5.838000E+00	  0.050060119	-4.875300E+01	  0.050060119	6.292600E+01	  0.050060119	-6.534800E+01
152	  0.050260521	-5.854000E+00	  0.050260521	-5.045900E+01	  0.050260521	6.059200E+01	  0.050260521	-6.434400E+01
153	  0.050460923	-5.867000E+00	  0.050460923	-5.217500E+01	  0.050460923	5.836400E+01	  0.050460923	-6.332400E+01
154	  0.050661322	-5.877000E+00	  0.050661322	-5.385900E+01	  0.050661322	5.628600E+01	  0.050661322	-6.230400E+01
155	  0.050861724	-5.888000E+00	  0.050861724	-5.554500E+01	  0.050861724	5.431700E+01	  0.050861724	-6.125900E+01
156	  0.051062126	-5.902000E+00	  0.051062126	-5.721500E+01	  0.051062126	5.247700E+01	  0.051062126	-6.018700E+01
157	  0.051262524	-5.916000E+00	  0.051262524	-5.886700E+01	  0.051262524	5.075700E+01	  0.051262524	-5.910800E+01
158	  0.051462926	-5.927000E+00	  0.051462926	-6.050600E+01	  0.051462926	4.912700E+01	  0.051462926	-5.805100E+01
159	  0.051663328	-5.938000E+00	  0.051663328	-6.213900E+01	  0.051663328	4.758700E+01	  0.051663328	-5.699000E+01
160	  0.051863730	-5.946000E+00	  0.051863730	-6.376500E+01	  0.051863730	4.611700E+01	  0.051863730	-5.595000E+01
161	  0.052064128	-5.955000E+00	  0.052064128	-6.539100E+01	  0.052064128	4.472600E+01	  0.052064128	-5.490000E+01
162	  0.052264530	-5.957000E+00	  0.052264530	-6.699200E+01	  0.052264530	4.339500E+01	  0.052264530	-5.390500E+01
163	  0.052464932	-5.962000E+00	  0.052464932	-6.860700E+01	  0.052464932	4.212900E+01	  0.052464932	-5.288500E+01
164	  0.052665330	-5.971000E+00	  0.052665330	-7.017300E+01	  0.052665330	4.097300E+01	  0.052665330	-5.188100E+01
165	  0.052865732	-5.978000E+00	  0.052865732	-7.175200E+01	  0.052865732	3.985900E+01	  0.052865732	-5.087900E+01
166	  0.053066134	-5.985000E+00	  0.053066134	-7.329000E+01	  0.053066134	3.882200E+01	  0.053066134	-4.991100E+01
167	  0.053266536	-5.991000E+00	  0.053266536	-7.483100E+01	  0.053266536	3.782700E+01	  0.053266536	-4.895000E+01
168	  0.053466935	-5.996000E+00	  0.053466935	-7.638000E+01	  0.053466935	3.686800E+01	  0.053466935	-4.799500E+01
169	  0.053667337	-6.001000E+00	  0.053667337	-7.791600E+01	  0.053667337	3.595900E+01	  0.053667337	-4.705500E+01
170	  0.053867739	-6.002000E+00	  0.053867739	-7.942700E+01	  0.053867739	3.509100E+01	  0.053867739	-4.615100E+01
171	  0.054068137	-6.007000E+00	  0.054068137	-8.093600E+01	  0.054068137	3.427500E+01	  0.054068137	-4.524300E+01
172	  0.054268539	-6.012000E+00	  0.054268539	-8.241200E+01	  0.054268539	3.351300E+01	  0.054268539	-4.435900E+01
173	  0.054468941	-6.017000E+00	  0.054468941	-8.389700E+01	  0.054468941	3.277800E+01	  0.054468941	-4.347800E+01
174	  0.054669335	-6.022000E+00	  0.054669335	-8.536400E+01	  0.054669335	3.207900E+01	  0.054669335	-4.262000E+01
175	  0.054869737	-6.030000E+00	  0.054869737	-8.681900E+01	  0.054869737	3.142900E+01	  0.054869737	-4.176400E+01
176	  0.055070139	-6.037000E+00	  0.055070139	-8.823400E+01	  0.055070139	3.082100E+01	  0.055070139	-4.094100E+01
177	  0.055270538	-6.041000E+00	  0.055270538	-8.965900E+01	  0.055270538	3.021900E+01	  0.055270538	-4.013100E+01
178	  0.055470940	-6.046000E+00	  0.055470940	-9.109200E+01	  0.055470940	2.964200E+01	  0.055470940	-3.932300E+01
179	  0.055671342	-6.046000E+00	  0.055671342	-9.250000E+01	  0.055671342	2.908000E+01	  0.055671342	-3.854800E+01
180	  0.055871744	-6.050000E+00	  0.055871744	-9.389000E+01	  0.055871744	2.856300E+01	  0.055871744	-3.777800E+01
181	  0.056072142	-6.049000E+00	  0.056072142	-9.527500E+01	  0.056072142	2.804700E+01	  0.056072142	-3.703100E+01
182	  0.056272544	-6.052000E+00	  0.056272544	-9.662800E+01	  0.056272544	2.757700E+01	  0.056272544	-3.629900E+01
183	  0.056472946	-6.056000E+00	  0.056472946	-9.802900E+01	  0.056472946	2.711000E+01	  0.056472946	-3.554600E+01
184	  0.056673344	-6.057000E+00	  0.056673344	-9.934800E+01	  0.056673344	2.667800E+01	  0.056673344	-3.485000E+01
185	  0.056873746	-6.060000E+00	  0.056873746	-1.006880E+02	  0.056873746	2.626000E+01	  0.056873746	-3.414500E+01
186	  0.057074148	-6.058000E+00	  0.057074148	-1.020270E+02	  0.057074148	2.584000E+01	  0.057074148	-3.345700E+01
187	  0.057274550	-6.055000E+00	  0.057274550	-1.033470E+02	  0.057274550	2.544000E+01	  0.057274550	-3.278500E+01
188	  0.057474948	-6.054000E+00	  0.057474948	-1.046820E+02	  0.057474948	2.505700E+01	  0.057474948	-3.210700E+01
189	  0.057675350	-6.052000E+00	  0.057675350	-1.060140E+02	  0.057675350	2.468300E+01	  0.057675350	-3.143800E+01
190	  0.057875752	-6.049000E+00	  0.057875752	-1.073360E+02	  0.057875752	2.431900E+01	  0.057875752	-3.078300E+01
191	  0.058076151	-6.047000E+00	  0.058076151	-1.086390E+02	  0.058076151	2.397900E+01	  0.058076151	-3.013900E+01
192	  0.058276553	-6.046000E+00	  0.058276553	-1.099390E+02	  0.058276553	2.365200E+01	  0.058276553	-2.950100E+01
193	  0.058476955	-6.038000E+00	  0.058476955	-1.112320E+02	  0.058476955	2.331900E+01	  0.058476955	-2.888000E+01
194	  0.058677353	-6.035000E+00	  0.058677353	-1.125270E+02	  0.058677353	2.301100E+01	  0.058677353	-2.825700E+01
195	  0.058877755	-6.031000E+00	  0.058877755	-1.138180E+02	  0.058877755	2.270700E+01	  0.058877755	-2.764200E+01
196	  0.059078157	-6.022000E+00	  0.059078157	-1.150970E+02	  0.059078157	2.240600E+01	  0.059078157	-2.704200E+01
197	  0.059278559	-6.013000E+00	  0.059278559	-1.163920E+02	  0.059278559	2.210800E+01	  0.059278559	-2.644000E+01
198	  0.059478957	-6.010000E+00	  0.059478957	-1.176810E+02	  0.059478957	2.183800E+01	  0.059478957	-2.583800E+01
199	  0.059679359	-6.007000E+00	  0.059679359	-1.189270E+02	  0.059679359	2.158900E+01	  0.059679359	-2.525700E+01
200	  0.059879761	-5.999000E+00	  0.059879761	-1.201930E+02	  0.059879761	2.132900E+01	  0.059879761	-2.467900E+01
201	  0.060080159	-5.996000E+00	  0.060080159	-1.214380E+02	  0.060080159	2.109500E+01	  0.060080159	-2.410800E+01
202	  0.060280561	-5.992000E+00	  0.060280561	-1.226620E+02	  0.060280561	2.086800E+01	  0.060280561	-2.355100E+01
203	  0.060480963	-5.991000E+00	  0.060480963	-1.238980E+02	  0.060480963	2.065600E+01	  0.060480963	-2.298900E+01
204	  0.060681365	-5.983000E+00	  0.060681365	-1.251350E+02	  0.060681365	2.043100E+01	  0.060681365	-2.243800E+01
205	  0.060881764	-5.980000E+00	  0.060881764	-1.263480E+02	  0.060881764	2.023100E+01	  0.060881764	-2.189500E+01
206	  0.061082166	-5.976000E+00	  0.061082166	-1.275990E+02	  0.061082166	2.003100E+01	  0.061082166	-2.133900E+01
207	  0.061282568	-5.973000E+00	  0.061282568	-1.287770E+02	  0.061282568	1.985000E+01	  0.061282568	-2.081900E+01
208	  0.061482966	-5.971000E+00	  0.061482966	-1.299910E+02	  0.061482966	1.966900E+01	  0.061482966	-2.028500E+01
209	  0.061683368	-5.971000E+00	  0.061683368	-1.311870E+02	  0.061683368	1.950600E+01	  0.061683368	-1.975900E+01
210	  0.061883770	-5.966000E+00	  0.061883770	-1.323720E+02	  0.061883770	1.933700E+01	  0.061883770	-1.924500E+01
211	  0.062084168	-5.969000E+00	  0.062084168	-1.335490E+02	  0.062084168	1.919300E+01	  0.062084168	-1.873200E+01
212	  0.062284570	-5.966000E+00	  0.062284570	-1.347200E+02	  0.062284570	1.904100E+01	  0.062284570	-1.822800E+01
213	  0.062484972	-5.958000E+00	  0.062484972	-1.358820E+02	  0.062484972	1.888100E+01	  0.062484972	-1.773400E+01
214	  0.062685370	-5.961000E+00	  0.062685370	-1.370320E+02	  0.062685370	1.875600E+01	  0.062685370	-1.724000E+01
215	  0.062885776	-5.954000E+00	  0.062885776	-1.381880E+02	  0.062885776	1.861000E+01	  0.062885776	-1.675300E+01
216	  0.063086174	-5.959000E+00	  0.063086174	-1.393750E+02	  0.063086174	1.849500E+01	  0.063086174	-1.624700E+01
217	  0.063286573	-5.956000E+00	  0.063286573	-1.405130E+02	  0.063286573	1.837100E+01	  0.063286573	-1.576800E+01
218	  0.063486971	-5.956000E+00	  0.063486971	-1.416570E+02	  0.063486971	1.825700E+01	  0.063486971	-1.528800E+01
219	  0.063687377	-5.958000E+00	  0.063687377	-1.427690E+02	  0.063687377	1.815600E+01	  0.063687377	-1.482200E+01
220	  0.063887775	-5.954000E+00	  0.063887775	-1.439000E+02	  0.063887775	1.804100E+01	  0.063887775	-1.435300E+01
221	  0.064088173	-5.956000E+00	  0.064088173	-1.450500E+02	  0.064088173	1.794300E+01	  0.064088173	-1.387600E+01
222	  0.064288579	-5.960000E+00	  0.064288579	-1.461720E+02	  0.064288579	1.785800E+01	  0.064288579	-1.341000E+01
223	  0.064488977	-5.962000E+00	  0.064488977	-1.473100E+02	  0.064488977	1.777200E+01	  0.064488977	-1.294100E+01
224	  0.064689375	-5.960000E+00	  0.064689375	-1.484090E+02	  0.064689375	1.767900E+01	  0.064689375	-1.249200E+01
225	  0.064889781	-5.968000E+00	  0.064889781	-1.495640E+02	  0.064889781	1.761300E+01	  0.064889781	-1.201600E+01
226	  0.065090179	-5.969000E+00	  0.065090179	-1.506310E+02	  0.065090179	1.753900E+01	  0.065090179	-1.158200E+01
227	  0.065290578	-5.968000E+00	  0.065290578	-1.517150E+02	  0.065290578	1.746100E+01	  0.065290578	-1.114300E+01
228	  0.065490983	-5.970000E+00	  0.065490983	-1.527930E+02	  0.065490983	1.739600E+01	  0.065490983	-1.070600E+01
229	  0.065691382	-5.971000E+00	  0.065691382	-1.538720E+02	  0.065691382	1.732900E+01	  0.065691382	-1.027100E+01
230	  0.065891780	-5.975000E+00	  0.065891780	-1.549790E+02	  0.065891780	1.727200E+01	  0.065891780	-9.825000E+00
231	  0.066092186	-5.976000E+00	  0.066092186	-1.560370E+02	  0.066092186	1.721300E+01	  0.066092186	-9.401000E+00
232	  0.066292584	-5.981000E+00	  0.066292584	-1.570660E+02	  0.066292584	1.717100E+01	  0.066292584	-8.988000E+00
233	  0.066492982	-5.985000E+00	  0.066492982	-1.581400E+02	  0.066492982	1.712500E+01	  0.066492982	-8.559000E+00
234	  0.066693388	-5.985000E+00	  0.066693388	-1.591800E+02	  0.066693388	1.707300E+01	  0.066693388	-8.145000E+00
235	  0.066893786	-5.994000E+00	  0.066893786	-1.602100E+02	  0.066893786	1.704600E+01	  0.066893786	-7.734000E+00
236	  0.067094192	-5.996000E+00	  0.067094192	-1.612140E+02	  0.067094192	1.700800E+01	  0.067094192	-7.336000E+00
237	  0.067294590	-6.000000E+00	  0.067294590	-1.622510E+02	  0.067294590	1.697400E+01	  0.067294590	-6.926000E+00
238	  0.067494988	-6.003000E+00	  0.067494988	-1.632460E+02	  0.067494988	1.694200E+01	  0.067494988	-6.533000E+00
239	  0.067695394	-6.004000E+00	  0.067695394	-1.642710E+02	  0.067695394	1.690700E+01	  0.067695394	-6.129000E+00
240	  0.067895792	-6.009000E+00	  0.067895792	-1.652490E+02	  0.067895792	1.688500E+01	  0.067895792	-5.744000E+00
241	  0.068096191	-6.020000E+00	  0.068096191	-1.662790E+02	  0.068096191	1.688000E+01	  0.068096191	-5.338000E+00
242	  0.068296596	-6.025000E+00	  0.068296596	-1.672510E+02	  0.068296596	1.686300E+01	  0.068296596	-4.957000E+00
243	  0.068496995	-6.026000E+00	  0.068496995	-1.682540E+02	  0.068496995	1.683800E+01	  0.068496995	-4.565000E+00
244	  0.068697393	-6.029000E+00	  0.068697393	-1.692120E+02	  0.068697393	1.682100E+01	  0.068697393	-4.190000E+00
245	  0.068897791	-6.031000E+00	  0.068897791	-1.701860E+02	  0.068897791	1.680400E+01	  0.068897791	-3.810000E+00
246	  0.069098189	-6.032000E+00	  0.069098189	-1.711470E+02	  0.069098189	1.678500E+01	  0.069098189	-3.436000E+00
247	  0.069298595	-6.038000E+00	  0.069298595	-1.721130E+02	  0.069298595	1.678200E+01	  0.069298595	-3.059000E+00
248	  0.069498993	-6.041000E+00	  0.069498993	-1.730640E+02	  0.069498993	1.677400E+01	  0.069498993	-2.690000E+00
249	  0.069699399	-6.041000E+00	  0.069699399	-1.740560E+02	  0.069699399	1.676000E+01	  0.069699399	-2.304000E+00
250	  0.069899797	-6.048000E+00	  0.069899797	-1.750000E+02	  0.069899797	1.676500E+01	  0.069899797	-1.937000E+00
251	  0.070100196	-6.050000E+00	  0.070100196	-1.759550E+02	  0.070100196	1.676100E+01	  0.070100196	-1.567000E+00
252	  0.070300601	-6.048000E+00	  0.070300601	-1.768840E+02	  0.070300601	1.674900E+01	  0.070300601	-1.207000E+00
253	  0.070501000	-6.051000E+00	  0.070501000	-1.778270E+02	  0.070501000	1.675100E+01	  0.070501000	-8.410000E-01
254	  0.070701398	-6.054000E+00	  0.070701398	-1.787750E+02	  0.070701398	1.675400E+01	  0.070701398	-4.740000E-01
255	  0.070901804	-6.050000E+00	  0.070901804	-1.797060E+02	  0.070901804	1.674300E+01	  0.070901804	-1.130000E-01
256	  0.071102202	-6.057000E+00	  0.071102202	1.793500E+02	  0.071102202	1.676200E+01	  0.071102202	2.510000E-01
257	  0.071302600	-6.059000E+00	  0.071302600	1.783830E+02	  0.071302600	1.676800E+01	  0.071302600	6.260000E-01
258	  0.071503006	-6.063000E+00	  0.071503006	1.774730E+02	  0.071503006	1.678400E+01	  0.071503006	9.780000E-01
259	  0.071703404	-6.066000E+00	  0.071703404	1.765470E+02	  0.071703404	1.679800E+01	  0.071703404	1.337000E+00
260	  0.071903802	-6.069000E+00	  0.071903802	1.755970E+02	  0.071903802	1.681200E+01	  0.071903802	1.704000E+00
261	  0.072104208	-6.070000E+00	  0.072104208	1.746720E+02	  0.072104208	1.682500E+01	  0.072104208	2.063000E+00
262	  0.072304606	-6.077000E+00	  0.072304606	1.737590E+02	  0.072304606	1.685600E+01	  0.072304606	2.416000E+00
263	  0.072505005	-6.077000E+00	  0.072505005	1.728540E+02	  0.072505005	1.687100E+01	  0.072505005	2.767000E+00
264	  0.072705410	-6.079000E+00	  0.072705410	1.719300E+02	  0.072705410	1.689200E+01	  0.072705410	3.126000E+00
265	  0.072905809	-6.088000E+00	  0.072905809	1.709860E+02	  0.072905809	1.693100E+01	  0.072905809	3.491000E+00
266	  0.073106214	-6.091000E+00	  0.073106214	1.700660E+02	  0.073106214	1.696000E+01	  0.073106214	3.848000E+00
267	  0.073306613	-6.095000E+00	  0.073306613	1.691640E+02	  0.073306613	1.699300E+01	  0.073306613	4.198000E+00
268	  0.073507011	-6.106000E+00	  0.073507011	1.682290E+02	  0.073507011	1.704300E+01	  0.073507011	4.560000E+00
269	  0.073707417	-6.110000E+00	  0.073707417	1.673410E+02	  0.073707417	1.707900E+01	  0.073707417	4.905000E+00
270	  0.073907815	-6.117000E+00	  0.073907815	1.664060E+02	  0.073907815	1.712500E+01	  0.073907815	5.268000E+00
271	  0.074108213	-6.121000E+00	  0.074108213	1.655260E+02	  0.074108213	1.716600E+01	  0.074108213	5.611000E+00
272	  0.074308619	-6.128000E+00	  0.074308619	1.646090E+02	  0.074308619	1.721400E+01	  0.074308619	5.968000E+00
273	  0.074509017	-6.138000E+00	  0.074509017	1.637210E+02	  0.074509017	1.727300E+01	  0.074509017	6.312000E+00
274	  0.074709415	-6.147000E+00	  0.074709415	1.627990E+02	  0.074709415	1.733200E+01	  0.074709415	6.671000E+00
275	  0.074909821	-6.152000E+00	  0.074909821	1.618950E+02	  0.074909821	1.738300E+01	  0.074909821	7.024000E+00
276	  0.075110219	-6.161000E+00	  0.075110219	1.610090E+02	  0.075110219	1.744400E+01	  0.075110219	7.369000E+00
277	  0.075310618	-6.166000E+00	  0.075310618	1.601310E+02	  0.075310618	1.749800E+01	  0.075310618	7.713000E+00
278	  0.075511023	-6.174000E+00	  0.075511023	1.592260E+02	  0.075511023	1.756400E+01	  0.075511023	8.066000E+00
279	  0.075711422	-6.180000E+00	  0.075711422	1.583470E+02	  0.075711422	1.762400E+01	  0.075711422	8.410000E+00
280	  0.075911827	-6.191000E+00	  0.075911827	1.574660E+02	  0.075911827	1.770000E+01	  0.075911827	8.754000E+00
281	  0.076112226	-6.197000E+00	  0.076112226	1.565650E+02	  0.076112226	1.776500E+01	  0.076112226	9.108000E+00
282	  0.076312624	-6.204000E+00	  0.076312624	1.556860E+02	  0.076312624	1.783400E+01	  0.076312624	9.454000E+00
283	  0.076513030	-6.219000E+00	  0.076513030	1.547970E+02	  0.076513030	1.792600E+01	  0.076513030	9.800000E+00
284	  0.076713428	-6.226000E+00	  0.076713428	1.539330E+02	  0.076713428	1.799900E+01	  0.076713428	1.014100E+01
285	  0.076913826	-6.240000E+00	  0.076913826	1.530350E+02	  0.076913826	1.809300E+01	  0.076913826	1.049200E+01
286	  0.077114232	-6.244000E+00	  0.077114232	1.522120E+02	  0.077114232	1.816000E+01	  0.077114232	1.081900E+01
287	  0.077314630	-6.256000E+00	  0.077314630	1.513300E+02	  0.077314630	1.825300E+01	  0.077314630	1.116600E+01
288	  0.077515028	-6.263000E+00	  0.077515028	1.504960E+02	  0.077515028	1.833100E+01	  0.077515028	1.149600E+01
289	  0.077715434	-6.275000E+00	  0.077715434	1.496220E+02	  0.077715434	1.842800E+01	  0.077715434	1.184100E+01
290	  0.077915832	-6.287000E+00	  0.077915832	1.487720E+02	  0.077915832	1.852500E+01	  0.077915832	1.217700E+01
291	  0.078116231	-6.297000E+00	  0.078116231	1.479160E+02	  0.078116231	1.862200E+01	  0.078116231	1.251600E+01
292	  0.078316636	-6.307000E+00	  0.078316636	1.470660E+02	  0.078316636	1.871900E+01	  0.078316636	1.285400E+01
293	  0.078517035	-6.318000E+00	  0.078517035	1.462150E+02	  0.078517035	1.881900E+01	  0.078517035	1.319200E+01
294	  0.078717433	-6.331000E+00	  0.078717433	1.453860E+02	  0.078717433	1.892700E+01	  0.078717433	1.352000E+01
295	  0.078917839	-6.340000E+00	  0.078917839	1.445230E+02	  0.078917839	1.903100E+01	  0.078917839	1.386500E+01
296	  0.079118237	-6.357000E+00	  0.079118237	1.437320E+02	  0.079118237	1.914900E+01	  0.079118237	1.417700E+01
297	  0.079318643	-6.367000E+00	  0.079318643	1.428720E+02	  0.079318643	1.925800E+01	  0.079318643	1.452100E+01
298	  0.079519041	-6.380000E+00	  0.079519041	1.420660E+02	  0.079519041	1.937500E+01	  0.079519041	1.484200E+01
299	  0.079719439	-6.393000E+00	  0.079719439	1.412610E+02	  0.079719439	1.949200E+01	  0.079719439	1.516300E+01
300	  0.079919845	-6.408000E+00	  0.079919845	1.404420E+02	  0.079919845	1.961700E+01	  0.079919845	1.548900E+01
301	  0.080120243	-6.420000E+00	  0.080120243	1.395950E+02	  0.080120243	1.974100E+01	  0.080120243	1.582900E+01
302	  0.080320641	-6.435000E+00	  0.080320641	1.387970E+02	  0.080320641	1.987100E+01	  0.080320641	1.614700E+01
303	  0.080521047	-6.450000E+00	  0.080521047	1.379750E+02	  0.080521047	2.000500E+01	  0.080521047	1.647600E+01
304	  0.080721445	-6.464000E+00	  0.080721445	1.371910E+02	  0.080721445	2.013500E+01	  0.080721445	1.679000E+01
305	  0.080921844	-6.482000E+00	  0.080921844	1.363760E+02	  0.080921844	2.028000E+01	  0.080921844	1.711500E+01
306	  0.081122249	-6.499000E+00	  0.081122249	1.356010E+02	  0.081122249	2.042400E+01	  0.081122249	1.742300E+01
307	  0.081322648	-6.514000E+00	  0.081322648	1.348120E+02	  0.081322648	2.056200E+01	  0.081322648	1.774000E+01
308	  0.081523046	-6.531000E+00	  0.081523046	1.340210E+02	  0.081523046	2.071300E+01	  0.081523046	1.805600E+01
309	  0.081723452	-6.547000E+00	  0.081723452	1.332250E+02	  0.081723452	2.086300E+01	  0.081723452	1.837500E+01
310	  0.081923850	-6.562000E+00	  0.081923850	1.324390E+02	  0.081923850	2.100800E+01	  0.081923850	1.869200E+01
311	  0.082124248	-6.578000E+00	  0.082124248	1.316470E+02	  0.082124248	2.116400E+01	  0.082124248	1.901000E+01
312	  0.082324654	-6.593000E+00	  0.082324654	1.308800E+02	  0.082324654	2.131300E+01	  0.082324654	1.932000E+01
313	  0.082525052	-6.612000E+00	  0.082525052	1.301060E+02	  0.082525052	2.148000E+01	  0.082525052	1.962800E+01
314	  0.082725458	-6.628000E+00	  0.082725458	1.293610E+02	  0.082725458	2.163400E+01	  0.082725458	1.992900E+01
315	  0.082925856	-6.648000E+00	  0.082925856	1.285890E+02	  0.082925856	2.180900E+01	  0.082925856	2.023600E+01
316	  0.083126254	-6.667000E+00	  0.083126254	1.278070E+02	  0.083126254	2.198400E+01	  0.083126254	2.054900E+01
317	  0.083326660	-6.686000E+00	  0.083326660	1.270330E+02	  0.083326660	2.216000E+01	  0.083326660	2.085900E+01
318	  0.083527058	-6.702000E+00	  0.083527058	1.263060E+02	  0.083527058	2.232500E+01	  0.083527058	2.115200E+01
319	  0.083727457	-6.723000E+00	  0.083727457	1.255190E+02	  0.083727457	2.251700E+01	  0.083727457	2.146500E+01
320	  0.083927862	-6.743000E+00	  0.083927862	1.247730E+02	  0.083927862	2.270000E+01	  0.083927862	2.176200E+01
321	  0.084128261	-6.762000E+00	  0.084128261	1.240300E+02	  0.084128261	2.288200E+01	  0.084128261	2.206000E+01
322	  0.084328659	-6.781000E+00	  0.084328659	1.232640E+02	  0.084328659	2.307300E+01	  0.084328659	2.236700E+01
323	  0.084529065	-6.805000E+00	  0.084529065	1.225640E+02	  0.084529065	2.326700E+01	  0.084529065	2.264100E+01
324	  0.084729463	-6.822000E+00	  0.084729463	1.218040E+02	  0.084729463	2.345900E+01	  0.084729463	2.294700E+01
325	  0.084929854	-6.840000E+00	  0.084929854	1.210470E+02	  0.084929854	2.365400E+01	  0.084929854	2.325200E+01
326	  0.085130259	-6.861000E+00	  0.085130259	1.203010E+02	  0.085130259	2.385900E+01	  0.085130259	2.354800E+01
327	  0.085330658	-6.879000E+00	  0.085330658	1.195480E+02	  0.085330658	2.406000E+01	  0.085330658	2.385200E+01
328	  0.085531056	-6.901000E+00	  0.085531056	1.188510E+02	  0.085531056	2.426400E+01	  0.085531056	2.412500E+01
329	  0.085731462	-6.923000E+00	  0.085731462	1.181100E+02	  0.085731462	2.447900E+01	  0.085731462	2.441900E+01
330	  0.085931860	-6.940000E+00	  0.085931860	1.173950E+02	  0.085931860	2.467900E+01	  0.085931860	2.470700E+01
331	  0.086132258	-6.959000E+00	  0.086132258	1.166950E+02	  0.086132258	2.488300E+01	  0.086132258	2.498700E+01
332	  0.086332664	-6.984000E+00	  0.086332664	1.160020E+02	  0.086332664	2.511000E+01	  0.086332664	2.525200E+01
333	  0.086533062	-7.007000E+00	  0.086533062	1.153040E+02	  0.086533062	2.532900E+01	  0.086533062	2.552500E+01
334	  0.086733460	-7.027000E+00	  0.086733460	1.145850E+02	  0.086733460	2.555300E+01	  0.086733460	2.581000E+01
335	  0.086933866	-7.050000E+00	  0.086933866	1.138900E+02	  0.086933866	2.578100E+01	  0.086933866	2.607900E+01
336	  0.087134264	-7.070000E+00	  0.087134264	1.131800E+02	  0.087134264	2.600700E+01	  0.087134264	2.636000E+01
337	  0.087334670	-7.088000E+00	  0.087334670	1.124990E+02	  0.087334670	2.622300E+01	  0.087334670	2.663100E+01
338	  0.087535068	-7.119000E+00	  0.087535068	1.118060E+02	  0.087535068	2.648300E+01	  0.087535068	2.688600E+01
339	  0.087735467	-7.146000E+00	  0.087735467	1.111350E+02	  0.087735467	2.673000E+01	  0.087735467	2.713700E+01
340	  0.087935872	-7.165000E+00	  0.087935872	1.104810E+02	  0.087935872	2.695400E+01	  0.087935872	2.739100E+01
341	  0.088136271	-7.196000E+00	  0.088136271	1.098150E+02	  0.088136271	2.721800E+01	  0.088136271	2.763200E+01
342	  0.088336669	-7.213000E+00	  0.088336669	1.091330E+02	  0.088336669	2.744700E+01	  0.088336669	2.790200E+01
343	  0.088537075	-7.242000E+00	  0.088537075	1.084530E+02	  0.088537075	2.771300E+01	  0.088537075	2.815200E+01
344	  0.088737473	-7.261000E+00	  0.088737473	1.078100E+02	  0.088737473	2.794700E+01	  0.088737473	2.840000E+01
345	  0.088937871	-7.288000E+00	  0.088937871	1.071380E+02	  0.088937871	2.821300E+01	  0.088937871	2.864600E+01
346	  0.089138277	-7.312000E+00	  0.089138277	1.065000E+02	  0.089138277	2.846300E+01	  0.089138277	2.888300E+01
347	  0.089338675	-7.336000E+00	  0.089338675	1.058480E+02	  0.089338675	2.872100E+01	  0.089338675	2.912400E+01
348	  0.089539073	-7.365000E+00	  0.089539073	1.052340E+02	  0.089539073	2.898900E+01	  0.089539073	2.933700E+01
349	  0.089739479	-7.395000E+00	  0.089739479	1.045970E+02	  0.089739479	2.926300E+01	  0.089739479	2.955900E+01
350	  0.089939877	-7.419000E+00	  0.089939877	1.039300E+02	  0.089939877	2.953700E+01	  0.089939877	2.980400E+01
351	  0.090140276	-7.448000E+00	  0.090140276	1.033110E+02	  0.090140276	2.981500E+01	  0.090140276	3.001500E+01
352	  0.090340681	-7.472000E+00	  0.090340681	1.026690E+02	  0.090340681	3.008400E+01	  0.090340681	3.024700E+01
353	  0.090541080	-7.507000E+00	  0.090541080	1.020460E+02	  0.090541080	3.038500E+01	  0.090541080	3.044600E+01
354	  0.090741485	-7.533000E+00	  0.090741485	1.014080E+02	  0.090741485	3.066900E+01	  0.090741485	3.066700E+01
355	  0.090941884	-7.562000E+00	  0.090941884	1.007770E+02	  0.090941884	3.095900E+01	  0.090941884	3.088100E+01
356	  0.091142282	-7.591000E+00	  0.091142282	1.001960E+02	  0.091142282	3.123800E+01	  0.091142282	3.107000E+01
357	  0.091342688	-7.621000E+00	  0.091342688	9.955800E+01	  0.091342688	3.154400E+01	  0.091342688	3.127700E+01
358	  0.091543086	-7.658000E+00	  0.091543086	9.894800E+01	  0.091543086	3.185900E+01	  0.091543086	3.145800E+01
359	  0.091743484	-7.687000E+00	  0.091743484	9.831600E+01	  0.091743484	3.216600E+01	  0.091743484	3.166100E+01
360	  0.091943890	-7.721000E+00	  0.091943890	9.774600E+01	  0.091943890	3.246600E+01	  0.091943890	3.182700E+01
361	  0.092144288	-7.747000E+00	  0.092144288	9.712700E+01	  0.092144288	3.276400E+01	  0.092144288	3.203000E+01
362	  0.092344686	-7.782000E+00	  0.092344686	9.648500E+01	  0.092344686	3.310000E+01	  0.092344686	3.221900E+01
363	  0.092545092	-7.809000E+00	  0.092545092	9.590500E+01	  0.092545092	3.339400E+01	  0.092545092	3.239900E+01
364	  0.092745490	-7.849000E+00	  0.092745490	9.531900E+01	  0.092745490	3.372700E+01	  0.092745490	3.254800E+01
365	  0.092945889	-7.874000E+00	  0.092945889	9.473800E+01	  0.092945889	3.402200E+01	  0.092945889	3.272800E+01
366	  0.093146294	-7.913000E+00	  0.093146294	9.418500E+01	  0.093146294	3.434600E+01	  0.093146294	3.286100E+01
367	  0.093346693	-7.940000E+00	  0.093346693	9.360200E+01	  0.093346693	3.465200E+01	  0.093346693	3.303300E+01
368	  0.093547091	-7.974000E+00	  0.093547091	9.303500E+01	  0.093547091	3.497400E+01	  0.093547091	3.317900E+01
369	  0.093747497	-8.004000E+00	  0.093747497	9.248200E+01	  0.093747497	3.528000E+01	  0.093747497	3.332800E+01
370	  0.093947895	-8.037000E+00	  0.093947895	9.191500E+01	  0.093947895	3.560500E+01	  0.093947895	3.347100E+01
371	  0.094148301	-8.074000E+00	  0.094148301	9.138100E+01	  0.094148301	3.592900E+01	  0.094148301	3.358700E+01
372	  0.094348699	-8.102000E+00	  0.094348699	9.084100E+01	  0.094348699	3.623300E+01	  0.094348699	3.372800E+01
373	  0.094549097	-8.140000E+00	  0.094549097	9.033200E+01	  0.094549097	3.655300E+01	  0.094549097	3.382600E+01
374	  0.094749503	-8.168000E+00	  0.094749503	8.980200E+01	  0.094749503	3.685600E+01	  0.094749503	3.396000E+01
375	  0.094949901	-8.206000E+00	  0.094949901	8.929900E+01	  0.094949901	3.717800E+01	  0.094949901	3.405000E+01
376	  0.095150299	-8.232000E+00	  0.095150299	8.875600E+01	  0.095150299	3.748600E+01	  0.095150299	3.419000E+01
377	  0.095350705	-8.269000E+00	  0.095350705	8.828500E+01	  0.095350705	3.779500E+01	  0.095350705	3.426400E+01
378	  0.095551103	-8.305000E+00	  0.095551103	8.774600E+01	  0.095551103	3.813200E+01	  0.095551103	3.436700E+01
379	  0.095751502	-8.334000E+00	  0.095751502	8.726200E+01	  0.095751502	3.843000E+01	  0.095751502	3.446600E+01
380	  0.095951907	-8.369000E+00	  0.095951907	8.677600E+01	  0.095951907	3.874300E+01	  0.095951907	3.454600E+01
381	  0.096152306	-8.398000E+00	  0.096152306	8.630200E+01	  0.096152306	3.904000E+01	  0.096152306	3.463500E+01
382	  0.096352704	-8.430000E+00	  0.096352704	8.583900E+01	  0.096352704	3.933800E+01	  0.096352704	3.471300E+01
383	  0.096553110	-8.461000E+00	  0.096553110	8.535400E+01	  0.096553110	3.964700E+01	  0.096553110	3.479700E+01
384	  0.096753508	-8.491000E+00	  0.096753508	8.492000E+01	  0.096753508	3.993300E+01	  0.096753508	3.486000E+01
385	  0.096953906	-8.519000E+00	  0.096953906	8.445600E+01	  0.096953906	4.022600E+01	  0.096953906	3.494200E+01
386	  0.097154312	-8.551000E+00	  0.097154312	8.402800E+01	  0.097154312	4.051300E+01	  0.097154312	3.499500E+01
387	  0.097354710	-8.580000E+00	  0.097354710	8.355000E+01	  0.097354710	4.082200E+01	  0.097354710	3.507100E+01
388	  0.097555116	-8.606000E+00	  0.097555116	8.312400E+01	  0.097555116	4.109800E+01	  0.097555116	3.513700E+01
389	  0.097755514	-8.633000E+00	  0.097755514	8.267200E+01	  0.097755514	4.138800E+01	  0.097755514	3.520900E+01
390	  0.097955912	-8.663000E+00	  0.097955912	8.226100E+01	  0.097955912	4.166900E+01	  0.097955912	3.525100E+01
391	  0.098156318	-8.690000E+00	  0.098156318	8.184200E+01	  0.098156318	4.194600E+01	  0.098156318	3.530800E+01
392	  0.098356716	-8.713000E+00	  0.098356716	8.140100E+01	  0.098356716	4.222700E+01	  0.098356716	3.538100E+01
393	  0.098557115	-8.740000E+00	  0.098557115	8.101100E+01	  0.098557115	4.249300E+01	  0.098557115	3.542000E+01
394	  0.098757520	-8.760000E+00	  0.098757520	8.061000E+01	  0.098757520	4.274800E+01	  0.098757520	3.548700E+01
395	  0.098957919	-8.784000E+00	  0.098957919	8.018300E+01	  0.098957919	4.302800E+01	  0.098957919	3.554700E+01
396	  0.099158317	-8.806000E+00	  0.099158317	7.976800E+01	  0.099158317	4.329900E+01	  0.099158317	3.560600E+01
397	  0.099358723	-8.822000E+00	  0.099358723	7.935500E+01	  0.099358723	4.355700E+01	  0.099358723	3.568500E+01
398	  0.099559121	-8.843000E+00	  0.099559121	7.898600E+01	  0.099559121	4.380400E+01	  0.099559121	3.572800E+01
399	  0.099759519	-8.860000E+00	  0.099759519	7.858200E+01	  0.099759519	4.406100E+01	  0.099759519	3.579800E+01
400	  0.099959925	-8.877000E+00	  0.099959925	7.826400E+01	  0.099959925	4.427200E+01	  0.099959925	3.584000E+01
401	  0.100160323	-8.890000E+00	  0.100160323	7.785200E+01	  0.100160323	4.452800E+01	  0.100160323	3.592200E+01
402	  0.100360721	-8.899000E+00	  0.100360721	7.749700E+01	  0.100360721	4.474600E+01	  0.100360721	3.600000E+01
403	  0.100561127	-8.906000E+00	  0.100561127	7.714300E+01	  0.100561127	4.496100E+01	  0.100561127	3.608300E+01
404	  0.100761525	-8.925000E+00	  0.100761525	7.671300E+01	  0.100761525	4.524400E+01	  0.100761525	3.614400E+01
405	  0.100961931	-8.930000E+00	  0.100961931	7.633700E+01	  0.100961931	4.546900E+01	  0.100961931	3.624200E+01
406	  0.101162329	-8.931000E+00	  0.101162329	7.602200E+01	  0.101162329	4.565200E+01	  0.101162329	3.633400E+01
407	  0.101362728	-8.953000E+00	  0.101362728	7.564200E+01	  0.101362728	4.591800E+01	  0.101362728	3.636300E+01
408	  0.101563133	-8.951000E+00	  0.101563133	7.533900E+01	  0.101563133	4.609100E+01	  0.101563133	3.646000E+01
409	  0.101763532	-8.955000E+00	  0.101763532	7.496800E+01	  0.101763532	4.631800E+01	  0.101763532	3.655400E+01
410	  0.101963930	-8.964000E+00	  0.101963930	7.469900E+01	  0.101963930	4.649400E+01	  0.101963930	3.659900E+01
411	  0.102164328	-8.971000E+00	  0.102164328	7.427300E+01	  0.102164328	4.676100E+01	  0.102164328	3.669700E+01
412	  0.102364726	-8.973000E+00	  0.102364726	7.390500E+01	  0.102364726	4.698600E+01	  0.102364726	3.679500E+01
413	  0.102565125	-8.980000E+00	  0.102565125	7.358700E+01	  0.102565125	4.719300E+01	  0.102565125	3.685600E+01
414	  0.102765530	-8.965000E+00	  0.102765530	7.325800E+01	  0.102765530	4.736600E+01	  0.102765530	3.701000E+01
415	  0.102965929	-8.979000E+00	  0.102965929	7.288600E+01	  0.102965929	4.761900E+01	  0.102965929	3.706100E+01
416	  0.103166327	-8.977000E+00	  0.103166327	7.254100E+01	  0.103166327	4.782900E+01	  0.103166327	3.716300E+01
417	  0.103366733	-8.973000E+00	  0.103366733	7.218400E+01	  0.103366733	4.804500E+01	  0.103366733	3.727800E+01
418	  0.103567131	-8.971000E+00	  0.103567131	7.180200E+01	  0.103567131	4.827900E+01	  0.103567131	3.739400E+01
419	  0.103767529	-8.978000E+00	  0.103767529	7.142200E+01	  0.103767529	4.853300E+01	  0.103767529	3.746500E+01
420	  0.103967935	-8.975000E+00	  0.103967935	7.103300E+01	  0.103967935	4.877500E+01	  0.103967935	3.758500E+01
421	  0.104168333	-8.975000E+00	  0.104168333	7.064200E+01	  0.104168333	4.902700E+01	  0.104168333	3.768600E+01
422	  0.104368731	-8.977000E+00	  0.104368731	7.030600E+01	  0.104368731	4.924800E+01	  0.104368731	3.776800E+01
423	  0.104569137	-8.971000E+00	  0.104569137	6.985800E+01	  0.104569137	4.952900E+01	  0.104569137	3.791200E+01
424	  0.104769535	-8.972000E+00	  0.104769535	6.948600E+01	  0.104769535	4.977500E+01	  0.104769535	3.800300E+01
425	  0.104969934	-8.964000E+00	  0.104969934	6.904500E+01	  0.104969934	5.005500E+01	  0.104969934	3.814900E+01
426	  0.105170339	-8.964000E+00	  0.105170339	6.867200E+01	  0.105170339	5.030400E+01	  0.105170339	3.824400E+01
427	  0.105370738	-8.966000E+00	  0.105370738	6.821200E+01	  0.105370738	5.061900E+01	  0.105370738	3.834600E+01
428	  0.105571143	-8.960000E+00	  0.105571143	6.777900E+01	  0.105571143	5.090300E+01	  0.105571143	3.848200E+01
429	  0.105771542	-8.955000E+00	  0.105771542	6.728800E+01	  0.105771542	5.123200E+01	  0.105771542	3.862300E+01
430	  0.105971940	-8.947000E+00	  0.105971940	6.685900E+01	  0.105971940	5.151800E+01	  0.105971940	3.875800E+01
431	  0.106172346	-8.936000E+00	  0.106172346	6.635300E+01	  0.106172346	5.185600E+01	  0.106172346	3.892800E+01
432	  0.106372744	-8.929000E+00	  0.106372744	6.589500E+01	  0.106372744	5.217000E+01	  0.106372744	3.906600E+01
433	  0.106573142	-8.931000E+00	  0.106573142	6.540400E+01	  0.106573142	5.252400E+01	  0.106573142	3.916600E+01
434	  0.106773548	-8.919000E+00	  0.106773548	6.498500E+01	  0.106773548	5.280800E+01	  0.106773548	3.932000E+01
435	  0.106973946	-8.912000E+00	  0.106973946	6.446200E+01	  0.106973946	5.317900E+01	  0.106973946	3.946500E+01
436	  0.107174344	-8.900000E+00	  0.107174344	6.398000E+01	  0.107174344	5.351700E+01	  0.107174344	3.962600E+01
437	  0.107374750	-8.889000E+00	  0.107374750	6.342900E+01	  0.107374750	5.391200E+01	  0.107374750	3.979300E+01
438	  0.107575148	-8.884000E+00	  0.107575148	6.291200E+01	  0.107575148	5.429500E+01	  0.107575148	3.992300E+01
439	  0.107775547	-8.858000E+00	  0.107775547	6.243300E+01	  0.107775547	5.462600E+01	  0.107775547	4.014700E+01
440	  0.107975952	-8.854000E+00	  0.107975952	6.187300E+01	  0.107975952	5.505100E+01	  0.107975952	4.027900E+01
441	  0.108176351	-8.831000E+00	  0.108176351	6.140000E+01	  0.108176351	5.539200E+01	  0.108176351	4.048300E+01
442	  0.108376749	-8.814000E+00	  0.108376749	6.083500E+01	  0.108376749	5.581600E+01	  0.108376749	4.067500E+01
443	  0.108577155	-8.804000E+00	  0.108577155	6.031800E+01	  0.108577155	5.621600E+01	  0.108577155	4.082200E+01
444	  0.108777553	-8.796000E+00	  0.108777553	5.980300E+01	  0.108777553	5.662100E+01	  0.108777553	4.095500E+01
445	  0.108977959	-8.775000E+00	  0.108977959	5.922600E+01	  0.108977959	5.706900E+01	  0.108977959	4.116100E+01
446	  0.109178357	-8.758000E+00	  0.109178357	5.865300E+01	  0.109178357	5.752400E+01	  0.109178357	4.134500E+01
447	  0.109378755	-8.754000E+00	  0.109378755	5.810300E+01	  0.109378755	5.797800E+01	  0.109378755	4.145300E+01
448	  0.109579161	-8.741000E+00	  0.109579161	5.757200E+01	  0.109579161	5.841300E+01	  0.109579161	4.160700E+01
449	  0.109779559	-8.717000E+00	  0.109779559	5.698000E+01	  0.109779559	5.889600E+01	  0.109779559	4.182400E+01
450	  0.109979957	-8.704000E+00	  0.109979957	5.648100E+01	  0.109979957	5.931700E+01	  0.109979957	4.196400E+01
451	  0.110180363	-8.690000E+00	  0.110180363	5.586600E+01	  0.110180363	5.984200E+01	  0.110180363	4.212200E+01
452	  0.110380761	-8.677000E+00	  0.110380761	5.528400E+01	  0.110380761	6.034800E+01	  0.110380761	4.226300E+01
453	  0.110581160	-8.665000E+00	  0.110581160	5.470500E+01	  0.110581160	6.085800E+01	  0.110581160	4.239500E+01
454	  0.110781565	-8.657000E+00	  0.110781565	5.415500E+01	  0.110781565	6.135100E+01	  0.110781565	4.250200E+01
455	  0.110981964	-8.653000E+00	  0.110981964	5.349600E+01	  0.110981964	6.195200E+01	  0.110981964	4.258000E+01
456	  0.111182362	-8.638000E+00	  0.111182362	5.297400E+01	  0.111182362	6.242700E+01	  0.111182362	4.271700E+01
457	  0.111382768	-8.631000E+00	  0.111382768	5.231200E+01	  0.111382768	6.304400E+01	  0.111382768	4.280600E+01
458	  0.111583166	-8.622000E+00	  0.111583166	5.168400E+01	  0.111583166	6.363500E+01	  0.111583166	4.289800E+01
459	  0.111783572	-8.612000E+00	  0.111783572	5.101900E+01	  0.111783572	6.427000E+01	  0.111783572	4.299000E+01
460	  0.111983970	-8.610000E+00	  0.111983970	5.038700E+01	  0.111983970	6.488200E+01	  0.111983970	4.301800E+01
461	  0.112184368	-8.607000E+00	  0.112184368	4.971200E+01	  0.112184368	6.554300E+01	  0.112184368	4.304900E+01
462	  0.112384774	-8.605000E+00	  0.112384774	4.902500E+01	  0.112384774	6.622300E+01	  0.112384774	4.306600E+01
463	  0.112585172	-8.610000E+00	  0.112585172	4.834600E+01	  0.112585172	6.690200E+01	  0.112585172	4.302400E+01
464	  0.112785570	-8.606000E+00	  0.112785570	4.757400E+01	  0.112785570	6.768300E+01	  0.112785570	4.302500E+01
465	  0.112985976	-8.609000E+00	  0.112985976	4.690600E+01	  0.112985976	6.836400E+01	  0.112985976	4.297200E+01
466	  0.113186374	-8.610000E+00	  0.113186374	4.619000E+01	  0.113186374	6.910200E+01	  0.113186374	4.292000E+01
467	  0.113386773	-8.609000E+00	  0.113386773	4.544000E+01	  0.113386773	6.988200E+01	  0.113386773	4.286000E+01
468	  0.113587178	-8.611000E+00	  0.113587178	4.464100E+01	  0.113587178	7.072100E+01	  0.113587178	4.276100E+01
469	  0.113787577	-8.623000E+00	  0.113787577	4.390200E+01	  0.113787577	7.149300E+01	  0.113787577	4.258400E+01
470	  0.113987975	-8.626000E+00	  0.113987975	4.308000E+01	  0.113987975	7.236800E+01	  0.113987975	4.243800E+01
471	  0.114188381	-8.632000E+00	  0.114188381	4.227100E+01	  0.114188381	7.323100E+01	  0.114188381	4.225200E+01
472	  0.114388779	-8.639000E+00	  0.114388779	4.145600E+01	  0.114388779	7.410600E+01	  0.114388779	4.204300E+01
473	  0.114589177	-8.653000E+00	  0.114589177	4.066300E+01	  0.114589177	7.495100E+01	  0.114589177	4.176500E+01
474	  0.114789583	-8.662000E+00	  0.114789583	3.981200E+01	  0.114789583	7.586600E+01	  0.114789583	4.147700E+01
475	  0.114989981	-8.671000E+00	  0.114989981	3.894700E+01	  0.114989981	7.680200E+01	  0.114989981	4.116700E+01
476	  0.115190387	-8.685000E+00	  0.115190387	3.808800E+01	  0.115190387	7.772300E+01	  0.115190387	4.080100E+01
477	  0.115390785	-8.702000E+00	  0.115390785	3.723600E+01	  0.115390785	7.862800E+01	  0.115390785	4.038400E+01
478	  0.115591183	-8.716000E+00	  0.115591183	3.630900E+01	  0.115591183	7.962100E+01	  0.115591183	3.993000E+01
479	  0.115791589	-8.729000E+00	  0.115791589	3.541600E+01	  0.115791589	8.057700E+01	  0.115791589	3.947100E+01
480	  0.115991987	-8.744000E+00	  0.115991987	3.453400E+01	  0.115991987	8.151400E+01	  0.115991987	3.897500E+01
481	  0.116192386	-8.771000E+00	  0.116192386	3.358800E+01	  0.116192386	8.247600E+01	  0.116192386	3.832600E+01
482	  0.116392791	-8.795000E+00	  0.116392791	3.271500E+01	  0.116392791	8.335700E+01	  0.116392791	3.771000E+01
483	  0.116593190	-8.820000E+00	  0.116593190	3.183000E+01	  0.116593190	8.423200E+01	  0.116593190	3.704300E+01
484	  0.116793588	-8.843000E+00	  0.116793588	3.081300E+01	  0.116793588	8.524600E+01	  0.116793588	3.628500E+01
485	  0.116993994	-8.870000E+00	  0.116993994	2.985300E+01	  0.116993994	8.617000E+01	  0.116993994	3.550200E+01
486	  0.117194392	-8.906000E+00	  0.117194392	2.891300E+01	  0.117194392	8.700600E+01	  0.117194392	3.462700E+01
487	  0.117394790	-8.943000E+00	  0.117394790	2.794300E+01	  0.117394790	8.785200E+01	  0.117394790	3.370500E+01
488	  0.117595196	-8.980000E+00	  0.117595196	2.693000E+01	  0.117595196	8.871000E+01	  0.117595196	3.271200E+01
489	  0.117795594	-9.014000E+00	  0.117795594	2.598300E+01	  0.117795594	8.948600E+01	  0.117795594	3.175800E+01
490	  0.117995992	-9.060000E+00	  0.117995992	2.495800E+01	  0.117995992	9.024300E+01	  0.117995992	3.063600E+01
491	  0.118196398	-9.110000E+00	  0.118196398	2.391300E+01	  0.118196398	9.096400E+01	  0.118196398	2.945100E+01
492	  0.118396796	-9.156000E+00	  0.118396796	2.288300E+01	  0.118396796	9.164500E+01	  0.118396796	2.827100E+01
