! Anritsu VNA Master:             	Model: MS2036C/10/77
! SN:             	1601066
! /bd0/18may09/b256.ew.m2.txt
! Existing Calibration Information:
! TYPE:             	Current Settings	Active Cal Settings
! TIME:             	05/09/2018 07:22:36 PM	05/09/2018 07:16:32 PM
! INTERNAL TEMP:    	50.0 C	48.5 C
! # POINTS:         	494	494
! START FREQ:       	20.000 MHz	20.000 MHz
! STOP FREQ:        	118.797 594 MHz	118.797 594 MHz
! SOURCE POWER:     	High	High
! IFBW:             	50 Hz	50 Hz
! AVG FACTOR:       	  1 	  1 
! REF PLANE 1:      	0 mm	0 mm
! REF PLANE 2:      	0 mm	0 mm
! CAL TYPE:         	Full S22	Full S22
! CAL METHOD:       	SOLT	SOLT
! CAL LINE TYPE:    	Coax	Coax
! DUT PORT 1:       	K-Conn(M)	K-Conn(M)
! DUT PORT 2:       	K-Conn(M)	K-Conn(M)
! CAL STATUS:       	OK: Accuracy High	--
! PROP-V:       	0.700
! CABLE LOSS:       	0.000 dB/m
! REF IMPEDANCE:       	50.0
! Trace Specific Parameters:	TR1	TR2	TR3	TR4
! TRACE.#.Y (GRAPH TYPE)	LOG MAG	PHASE	REAL IMPEDANCE	IMAGINARY IMPEDANCE
! TRACE.#.X 	FREQ.GHZ	FREQ.GHZ	FREQ.GHZ	FREQ.GHZ
! S-PARAMETER	S22	S22	S22	S22
! SMOOTH/APERTURE %	0	0	0	0
! WINDOW	NSL	NSL	NSL	NSL
! GATING	OFF	OFF	OFF	OFF
! FGTD	OFF	OFF	OFF	OFF
Marker Information per Trace:	TR1	TR2	TR3	TR4
!MK1	--	"MK1 TR2:  20.000 MHz,PH:-127.12°"	--	--
!MK2	--	--	"MK2 TR3:  70.100 200 MHz,Z:(16.535 ohm, -1.138 ohm)"	--
!MK3	--	--	--	--
!MK4	--	--	--	--
!MK5	--	--	--	--
!MK6	--	--	--	--
!MK7	--	--	--	--
!MK8	--	--	--	--
PNT	TR1.FREQ.GHZ	TR1.LOG MAG.dB	TR2.FREQ.GHZ	TR2.PHASE.deg	TR3.FREQ.GHZ	TR3.REAL IMPEDANCE.ohm	TR4.FREQ.GHZ	TR4.IMAGINARY IMPEDANCE.ohm
1	  0.020000000	-6.360000E-01	  0.020000000	-1.271170E+02	  0.020000000	2.281000E+00	  0.020000000	-2.482300E+01
2	  0.020200402	-6.420000E-01	  0.020200402	-1.285900E+02	  0.020200402	2.274000E+00	  0.020200402	-2.402800E+01
3	  0.020400802	-6.430000E-01	  0.020400802	-1.300680E+02	  0.020400802	2.251000E+00	  0.020400802	-2.324000E+01
4	  0.020601204	-6.470000E-01	  0.020601204	-1.315730E+02	  0.020601204	2.239000E+00	  0.020601204	-2.244700E+01
5	  0.020801604	-6.520000E-01	  0.020801604	-1.331160E+02	  0.020801604	2.230000E+00	  0.020801604	-2.164300E+01
6	  0.021002004	-6.550000E-01	  0.021002004	-1.346560E+02	  0.021002004	2.214000E+00	  0.021002004	-2.085100E+01
7	  0.021202406	-6.600000E-01	  0.021202406	-1.362080E+02	  0.021202406	2.206000E+00	  0.021202406	-2.006100E+01
8	  0.021402806	-6.630000E-01	  0.021402806	-1.377430E+02	  0.021402806	2.192000E+00	  0.021402806	-1.928900E+01
9	  0.021603208	-6.670000E-01	  0.021603208	-1.392830E+02	  0.021603208	2.183000E+00	  0.021603208	-1.852200E+01
10	  0.021803608	-6.710000E-01	  0.021803608	-1.408280E+02	  0.021803608	2.177000E+00	  0.021803608	-1.776000E+01
11	  0.022004008	-6.770000E-01	  0.022004008	-1.423770E+02	  0.022004008	2.176000E+00	  0.022004008	-1.700300E+01
12	  0.022204408	-6.850000E-01	  0.022204408	-1.439490E+02	  0.022204408	2.181000E+00	  0.022204408	-1.624200E+01
13	  0.022404809	-6.920000E-01	  0.022404809	-1.455420E+02	  0.022404809	2.182000E+00	  0.022404809	-1.547800E+01
14	  0.022605211	-6.950000E-01	  0.022605211	-1.471540E+02	  0.022605211	2.173000E+00	  0.022605211	-1.471100E+01
15	  0.022805611	-7.000000E-01	  0.022805611	-1.487450E+02	  0.022805611	2.173000E+00	  0.022805611	-1.396100E+01
16	  0.023006011	-7.100000E-01	  0.023006011	-1.503360E+02	  0.023006011	2.185000E+00	  0.023006011	-1.321600E+01
17	  0.023206413	-7.130000E-01	  0.023206413	-1.519310E+02	  0.023206413	2.181000E+00	  0.023206413	-1.247500E+01
18	  0.023406813	-7.180000E-01	  0.023406813	-1.535340E+02	  0.023406813	2.181000E+00	  0.023406813	-1.173600E+01
19	  0.023607215	-7.270000E-01	  0.023607215	-1.551400E+02	  0.023607215	2.193000E+00	  0.023607215	-1.100000E+01
20	  0.023807615	-7.370000E-01	  0.023807615	-1.567570E+02	  0.023807615	2.212000E+00	  0.023807615	-1.026300E+01
21	  0.024008015	-7.470000E-01	  0.024008015	-1.584000E+02	  0.024008015	2.227000E+00	  0.024008015	-9.519000E+00
22	  0.024208417	-7.570000E-01	  0.024208417	-1.600590E+02	  0.024208417	2.244000E+00	  0.024208417	-8.772000E+00
23	  0.024408817	-7.620000E-01	  0.024408817	-1.617140E+02	  0.024408817	2.251000E+00	  0.024408817	-8.031000E+00
24	  0.024609219	-7.700000E-01	  0.024609219	-1.633780E+02	  0.024609219	2.264000E+00	  0.024609219	-7.288000E+00
25	  0.024809619	-7.810000E-01	  0.024809619	-1.650410E+02	  0.024809619	2.287000E+00	  0.024809619	-6.550000E+00
26	  0.025010020	-7.920000E-01	  0.025010020	-1.667160E+02	  0.025010020	2.309000E+00	  0.025010020	-5.809000E+00
27	  0.025210422	-8.040000E-01	  0.025210422	-1.683960E+02	  0.025210422	2.336000E+00	  0.025210422	-5.069000E+00
28	  0.025410822	-8.160000E-01	  0.025410822	-1.700900E+02	  0.025410822	2.366000E+00	  0.025410822	-4.324000E+00
29	  0.025611224	-8.300000E-01	  0.025611224	-1.717920E+02	  0.025611224	2.400000E+00	  0.025611224	-3.578000E+00
30	  0.025811624	-8.420000E-01	  0.025811624	-1.735100E+02	  0.025811624	2.431000E+00	  0.025811624	-2.828000E+00
31	  0.026012026	-8.540000E-01	  0.026012026	-1.752490E+02	  0.026012026	2.461000E+00	  0.026012026	-2.068000E+00
32	  0.026212426	-8.690000E-01	  0.026212426	-1.769870E+02	  0.026212426	2.501000E+00	  0.026212426	-1.311000E+00
33	  0.026412826	-8.850000E-01	  0.026412826	-1.787510E+02	  0.026412826	2.547000E+00	  0.026412826	-5.430000E-01
34	  0.026613226	-9.010000E-01	  0.026613226	1.794880E+02	  0.026613226	2.592000E+00	  0.026613226	2.220000E-01
35	  0.026813626	-9.180000E-01	  0.026813626	1.777130E+02	  0.026813626	2.641000E+00	  0.026813626	9.940000E-01
36	  0.027014028	-9.370000E-01	  0.027014028	1.759340E+02	  0.027014028	2.700000E+00	  0.027014028	1.769000E+00
37	  0.027214428	-9.550000E-01	  0.027214428	1.741500E+02	  0.027214428	2.755000E+00	  0.027214428	2.546000E+00
38	  0.027414829	-9.730000E-01	  0.027414829	1.723520E+02	  0.027414829	2.812000E+00	  0.027414829	3.331000E+00
39	  0.027615231	-9.940000E-01	  0.027615231	1.705440E+02	  0.027615231	2.878000E+00	  0.027615231	4.121000E+00
40	  0.027815631	-1.014000E+00	  0.027815631	1.687250E+02	  0.027815631	2.944000E+00	  0.027815631	4.918000E+00
41	  0.028016033	-1.036000E+00	  0.028016033	1.668940E+02	  0.028016033	3.018000E+00	  0.028016033	5.722000E+00
42	  0.028216433	-1.058000E+00	  0.028216433	1.650370E+02	  0.028216433	3.095000E+00	  0.028216433	6.541000E+00
43	  0.028416833	-1.081000E+00	  0.028416833	1.631890E+02	  0.028416833	3.177000E+00	  0.028416833	7.358000E+00
44	  0.028617235	-1.104000E+00	  0.028617235	1.613350E+02	  0.028617235	3.259000E+00	  0.028617235	8.182000E+00
45	  0.028817635	-1.128000E+00	  0.028817635	1.594780E+02	  0.028817635	3.349000E+00	  0.028817635	9.012000E+00
46	  0.029018037	-1.153000E+00	  0.029018037	1.576280E+02	  0.029018037	3.444000E+00	  0.029018037	9.842000E+00
47	  0.029218437	-1.179000E+00	  0.029218437	1.557580E+02	  0.029218437	3.545000E+00	  0.029218437	1.068600E+01
48	  0.029418837	-1.206000E+00	  0.029418837	1.538690E+02	  0.029418837	3.654000E+00	  0.029418837	1.154400E+01
49	  0.029619239	-1.233000E+00	  0.029619239	1.519840E+02	  0.029619239	3.764000E+00	  0.029619239	1.240700E+01
50	  0.029819639	-1.261000E+00	  0.029819639	1.500870E+02	  0.029819639	3.880000E+00	  0.029819639	1.328100E+01
51	  0.030020041	-1.289000E+00	  0.030020041	1.481800E+02	  0.030020041	4.003000E+00	  0.030020041	1.416700E+01
52	  0.030220442	-1.315000E+00	  0.030220442	1.462810E+02	  0.030220442	4.124000E+00	  0.030220442	1.505700E+01
53	  0.030420844	-1.344000E+00	  0.030420844	1.443940E+02	  0.030420844	4.256000E+00	  0.030420844	1.595000E+01
54	  0.030621244	-1.372000E+00	  0.030621244	1.424850E+02	  0.030621244	4.395000E+00	  0.030621244	1.686200E+01
55	  0.030821642	-1.406000E+00	  0.030821642	1.405740E+02	  0.030821642	4.552000E+00	  0.030821642	1.778300E+01
56	  0.031022044	-1.438000E+00	  0.031022044	1.386430E+02	  0.031022044	4.714000E+00	  0.031022044	1.872400E+01
57	  0.031222444	-1.467000E+00	  0.031222444	1.367020E+02	  0.031222444	4.872000E+00	  0.031222444	1.968200E+01
58	  0.031422846	-1.501000E+00	  0.031422846	1.347280E+02	  0.031422846	5.053000E+00	  0.031422846	2.066800E+01
59	  0.031623244	-1.535000E+00	  0.031623244	1.327480E+02	  0.031623244	5.242000E+00	  0.031623244	2.166900E+01
60	  0.031823646	-1.569000E+00	  0.031823646	1.307730E+02	  0.031823646	5.440000E+00	  0.031823646	2.268100E+01
61	  0.032024048	-1.605000E+00	  0.032024048	1.287860E+02	  0.032024048	5.654000E+00	  0.032024048	2.371300E+01
62	  0.032224450	-1.643000E+00	  0.032224450	1.268060E+02	  0.032224450	5.886000E+00	  0.032224450	2.475600E+01
63	  0.032424849	-1.681000E+00	  0.032424849	1.248150E+02	  0.032424849	6.128000E+00	  0.032424849	2.582100E+01
64	  0.032625251	-1.721000E+00	  0.032625251	1.228180E+02	  0.032625251	6.387000E+00	  0.032625251	2.690600E+01
65	  0.032825653	-1.761000E+00	  0.032825653	1.207730E+02	  0.032825653	6.662000E+00	  0.032825653	2.803600E+01
66	  0.033026051	-1.799000E+00	  0.033026051	1.187250E+02	  0.033026051	6.945000E+00	  0.033026051	2.918900E+01
67	  0.033226453	-1.838000E+00	  0.033226453	1.166860E+02	  0.033226453	7.247000E+00	  0.033226453	3.035700E+01
68	  0.033426855	-1.883000E+00	  0.033426855	1.146480E+02	  0.033426855	7.584000E+00	  0.033426855	3.154400E+01
69	  0.033627257	-1.926000E+00	  0.033627257	1.126090E+02	  0.033627257	7.936000E+00	  0.033627257	3.275500E+01
70	  0.033827655	-1.970000E+00	  0.033827655	1.105670E+02	  0.033827655	8.308000E+00	  0.033827655	3.399200E+01
71	  0.034028057	-2.014000E+00	  0.034028057	1.085240E+02	  0.034028057	8.701000E+00	  0.034028057	3.525500E+01
72	  0.034228459	-2.060000E+00	  0.034228459	1.064470E+02	  0.034228459	9.128000E+00	  0.034228459	3.656700E+01
73	  0.034428857	-2.106000E+00	  0.034428857	1.043740E+02	  0.034428857	9.584000E+00	  0.034428857	3.790400E+01
74	  0.034629259	-2.154000E+00	  0.034629259	1.022900E+02	  0.034629259	1.007300E+01	  0.034629259	3.927800E+01
75	  0.034829661	-2.199000E+00	  0.034829661	1.002140E+02	  0.034829661	1.057800E+01	  0.034829661	4.068200E+01
76	  0.035030060	-2.248000E+00	  0.035030060	9.811400E+01	  0.035030060	1.113900E+01	  0.035030060	4.213300E+01
77	  0.035230462	-2.299000E+00	  0.035230462	9.603400E+01	  0.035230462	1.174200E+01	  0.035230462	4.360200E+01
78	  0.035430863	-2.348000E+00	  0.035430863	9.394900E+01	  0.035430863	1.237800E+01	  0.035430863	4.511400E+01
79	  0.035631265	-2.397000E+00	  0.035631265	9.185400E+01	  0.035631265	1.305200E+01	  0.035631265	4.667400E+01
80	  0.035831664	-2.450000E+00	  0.035831664	8.975500E+01	  0.035831664	1.380000E+01	  0.035831664	4.827100E+01
81	  0.036032066	-2.502000E+00	  0.036032066	8.766600E+01	  0.036032066	1.458800E+01	  0.036032066	4.990400E+01
82	  0.036232468	-2.551000E+00	  0.036232468	8.557500E+01	  0.036232468	1.542000E+01	  0.036232468	5.158900E+01
83	  0.036432866	-2.603000E+00	  0.036432866	8.346700E+01	  0.036432866	1.633300E+01	  0.036432866	5.332700E+01
84	  0.036633268	-2.657000E+00	  0.036633268	8.137600E+01	  0.036633268	1.731900E+01	  0.036633268	5.509600E+01
85	  0.036833670	-2.710000E+00	  0.036833670	7.928000E+01	  0.036833670	1.837500E+01	  0.036833670	5.691900E+01
86	  0.037034072	-2.764000E+00	  0.037034072	7.717800E+01	  0.037034072	1.951600E+01	  0.037034072	5.879900E+01
87	  0.037234470	-2.819000E+00	  0.037234470	7.508000E+01	  0.037234470	2.075700E+01	  0.037234470	6.072000E+01
88	  0.037434869	-2.871000E+00	  0.037434869	7.297800E+01	  0.037434869	2.207800E+01	  0.037434869	6.270800E+01
89	  0.037635271	-2.926000E+00	  0.037635271	7.088900E+01	  0.037635271	2.352000E+01	  0.037635271	6.472600E+01
90	  0.037835669	-2.981000E+00	  0.037835669	6.876400E+01	  0.037835669	2.510300E+01	  0.037835669	6.683400E+01
91	  0.038036071	-3.036000E+00	  0.038036071	6.663100E+01	  0.038036071	2.682100E+01	  0.038036071	6.901100E+01
92	  0.038236473	-3.094000E+00	  0.038236473	6.451600E+01	  0.038236473	2.870300E+01	  0.038236473	7.120200E+01
93	  0.038436871	-3.152000E+00	  0.038436871	6.238900E+01	  0.038436871	3.075600E+01	  0.038436871	7.345700E+01
94	  0.038637273	-3.211000E+00	  0.038637273	6.027300E+01	  0.038637273	3.298400E+01	  0.038637273	7.574100E+01
95	  0.038837675	-3.265000E+00	  0.038837675	5.816800E+01	  0.038837675	3.536500E+01	  0.038837675	7.807900E+01
96	  0.039038073	-3.319000E+00	  0.039038073	5.607100E+01	  0.039038073	3.795500E+01	  0.039038073	8.043800E+01
97	  0.039238475	-3.375000E+00	  0.039238475	5.396600E+01	  0.039238475	4.080600E+01	  0.039238475	8.282200E+01
98	  0.039438877	-3.430000E+00	  0.039438877	5.188600E+01	  0.039438877	4.388300E+01	  0.039438877	8.518900E+01
99	  0.039639279	-3.485000E+00	  0.039639279	4.978100E+01	  0.039639279	4.727800E+01	  0.039639279	8.758500E+01
100	  0.039839678	-3.541000E+00	  0.039839678	4.769000E+01	  0.039839678	5.097300E+01	  0.039839678	8.992900E+01
101	  0.040040080	-3.599000E+00	  0.040040080	4.559100E+01	  0.040040080	5.503800E+01	  0.040040080	9.221500E+01
102	  0.040240481	-3.653000E+00	  0.040240481	4.349000E+01	  0.040240481	5.944800E+01	  0.040240481	9.446500E+01
103	  0.040440880	-3.707000E+00	  0.040440880	4.140700E+01	  0.040440880	6.423300E+01	  0.040440880	9.656100E+01
104	  0.040641282	-3.763000E+00	  0.040641282	3.934300E+01	  0.040641282	6.940500E+01	  0.040641282	9.845300E+01
105	  0.040841684	-3.817000E+00	  0.040841684	3.727400E+01	  0.040841684	7.502800E+01	  0.040841684	1.001440E+02
106	  0.041042086	-3.870000E+00	  0.041042086	3.521700E+01	  0.041042086	8.108400E+01	  0.041042086	1.015360E+02
107	  0.041242484	-3.930000E+00	  0.041242484	3.313400E+01	  0.041242484	8.774300E+01	  0.041242484	1.024580E+02
108	  0.041442886	-3.986000E+00	  0.041442886	3.106300E+01	  0.041442886	9.482300E+01	  0.041442886	1.029610E+02
109	  0.041643288	-4.038000E+00	  0.041643288	2.898900E+01	  0.041643288	1.023770E+02	  0.041643288	1.029750E+02
110	  0.041843686	-4.091000E+00	  0.041843686	2.693400E+01	  0.041843686	1.103150E+02	  0.041843686	1.022540E+02
111	  0.042044088	-4.144000E+00	  0.042044088	2.488000E+01	  0.042044088	1.186320E+02	  0.042044088	1.007380E+02
112	  0.042244490	-4.197000E+00	  0.042244490	2.283100E+01	  0.042244490	1.272180E+02	  0.042244490	9.827200E+01
113	  0.042444889	-4.251000E+00	  0.042444889	2.079200E+01	  0.042444889	1.359220E+02	  0.042444889	9.475000E+01
114	  0.042645290	-4.304000E+00	  0.042645290	1.876700E+01	  0.042645290	1.445670E+02	  0.042645290	9.011200E+01
115	  0.042845692	-4.356000E+00	  0.042845692	1.675700E+01	  0.042845692	1.529640E+02	  0.042845692	8.435100E+01
116	  0.043046094	-4.408000E+00	  0.043046094	1.474400E+01	  0.043046094	1.609610E+02	  0.043046094	7.735000E+01
117	  0.043246493	-4.459000E+00	  0.043246493	1.273200E+01	  0.043246493	1.683090E+02	  0.043246493	6.916800E+01
118	  0.043446895	-4.510000E+00	  0.043446895	1.072200E+01	  0.043446895	1.747480E+02	  0.043446895	5.987700E+01
119	  0.043647297	-4.557000E+00	  0.043647297	8.728000E+00	  0.043647297	1.801400E+02	  0.043647297	4.978600E+01
120	  0.043847695	-4.603000E+00	  0.043847695	6.735000E+00	  0.043847695	1.842470E+02	  0.043847695	3.892600E+01
121	  0.044048097	-4.650000E+00	  0.044048097	4.771000E+00	  0.044048097	1.868010E+02	  0.044048097	2.767900E+01
122	  0.044248499	-4.696000E+00	  0.044248499	2.801000E+00	  0.044248499	1.879150E+02	  0.044248499	1.618500E+01
123	  0.044448901	-4.738000E+00	  0.044448901	8.490000E-01	  0.044448901	1.876980E+02	  0.044448901	4.857000E+00
124	  0.044649299	-4.780000E+00	  0.044649299	-1.102000E+00	  0.044649299	1.860420E+02	  0.044649299	-6.185000E+00
125	  0.044849701	-4.826000E+00	  0.044849701	-3.044000E+00	  0.044849701	1.829560E+02	  0.044849701	-1.661700E+01
126	  0.045050103	-4.865000E+00	  0.045050103	-4.993000E+00	  0.045050103	1.789380E+02	  0.045050103	-2.640000E+01
127	  0.045250501	-4.906000E+00	  0.045250501	-6.928000E+00	  0.045250501	1.739510E+02	  0.045250501	-3.524300E+01
128	  0.045450903	-4.947000E+00	  0.045450903	-8.836000E+00	  0.045450903	1.682890E+02	  0.045450903	-4.302000E+01
129	  0.045651305	-4.989000E+00	  0.045651305	-1.075200E+01	  0.045651305	1.620610E+02	  0.045651305	-4.984600E+01
130	  0.045851704	-5.024000E+00	  0.045851704	-1.266000E+01	  0.045851704	1.556600E+02	  0.045851704	-5.581100E+01
131	  0.046052102	-5.063000E+00	  0.046052102	-1.453100E+01	  0.046052102	1.490820E+02	  0.046052102	-6.066900E+01
132	  0.046252504	-5.103000E+00	  0.046252504	-1.639200E+01	  0.046252504	1.424650E+02	  0.046252504	-6.464400E+01
133	  0.046452906	-5.139000E+00	  0.046452906	-1.823400E+01	  0.046452906	1.360090E+02	  0.046452906	-6.789000E+01
134	  0.046653304	-5.172000E+00	  0.046653304	-2.006400E+01	  0.046653304	1.297410E+02	  0.046653304	-7.050700E+01
135	  0.046853706	-5.209000E+00	  0.046853706	-2.184800E+01	  0.046853706	1.237420E+02	  0.046853706	-7.237000E+01
136	  0.047054108	-5.232000E+00	  0.047054108	-2.366700E+01	  0.047054108	1.179410E+02	  0.047054108	-7.403600E+01
137	  0.047254506	-5.259000E+00	  0.047254506	-2.549400E+01	  0.047254506	1.123040E+02	  0.047254506	-7.515300E+01
138	  0.047454908	-5.282000E+00	  0.047454908	-2.731400E+01	  0.047454908	1.069400E+02	  0.047454908	-7.591400E+01
139	  0.047655310	-5.306000E+00	  0.047655310	-2.913000E+01	  0.047655310	1.018290E+02	  0.047655310	-7.630100E+01
140	  0.047855709	-5.332000E+00	  0.047855709	-3.092600E+01	  0.047855709	9.702600E+01	  0.047855709	-7.634200E+01
141	  0.048056111	-5.358000E+00	  0.048056111	-3.272800E+01	  0.048056111	9.246400E+01	  0.048056111	-7.611000E+01
142	  0.048256513	-5.383000E+00	  0.048256513	-3.453500E+01	  0.048256513	8.814400E+01	  0.048256513	-7.567900E+01
143	  0.048456915	-5.408000E+00	  0.048456915	-3.633800E+01	  0.048456915	8.408000E+01	  0.048456915	-7.507100E+01
144	  0.048657313	-5.431000E+00	  0.048657313	-3.813400E+01	  0.048657313	8.026800E+01	  0.048657313	-7.432800E+01
145	  0.048857715	-5.457000E+00	  0.048857715	-3.991000E+01	  0.048857715	7.672900E+01	  0.048857715	-7.341500E+01
146	  0.049058117	-5.479000E+00	  0.049058117	-4.169600E+01	  0.049058117	7.337100E+01	  0.049058117	-7.245700E+01
147	  0.049258515	-5.501000E+00	  0.049258515	-4.346900E+01	  0.049258515	7.023900E+01	  0.049258515	-7.141300E+01
148	  0.049458917	-5.525000E+00	  0.049458917	-4.520500E+01	  0.049458917	6.735900E+01	  0.049458917	-7.030600E+01
149	  0.049659319	-5.548000E+00	  0.049659319	-4.693300E+01	  0.049659319	6.466400E+01	  0.049659319	-6.915400E+01
150	  0.049859721	-5.574000E+00	  0.049859721	-4.864000E+01	  0.049859721	6.217000E+01	  0.049859721	-6.794600E+01
151	  0.050060119	-5.596000E+00	  0.050060119	-5.036500E+01	  0.050060119	5.978100E+01	  0.050060119	-6.673900E+01
152	  0.050260521	-5.617000E+00	  0.050260521	-5.208200E+01	  0.050260521	5.753900E+01	  0.050260521	-6.552400E+01
153	  0.050460923	-5.635000E+00	  0.050460923	-5.378000E+01	  0.050460923	5.543900E+01	  0.050460923	-6.432300E+01
154	  0.050661322	-5.653000E+00	  0.050661322	-5.547300E+01	  0.050661322	5.346200E+01	  0.050661322	-6.312000E+01
155	  0.050861724	-5.671000E+00	  0.050861724	-5.715100E+01	  0.050861724	5.161200E+01	  0.050861724	-6.191700E+01
156	  0.051062126	-5.690000E+00	  0.051062126	-5.882100E+01	  0.051062126	4.988200E+01	  0.051062126	-6.070400E+01
157	  0.051262524	-5.710000E+00	  0.051262524	-6.043200E+01	  0.051262524	4.830700E+01	  0.051262524	-5.952900E+01
158	  0.051462926	-5.723000E+00	  0.051462926	-6.208800E+01	  0.051462926	4.674500E+01	  0.051462926	-5.836700E+01
159	  0.051663328	-5.742000E+00	  0.051663328	-6.370400E+01	  0.051663328	4.532300E+01	  0.051663328	-5.720600E+01
160	  0.051863730	-5.761000E+00	  0.051863730	-6.532600E+01	  0.051863730	4.397600E+01	  0.051863730	-5.603900E+01
161	  0.052064128	-5.773000E+00	  0.052064128	-6.693100E+01	  0.052064128	4.267900E+01	  0.052064128	-5.493800E+01
162	  0.052264530	-5.784000E+00	  0.052264530	-6.853500E+01	  0.052264530	4.144400E+01	  0.052264530	-5.384900E+01
163	  0.052464932	-5.798000E+00	  0.052464932	-7.010900E+01	  0.052464932	4.030500E+01	  0.052464932	-5.277000E+01
164	  0.052665330	-5.811000E+00	  0.052665330	-7.169000E+01	  0.052665330	3.921300E+01	  0.052665330	-5.170100E+01
165	  0.052865732	-5.826000E+00	  0.052865732	-7.323400E+01	  0.052865732	3.820900E+01	  0.052865732	-5.065600E+01
166	  0.053066134	-5.840000E+00	  0.053066134	-7.477300E+01	  0.053066134	3.725200E+01	  0.053066134	-4.962900E+01
167	  0.053266536	-5.852000E+00	  0.053266536	-7.629600E+01	  0.053266536	3.633900E+01	  0.053266536	-4.863500E+01
168	  0.053466935	-5.869000E+00	  0.053466935	-7.781500E+01	  0.053466935	3.549400E+01	  0.053466935	-4.763000E+01
169	  0.053667337	-5.877000E+00	  0.053667337	-7.934100E+01	  0.053667337	3.464300E+01	  0.053667337	-4.667000E+01
170	  0.053867739	-5.889000E+00	  0.053867739	-8.084800E+01	  0.053867739	3.386100E+01	  0.053867739	-4.571500E+01
171	  0.054068137	-5.900000E+00	  0.054068137	-8.233300E+01	  0.054068137	3.311600E+01	  0.054068137	-4.479000E+01
172	  0.054268539	-5.913000E+00	  0.054268539	-8.378700E+01	  0.054268539	3.243100E+01	  0.054268539	-4.388400E+01
173	  0.054468941	-5.926000E+00	  0.054468941	-8.527900E+01	  0.054468941	3.175300E+01	  0.054468941	-4.297100E+01
174	  0.054669335	-5.937000E+00	  0.054669335	-8.675800E+01	  0.054669335	3.110800E+01	  0.054669335	-4.207700E+01
175	  0.054869737	-5.949000E+00	  0.054869737	-8.821100E+01	  0.054869737	3.050200E+01	  0.054869737	-4.121000E+01
176	  0.055070139	-5.963000E+00	  0.055070139	-8.964000E+01	  0.055070139	2.993900E+01	  0.055070139	-4.035900E+01
177	  0.055270538	-5.973000E+00	  0.055270538	-9.108200E+01	  0.055270538	2.938100E+01	  0.055270538	-3.952300E+01
178	  0.055470940	-5.981000E+00	  0.055470940	-9.250800E+01	  0.055470940	2.884200E+01	  0.055470940	-3.871000E+01
179	  0.055671342	-5.990000E+00	  0.055671342	-9.393000E+01	  0.055671342	2.833100E+01	  0.055671342	-3.790600E+01
180	  0.055871744	-5.994000E+00	  0.055871744	-9.535200E+01	  0.055871744	2.782400E+01	  0.055871744	-3.712100E+01
181	  0.056072142	-6.003000E+00	  0.056072142	-9.678000E+01	  0.056072142	2.734800E+01	  0.056072142	-3.633200E+01
182	  0.056272544	-6.010000E+00	  0.056272544	-9.818300E+01	  0.056272544	2.689900E+01	  0.056272544	-3.556600E+01
183	  0.056472946	-6.018000E+00	  0.056472946	-9.956000E+01	  0.056472946	2.647500E+01	  0.056472946	-3.482100E+01
184	  0.056673344	-6.028000E+00	  0.056673344	-1.009100E+02	  0.056673344	2.608300E+01	  0.056673344	-3.409400E+01
185	  0.056873746	-6.033000E+00	  0.056873746	-1.022670E+02	  0.056873746	2.568400E+01	  0.056873746	-3.338200E+01
186	  0.057074148	-6.038000E+00	  0.057074148	-1.036370E+02	  0.057074148	2.529900E+01	  0.057074148	-3.266900E+01
187	  0.057274550	-6.042000E+00	  0.057274550	-1.050050E+02	  0.057274550	2.492400E+01	  0.057274550	-3.196600E+01
188	  0.057474948	-6.050000E+00	  0.057474948	-1.063500E+02	  0.057474948	2.458400E+01	  0.057474948	-3.127400E+01
189	  0.057675350	-6.052000E+00	  0.057675350	-1.077030E+02	  0.057675350	2.423300E+01	  0.057675350	-3.059500E+01
190	  0.057875752	-6.057000E+00	  0.057875752	-1.090290E+02	  0.057875752	2.391300E+01	  0.057875752	-2.993000E+01
191	  0.058076151	-6.062000E+00	  0.058076151	-1.103440E+02	  0.058076151	2.360800E+01	  0.058076151	-2.927600E+01
192	  0.058276553	-6.064000E+00	  0.058276553	-1.116440E+02	  0.058276553	2.330600E+01	  0.058276553	-2.864000E+01
193	  0.058476955	-6.069000E+00	  0.058476955	-1.129220E+02	  0.058476955	2.302800E+01	  0.058476955	-2.801600E+01
194	  0.058677353	-6.070000E+00	  0.058677353	-1.142100E+02	  0.058677353	2.274700E+01	  0.058677353	-2.739700E+01
195	  0.058877755	-6.075000E+00	  0.058877755	-1.154840E+02	  0.058877755	2.248900E+01	  0.058877755	-2.678600E+01
196	  0.059078157	-6.074000E+00	  0.059078157	-1.167480E+02	  0.059078157	2.222400E+01	  0.059078157	-2.619100E+01
197	  0.059278559	-6.079000E+00	  0.059278559	-1.180050E+02	  0.059278559	2.198800E+01	  0.059278559	-2.559600E+01
198	  0.059478957	-6.078000E+00	  0.059478957	-1.192480E+02	  0.059478957	2.174700E+01	  0.059478957	-2.501900E+01
199	  0.059679359	-6.083000E+00	  0.059679359	-1.204900E+02	  0.059679359	2.152800E+01	  0.059679359	-2.444100E+01
200	  0.059879761	-6.086000E+00	  0.059879761	-1.217180E+02	  0.059879761	2.131700E+01	  0.059879761	-2.387400E+01
201	  0.060080159	-6.085000E+00	  0.060080159	-1.229190E+02	  0.060080159	2.110500E+01	  0.060080159	-2.332800E+01
202	  0.060280561	-6.091000E+00	  0.060280561	-1.241380E+02	  0.060280561	2.091600E+01	  0.060280561	-2.277100E+01
203	  0.060480963	-6.096000E+00	  0.060480963	-1.253510E+02	  0.060480963	2.073100E+01	  0.060480963	-2.222100E+01
204	  0.060681365	-6.099000E+00	  0.060681365	-1.265150E+02	  0.060681365	2.055500E+01	  0.060681365	-2.169900E+01
205	  0.060881764	-6.098000E+00	  0.060881764	-1.277450E+02	  0.060881764	2.036500E+01	  0.060881764	-2.115500E+01
206	  0.061082166	-6.100000E+00	  0.061082166	-1.289390E+02	  0.061082166	2.019500E+01	  0.061082166	-2.062600E+01
207	  0.061282568	-6.103000E+00	  0.061282568	-1.301350E+02	  0.061282568	2.003300E+01	  0.061282568	-2.009900E+01
208	  0.061482966	-6.104000E+00	  0.061482966	-1.313020E+02	  0.061482966	1.987300E+01	  0.061482966	-1.959000E+01
209	  0.061683368	-6.106000E+00	  0.061683368	-1.324980E+02	  0.061683368	1.971900E+01	  0.061683368	-1.907000E+01
210	  0.061883770	-6.110000E+00	  0.061883770	-1.336670E+02	  0.061883770	1.957900E+01	  0.061883770	-1.856400E+01
211	  0.062084168	-6.113000E+00	  0.062084168	-1.348340E+02	  0.062084168	1.944300E+01	  0.062084168	-1.806100E+01
212	  0.062284570	-6.113000E+00	  0.062284570	-1.359970E+02	  0.062284570	1.930300E+01	  0.062284570	-1.756500E+01
213	  0.062484972	-6.109000E+00	  0.062484972	-1.371390E+02	  0.062484972	1.915900E+01	  0.062484972	-1.708400E+01
214	  0.062685370	-6.110000E+00	  0.062685370	-1.383190E+02	  0.062685370	1.903000E+01	  0.062685370	-1.658500E+01
215	  0.062885776	-6.112000E+00	  0.062885776	-1.394590E+02	  0.062885776	1.891100E+01	  0.062885776	-1.610500E+01
216	  0.063086174	-6.112000E+00	  0.063086174	-1.405900E+02	  0.063086174	1.879300E+01	  0.063086174	-1.563100E+01
217	  0.063286573	-6.117000E+00	  0.063286573	-1.417450E+02	  0.063286573	1.869000E+01	  0.063286573	-1.514800E+01
218	  0.063486971	-6.116000E+00	  0.063486971	-1.428740E+02	  0.063486971	1.857700E+01	  0.063486971	-1.468000E+01
219	  0.063687377	-6.115000E+00	  0.063687377	-1.439800E+02	  0.063687377	1.847300E+01	  0.063687377	-1.422400E+01
220	  0.063887775	-6.112000E+00	  0.063887775	-1.450660E+02	  0.063887775	1.836500E+01	  0.063887775	-1.377900E+01
221	  0.064088173	-6.115000E+00	  0.064088173	-1.461980E+02	  0.064088173	1.827800E+01	  0.064088173	-1.331300E+01
222	  0.064288579	-6.110000E+00	  0.064288579	-1.472620E+02	  0.064288579	1.817500E+01	  0.064288579	-1.288200E+01
223	  0.064488977	-6.115000E+00	  0.064488977	-1.483630E+02	  0.064488977	1.810100E+01	  0.064488977	-1.243100E+01
224	  0.064689375	-6.117000E+00	  0.064689375	-1.494260E+02	  0.064689375	1.802200E+01	  0.064689375	-1.199900E+01
225	  0.064889781	-6.113000E+00	  0.064889781	-1.504980E+02	  0.064889781	1.793300E+01	  0.064889781	-1.156800E+01
226	  0.065090179	-6.111000E+00	  0.065090179	-1.515520E+02	  0.065090179	1.785300E+01	  0.065090179	-1.114400E+01
227	  0.065290578	-6.106000E+00	  0.065290578	-1.525610E+02	  0.065290578	1.777100E+01	  0.065290578	-1.074100E+01
228	  0.065490983	-6.103000E+00	  0.065490983	-1.535850E+02	  0.065490983	1.769600E+01	  0.065490983	-1.033200E+01
229	  0.065691382	-6.094000E+00	  0.065691382	-1.546390E+02	  0.065691382	1.760800E+01	  0.065691382	-9.914000E+00
230	  0.065891780	-6.091000E+00	  0.065891780	-1.556590E+02	  0.065891780	1.753900E+01	  0.065891780	-9.508000E+00
231	  0.066092186	-6.086000E+00	  0.066092186	-1.566570E+02	  0.066092186	1.747000E+01	  0.066092186	-9.113000E+00
232	  0.066292584	-6.076000E+00	  0.066292584	-1.576710E+02	  0.066292584	1.738600E+01	  0.066292584	-8.714000E+00
233	  0.066492982	-6.068000E+00	  0.066492982	-1.586990E+02	  0.066492982	1.731300E+01	  0.066492982	-8.309000E+00
234	  0.066693388	-6.063000E+00	  0.066693388	-1.597080E+02	  0.066693388	1.725100E+01	  0.066693388	-7.911000E+00
235	  0.066893786	-6.054000E+00	  0.066893786	-1.607360E+02	  0.066893786	1.718100E+01	  0.066893786	-7.508000E+00
236	  0.067094192	-6.046000E+00	  0.067094192	-1.617320E+02	  0.067094192	1.711500E+01	  0.067094192	-7.118000E+00
237	  0.067294590	-6.039000E+00	  0.067294590	-1.627670E+02	  0.067294590	1.705500E+01	  0.067294590	-6.712000E+00
238	  0.067494988	-6.030000E+00	  0.067494988	-1.637590E+02	  0.067494988	1.699300E+01	  0.067494988	-6.324000E+00
239	  0.067695394	-6.022000E+00	  0.067695394	-1.647690E+02	  0.067695394	1.693500E+01	  0.067695394	-5.929000E+00
240	  0.067895792	-6.017000E+00	  0.067895792	-1.657960E+02	  0.067895792	1.688700E+01	  0.067895792	-5.528000E+00
241	  0.068096191	-6.010000E+00	  0.068096191	-1.668310E+02	  0.068096191	1.683700E+01	  0.068096191	-5.124000E+00
242	  0.068296596	-6.005000E+00	  0.068296596	-1.678720E+02	  0.068296596	1.679400E+01	  0.068296596	-4.718000E+00
243	  0.068496995	-6.002000E+00	  0.068496995	-1.688840E+02	  0.068496995	1.675900E+01	  0.068496995	-4.323000E+00
244	  0.068697393	-5.993000E+00	  0.068697393	-1.699130E+02	  0.068697393	1.671200E+01	  0.068697393	-3.922000E+00
245	  0.068897791	-5.987000E+00	  0.068897791	-1.709480E+02	  0.068897791	1.667500E+01	  0.068897791	-3.519000E+00
246	  0.069098189	-5.981000E+00	  0.069098189	-1.719640E+02	  0.069098189	1.663800E+01	  0.069098189	-3.124000E+00
247	  0.069298595	-5.975000E+00	  0.069298595	-1.729980E+02	  0.069298595	1.660600E+01	  0.069298595	-2.722000E+00
248	  0.069498993	-5.972000E+00	  0.069498993	-1.740240E+02	  0.069498993	1.658300E+01	  0.069498993	-2.323000E+00
249	  0.069699399	-5.972000E+00	  0.069699399	-1.750700E+02	  0.069699399	1.657100E+01	  0.069699399	-1.916000E+00
250	  0.069899797	-5.964000E+00	  0.069899797	-1.760840E+02	  0.069899797	1.654000E+01	  0.069899797	-1.522000E+00
251	  0.070100196	-5.965000E+00	  0.070100196	-1.770730E+02	  0.070100196	1.653500E+01	  0.070100196	-1.137000E+00
252	  0.070300601	-5.960000E+00	  0.070300601	-1.780900E+02	  0.070300601	1.651600E+01	  0.070300601	-7.420000E-01
253	  0.070501000	-5.957000E+00	  0.070501000	-1.791030E+02	  0.070501000	1.650500E+01	  0.070501000	-3.480000E-01
254	  0.070701398	-5.955000E+00	  0.070701398	1.799220E+02	  0.070701398	1.650000E+01	  0.070701398	3.000000E-02
255	  0.070901804	-5.951000E+00	  0.070901804	1.789150E+02	  0.070901804	1.649100E+01	  0.070901804	4.210000E-01
256	  0.071102202	-5.951000E+00	  0.071102202	1.778790E+02	  0.071102202	1.649300E+01	  0.071102202	8.240000E-01
257	  0.071302600	-5.951000E+00	  0.071302600	1.768760E+02	  0.071302600	1.649900E+01	  0.071302600	1.214000E+00
258	  0.071503006	-5.951000E+00	  0.071503006	1.758900E+02	  0.071503006	1.650900E+01	  0.071503006	1.598000E+00
259	  0.071703404	-5.949000E+00	  0.071703404	1.749200E+02	  0.071703404	1.651300E+01	  0.071703404	1.976000E+00
260	  0.071903802	-5.950000E+00	  0.071903802	1.739340E+02	  0.071903802	1.652800E+01	  0.071903802	2.360000E+00
261	  0.072104208	-5.954000E+00	  0.072104208	1.729660E+02	  0.072104208	1.655200E+01	  0.072104208	2.737000E+00
262	  0.072304606	-5.953000E+00	  0.072304606	1.719690E+02	  0.072304606	1.656700E+01	  0.072304606	3.126000E+00
263	  0.072505005	-5.954000E+00	  0.072505005	1.710180E+02	  0.072505005	1.658800E+01	  0.072505005	3.497000E+00
264	  0.072705410	-5.958000E+00	  0.072705410	1.700540E+02	  0.072705410	1.661900E+01	  0.072705410	3.873000E+00
265	  0.072905809	-5.959000E+00	  0.072905809	1.690860E+02	  0.072905809	1.664400E+01	  0.072905809	4.251000E+00
266	  0.073106214	-5.964000E+00	  0.073106214	1.681270E+02	  0.073106214	1.668200E+01	  0.073106214	4.625000E+00
267	  0.073306613	-5.969000E+00	  0.073306613	1.671800E+02	  0.073306613	1.672100E+01	  0.073306613	4.995000E+00
268	  0.073507011	-5.973000E+00	  0.073507011	1.662180E+02	  0.073507011	1.676100E+01	  0.073507011	5.372000E+00
269	  0.073707417	-5.979000E+00	  0.073707417	1.652760E+02	  0.073707417	1.680700E+01	  0.073707417	5.740000E+00
270	  0.073907815	-5.979000E+00	  0.073907815	1.643120E+02	  0.073907815	1.684000E+01	  0.073907815	6.119000E+00
271	  0.074108213	-5.987000E+00	  0.074108213	1.633790E+02	  0.074108213	1.689500E+01	  0.074108213	6.484000E+00
272	  0.074308619	-5.992000E+00	  0.074308619	1.624320E+02	  0.074308619	1.694600E+01	  0.074308619	6.856000E+00
273	  0.074509017	-5.999000E+00	  0.074509017	1.614650E+02	  0.074509017	1.700600E+01	  0.074509017	7.236000E+00
274	  0.074709415	-6.003000E+00	  0.074709415	1.605520E+02	  0.074709415	1.705600E+01	  0.074709415	7.596000E+00
275	  0.074909821	-6.008000E+00	  0.074909821	1.596090E+02	  0.074909821	1.711300E+01	  0.074909821	7.967000E+00
276	  0.075110219	-6.018000E+00	  0.075110219	1.586610E+02	  0.075110219	1.718500E+01	  0.075110219	8.340000E+00
277	  0.075310618	-6.021000E+00	  0.075310618	1.577530E+02	  0.075310618	1.723900E+01	  0.075310618	8.700000E+00
278	  0.075511023	-6.027000E+00	  0.075511023	1.568500E+02	  0.075511023	1.730400E+01	  0.075511023	9.057000E+00
279	  0.075711422	-6.035000E+00	  0.075711422	1.559230E+02	  0.075711422	1.737500E+01	  0.075711422	9.424000E+00
280	  0.075911827	-6.042000E+00	  0.075911827	1.550200E+02	  0.075911827	1.744800E+01	  0.075911827	9.782000E+00
281	  0.076112226	-6.052000E+00	  0.076112226	1.541130E+02	  0.076112226	1.752800E+01	  0.076112226	1.014100E+01
282	  0.076312624	-6.058000E+00	  0.076312624	1.531920E+02	  0.076312624	1.760200E+01	  0.076312624	1.050800E+01
283	  0.076513030	-6.069000E+00	  0.076513030	1.522670E+02	  0.076513030	1.769200E+01	  0.076513030	1.087500E+01
284	  0.076713428	-6.078000E+00	  0.076713428	1.513420E+02	  0.076713428	1.777900E+01	  0.076713428	1.124400E+01
285	  0.076913826	-6.087000E+00	  0.076913826	1.504250E+02	  0.076913826	1.786900E+01	  0.076913826	1.161000E+01
286	  0.077114232	-6.097000E+00	  0.077114232	1.495310E+02	  0.077114232	1.796300E+01	  0.077114232	1.196600E+01
287	  0.077314630	-6.107000E+00	  0.077314630	1.486440E+02	  0.077314630	1.805700E+01	  0.077314630	1.232100E+01
288	  0.077515028	-6.114000E+00	  0.077515028	1.477650E+02	  0.077515028	1.814500E+01	  0.077515028	1.267400E+01
289	  0.077715434	-6.127000E+00	  0.077715434	1.468910E+02	  0.077715434	1.825000E+01	  0.077715434	1.302400E+01
290	  0.077915832	-6.139000E+00	  0.077915832	1.459910E+02	  0.077915832	1.836000E+01	  0.077915832	1.338400E+01
291	  0.078116231	-6.150000E+00	  0.078116231	1.451140E+02	  0.078116231	1.846600E+01	  0.078116231	1.373700E+01
292	  0.078316636	-6.160000E+00	  0.078316636	1.442430E+02	  0.078316636	1.857200E+01	  0.078316636	1.408800E+01
293	  0.078517035	-6.177000E+00	  0.078517035	1.433200E+02	  0.078517035	1.870300E+01	  0.078517035	1.445700E+01
294	  0.078717433	-6.191000E+00	  0.078717433	1.424560E+02	  0.078717433	1.882300E+01	  0.078717433	1.480500E+01
295	  0.078917839	-6.203000E+00	  0.078917839	1.415720E+02	  0.078917839	1.894300E+01	  0.078917839	1.516300E+01
296	  0.079118237	-6.219000E+00	  0.079118237	1.407240E+02	  0.079118237	1.907400E+01	  0.079118237	1.550300E+01
297	  0.079318643	-6.233000E+00	  0.079318643	1.398420E+02	  0.079318643	1.920400E+01	  0.079318643	1.586000E+01
298	  0.079519041	-6.248000E+00	  0.079519041	1.389890E+02	  0.079519041	1.933700E+01	  0.079519041	1.620400E+01
299	  0.079719439	-6.262000E+00	  0.079719439	1.381240E+02	  0.079719439	1.947200E+01	  0.079719439	1.655500E+01
300	  0.079919845	-6.280000E+00	  0.079919845	1.372600E+02	  0.079919845	1.961900E+01	  0.079919845	1.690300E+01
301	  0.080120243	-6.295000E+00	  0.080120243	1.363840E+02	  0.080120243	1.976400E+01	  0.080120243	1.725900E+01
302	  0.080320641	-6.309000E+00	  0.080320641	1.355350E+02	  0.080320641	1.990600E+01	  0.080320641	1.760500E+01
303	  0.080521047	-6.323000E+00	  0.080521047	1.346460E+02	  0.080521047	2.005600E+01	  0.080521047	1.796900E+01
304	  0.080721445	-6.343000E+00	  0.080721445	1.337830E+02	  0.080721445	2.022100E+01	  0.080721445	1.831700E+01
305	  0.080921844	-6.359000E+00	  0.080921844	1.329600E+02	  0.080921844	2.037400E+01	  0.080921844	1.865200E+01
306	  0.081122249	-6.372000E+00	  0.081122249	1.321290E+02	  0.081122249	2.052200E+01	  0.081122249	1.899400E+01
307	  0.081322648	-6.394000E+00	  0.081322648	1.312820E+02	  0.081322648	2.070100E+01	  0.081322648	1.933500E+01
308	  0.081523046	-6.411000E+00	  0.081523046	1.304530E+02	  0.081523046	2.086500E+01	  0.081523046	1.967400E+01
309	  0.081723452	-6.429000E+00	  0.081723452	1.295970E+02	  0.081723452	2.103900E+01	  0.081723452	2.002300E+01
310	  0.081923850	-6.442000E+00	  0.081923850	1.287580E+02	  0.081923850	2.120300E+01	  0.081923850	2.037100E+01
311	  0.082124248	-6.461000E+00	  0.082124248	1.279350E+02	  0.082124248	2.138100E+01	  0.082124248	2.070700E+01
312	  0.082324654	-6.477000E+00	  0.082324654	1.271110E+02	  0.082324654	2.155500E+01	  0.082324654	2.104600E+01
313	  0.082525052	-6.497000E+00	  0.082525052	1.263030E+02	  0.082525052	2.174400E+01	  0.082525052	2.137400E+01
314	  0.082725458	-6.516000E+00	  0.082725458	1.255240E+02	  0.082725458	2.192400E+01	  0.082725458	2.169200E+01
315	  0.082925856	-6.536000E+00	  0.082925856	1.247140E+02	  0.082925856	2.211800E+01	  0.082925856	2.202300E+01
316	  0.083126254	-6.557000E+00	  0.083126254	1.239000E+02	  0.083126254	2.231900E+01	  0.083126254	2.235400E+01
317	  0.083326660	-6.579000E+00	  0.083326660	1.231070E+02	  0.083326660	2.252400E+01	  0.083326660	2.267400E+01
318	  0.083527058	-6.600000E+00	  0.083527058	1.223030E+02	  0.083527058	2.272900E+01	  0.083527058	2.300100E+01
319	  0.083727457	-6.624000E+00	  0.083727457	1.215380E+02	  0.083727457	2.294000E+01	  0.083727457	2.330700E+01
320	  0.083927862	-6.648000E+00	  0.083927862	1.207580E+02	  0.083927862	2.315500E+01	  0.083927862	2.362200E+01
321	  0.084128261	-6.671000E+00	  0.084128261	1.199790E+02	  0.084128261	2.337400E+01	  0.084128261	2.393500E+01
322	  0.084328659	-6.700000E+00	  0.084328659	1.192430E+02	  0.084328659	2.360300E+01	  0.084328659	2.422200E+01
323	  0.084529065	-6.723000E+00	  0.084529065	1.184790E+02	  0.084529065	2.382400E+01	  0.084529065	2.452900E+01
324	  0.084729463	-6.752000E+00	  0.084729463	1.176840E+02	  0.084729463	2.407400E+01	  0.084729463	2.484100E+01
325	  0.084929854	-6.780000E+00	  0.084929854	1.169640E+02	  0.084929854	2.430600E+01	  0.084929854	2.512200E+01
326	  0.085130259	-6.807000E+00	  0.085130259	1.161890E+02	  0.085130259	2.455300E+01	  0.085130259	2.542700E+01
327	  0.085330658	-6.833000E+00	  0.085330658	1.154560E+02	  0.085330658	2.479000E+01	  0.085330658	2.571500E+01
328	  0.085531056	-6.864000E+00	  0.085531056	1.146930E+02	  0.085531056	2.505300E+01	  0.085531056	2.600800E+01
329	  0.085731462	-6.897000E+00	  0.085731462	1.139580E+02	  0.085731462	2.532000E+01	  0.085731462	2.628400E+01
330	  0.085931860	-6.922000E+00	  0.085931860	1.132320E+02	  0.085931860	2.556200E+01	  0.085931860	2.657000E+01
331	  0.086132258	-6.956000E+00	  0.086132258	1.125540E+02	  0.086132258	2.582400E+01	  0.086132258	2.681800E+01
332	  0.086332664	-6.989000E+00	  0.086332664	1.118530E+02	  0.086332664	2.609200E+01	  0.086332664	2.707700E+01
333	  0.086533062	-7.017000E+00	  0.086533062	1.111330E+02	  0.086533062	2.635500E+01	  0.086533062	2.735200E+01
334	  0.086733460	-7.050000E+00	  0.086733460	1.104460E+02	  0.086733460	2.662600E+01	  0.086733460	2.760200E+01
335	  0.086933866	-7.077000E+00	  0.086933866	1.097570E+02	  0.086933866	2.688400E+01	  0.086933866	2.786400E+01
336	  0.087134264	-7.104000E+00	  0.087134264	1.090970E+02	  0.087134264	2.713700E+01	  0.087134264	2.811100E+01
337	  0.087334670	-7.132000E+00	  0.087334670	1.084230E+02	  0.087334670	2.740000E+01	  0.087334670	2.836200E+01
338	  0.087535068	-7.160000E+00	  0.087535068	1.077990E+02	  0.087535068	2.765300E+01	  0.087535068	2.858900E+01
339	  0.087735467	-7.184000E+00	  0.087735467	1.071330E+02	  0.087735467	2.790900E+01	  0.087735467	2.884200E+01
340	  0.087935872	-7.209000E+00	  0.087935872	1.065200E+02	  0.087935872	2.815600E+01	  0.087935872	2.906900E+01
341	  0.088136271	-7.225000E+00	  0.088136271	1.058460E+02	  0.088136271	2.839800E+01	  0.088136271	2.933800E+01
342	  0.088336669	-7.241000E+00	  0.088336669	1.051920E+02	  0.088336669	2.863600E+01	  0.088336669	2.959900E+01
343	  0.088537075	-7.254000E+00	  0.088537075	1.045460E+02	  0.088537075	2.886800E+01	  0.088537075	2.986200E+01
344	  0.088737473	-7.262000E+00	  0.088737473	1.038800E+02	  0.088737473	2.909300E+01	  0.088737473	3.014400E+01
345	  0.088937871	-7.277000E+00	  0.088937871	1.031600E+02	  0.088937871	2.935900E+01	  0.088937871	3.043500E+01
346	  0.089138277	-7.289000E+00	  0.089138277	1.024880E+02	  0.089138277	2.960600E+01	  0.089138277	3.071100E+01
347	  0.089338675	-7.303000E+00	  0.089338675	1.018140E+02	  0.089338675	2.986500E+01	  0.089338675	3.098300E+01
348	  0.089539073	-7.322000E+00	  0.089539073	1.011070E+02	  0.089539073	3.015000E+01	  0.089539073	3.126000E+01
349	  0.089739479	-7.339000E+00	  0.089739479	1.004440E+02	  0.089739479	3.042200E+01	  0.089739479	3.151900E+01
350	  0.089939877	-7.350000E+00	  0.089939877	9.974500E+01	  0.089939877	3.069000E+01	  0.089939877	3.180800E+01
351	  0.090140276	-7.373000E+00	  0.090140276	9.906500E+01	  0.090140276	3.099100E+01	  0.090140276	3.206200E+01
352	  0.090340681	-7.399000E+00	  0.090340681	9.836600E+01	  0.090340681	3.131300E+01	  0.090340681	3.231400E+01
353	  0.090541080	-7.422000E+00	  0.090541080	9.768400E+01	  0.090541080	3.162500E+01	  0.090541080	3.256400E+01
354	  0.090741485	-7.446000E+00	  0.090741485	9.704200E+01	  0.090741485	3.192900E+01	  0.090741485	3.279300E+01
355	  0.090941884	-7.470000E+00	  0.090941884	9.637500E+01	  0.090941884	3.224400E+01	  0.090941884	3.303300E+01
356	  0.091142282	-7.504000E+00	  0.091142282	9.573100E+01	  0.091142282	3.258500E+01	  0.091142282	3.323500E+01
357	  0.091342688	-7.532000E+00	  0.091342688	9.505700E+01	  0.091342688	3.292500E+01	  0.091342688	3.346200E+01
358	  0.091543086	-7.561000E+00	  0.091543086	9.441500E+01	  0.091543086	3.325700E+01	  0.091543086	3.367300E+01
359	  0.091743484	-7.590000E+00	  0.091743484	9.380800E+01	  0.091743484	3.358000E+01	  0.091743484	3.386500E+01
360	  0.091943890	-7.623000E+00	  0.091943890	9.311500E+01	  0.091943890	3.395300E+01	  0.091943890	3.408200E+01
361	  0.092144288	-7.654000E+00	  0.092144288	9.248200E+01	  0.092144288	3.430100E+01	  0.092144288	3.427500E+01
362	  0.092344686	-7.684000E+00	  0.092344686	9.184900E+01	  0.092344686	3.464900E+01	  0.092344686	3.446800E+01
363	  0.092545092	-7.720000E+00	  0.092545092	9.124900E+01	  0.092545092	3.500300E+01	  0.092545092	3.462900E+01
364	  0.092745490	-7.751000E+00	  0.092745490	9.060500E+01	  0.092745490	3.536600E+01	  0.092745490	3.481900E+01
365	  0.092945889	-7.791000E+00	  0.092945889	9.004300E+01	  0.092945889	3.572300E+01	  0.092945889	3.494500E+01
366	  0.093146294	-7.823000E+00	  0.093146294	8.942500E+01	  0.093146294	3.608300E+01	  0.093146294	3.511500E+01
367	  0.093346693	-7.859000E+00	  0.093346693	8.878300E+01	  0.093346693	3.647000E+01	  0.093346693	3.528200E+01
368	  0.093547091	-7.893000E+00	  0.093547091	8.819800E+01	  0.093547091	3.683100E+01	  0.093547091	3.542400E+01
369	  0.093747497	-7.932000E+00	  0.093747497	8.761400E+01	  0.093747497	3.720400E+01	  0.093747497	3.555100E+01
370	  0.093947895	-7.962000E+00	  0.093947895	8.700500E+01	  0.093947895	3.757100E+01	  0.093947895	3.571000E+01
371	  0.094148301	-7.998000E+00	  0.094148301	8.641000E+01	  0.094148301	3.794800E+01	  0.094148301	3.584300E+01
372	  0.094348699	-8.036000E+00	  0.094348699	8.583300E+01	  0.094348699	3.832600E+01	  0.094348699	3.595900E+01
373	  0.094549097	-8.075000E+00	  0.094549097	8.523800E+01	  0.094549097	3.871800E+01	  0.094549097	3.607300E+01
374	  0.094749503	-8.109000E+00	  0.094749503	8.466800E+01	  0.094749503	3.908800E+01	  0.094749503	3.619100E+01
375	  0.094949901	-8.140000E+00	  0.094949901	8.412700E+01	  0.094949901	3.943600E+01	  0.094949901	3.630600E+01
376	  0.095150299	-8.175000E+00	  0.095150299	8.356800E+01	  0.095150299	3.980900E+01	  0.095150299	3.640800E+01
377	  0.095350705	-8.207000E+00	  0.095350705	8.300100E+01	  0.095350705	4.017900E+01	  0.095350705	3.652200E+01
378	  0.095551103	-8.242000E+00	  0.095551103	8.241600E+01	  0.095551103	4.057100E+01	  0.095551103	3.662700E+01
379	  0.095751502	-8.272000E+00	  0.095751502	8.187300E+01	  0.095751502	4.093000E+01	  0.095751502	3.673200E+01
380	  0.095951907	-8.303000E+00	  0.095951907	8.134600E+01	  0.095951907	4.128400E+01	  0.095951907	3.682300E+01
381	  0.096152306	-8.341000E+00	  0.096152306	8.083700E+01	  0.096152306	4.164800E+01	  0.096152306	3.688100E+01
382	  0.096352704	-8.371000E+00	  0.096352704	8.034600E+01	  0.096352704	4.198600E+01	  0.096352704	3.695500E+01
383	  0.096553110	-8.400000E+00	  0.096553110	7.984100E+01	  0.096553110	4.233300E+01	  0.096553110	3.703300E+01
384	  0.096753508	-8.432000E+00	  0.096753508	7.937000E+01	  0.096753508	4.266700E+01	  0.096753508	3.708800E+01
385	  0.096953906	-8.461000E+00	  0.096953906	7.886200E+01	  0.096953906	4.301600E+01	  0.096953906	3.716400E+01
386	  0.097154312	-8.492000E+00	  0.097154312	7.838300E+01	  0.097154312	4.335700E+01	  0.097154312	3.721700E+01
387	  0.097354710	-8.526000E+00	  0.097354710	7.795000E+01	  0.097354710	4.368100E+01	  0.097354710	3.724000E+01
388	  0.097555116	-8.554000E+00	  0.097555116	7.749300E+01	  0.097555116	4.400500E+01	  0.097555116	3.729000E+01
389	  0.097755514	-8.585000E+00	  0.097755514	7.704800E+01	  0.097755514	4.433000E+01	  0.097755514	3.732500E+01
390	  0.097955912	-8.615000E+00	  0.097955912	7.660000E+01	  0.097955912	4.465700E+01	  0.097955912	3.735900E+01
391	  0.098156318	-8.647000E+00	  0.098156318	7.620600E+01	  0.098156318	4.495500E+01	  0.098156318	3.736900E+01
392	  0.098356716	-8.675000E+00	  0.098356716	7.580100E+01	  0.098356716	4.525500E+01	  0.098356716	3.738900E+01
393	  0.098557115	-8.703000E+00	  0.098557115	7.535800E+01	  0.098557115	4.557600E+01	  0.098557115	3.742300E+01
394	  0.098757520	-8.736000E+00	  0.098757520	7.497200E+01	  0.098757520	4.587500E+01	  0.098757520	3.741400E+01
395	  0.098957919	-8.765000E+00	  0.098957919	7.456600E+01	  0.098957919	4.618000E+01	  0.098957919	3.742400E+01
396	  0.099158317	-8.793000E+00	  0.099158317	7.415500E+01	  0.099158317	4.648300E+01	  0.099158317	3.744100E+01
397	  0.099358723	-8.825000E+00	  0.099358723	7.376800E+01	  0.099358723	4.678300E+01	  0.099358723	3.742900E+01
398	  0.099559121	-8.855000E+00	  0.099559121	7.338900E+01	  0.099559121	4.707500E+01	  0.099559121	3.741800E+01
399	  0.099759519	-8.878000E+00	  0.099759519	7.304200E+01	  0.099759519	4.733300E+01	  0.099759519	3.742700E+01
400	  0.099959925	-8.907000E+00	  0.099959925	7.266900E+01	  0.099959925	4.761900E+01	  0.099959925	3.741400E+01
401	  0.100160323	-8.936000E+00	  0.100160323	7.227200E+01	  0.100160323	4.792100E+01	  0.100160323	3.740600E+01
402	  0.100360721	-8.955000E+00	  0.100360721	7.187900E+01	  0.100360721	4.820300E+01	  0.100360721	3.743800E+01
403	  0.100561127	-8.993000E+00	  0.100561127	7.152100E+01	  0.100561127	4.849600E+01	  0.100561127	3.737900E+01
404	  0.100761525	-8.998000E+00	  0.100761525	7.113200E+01	  0.100761525	4.875200E+01	  0.100761525	3.746200E+01
405	  0.100961931	-9.026000E+00	  0.100961931	7.078500E+01	  0.100961931	4.902300E+01	  0.100961931	3.743400E+01
406	  0.101162329	-9.050000E+00	  0.101162329	7.041400E+01	  0.101162329	4.930200E+01	  0.101162329	3.743000E+01
407	  0.101362728	-9.075000E+00	  0.101362728	7.005600E+01	  0.101362728	4.957600E+01	  0.101362728	3.741200E+01
408	  0.101563133	-9.088000E+00	  0.101563133	6.973600E+01	  0.101563133	4.980500E+01	  0.101563133	3.743700E+01
409	  0.101763532	-9.105000E+00	  0.101763532	6.933600E+01	  0.101763532	5.009300E+01	  0.101763532	3.746200E+01
410	  0.101963930	-9.123000E+00	  0.101963930	6.893500E+01	  0.101963930	5.038600E+01	  0.101963930	3.747900E+01
411	  0.102164328	-9.133000E+00	  0.102164328	6.857300E+01	  0.102164328	5.064000E+01	  0.102164328	3.752500E+01
412	  0.102364726	-9.139000E+00	  0.102364726	6.823500E+01	  0.102364726	5.087400E+01	  0.102364726	3.757600E+01
413	  0.102565125	-9.150000E+00	  0.102565125	6.787900E+01	  0.102565125	5.113000E+01	  0.102565125	3.760700E+01
414	  0.102765530	-9.161000E+00	  0.102765530	6.754600E+01	  0.102765530	5.137000E+01	  0.102765530	3.763600E+01
415	  0.102965929	-9.160000E+00	  0.102965929	6.717100E+01	  0.102965929	5.162200E+01	  0.102965929	3.772200E+01
416	  0.103166327	-9.165000E+00	  0.103166327	6.683400E+01	  0.103166327	5.186000E+01	  0.103166327	3.777100E+01
417	  0.103366733	-9.175000E+00	  0.103366733	6.643200E+01	  0.103366733	5.214900E+01	  0.103366733	3.781500E+01
418	  0.103567131	-9.163000E+00	  0.103567131	6.607300E+01	  0.103567131	5.238100E+01	  0.103567131	3.794200E+01
419	  0.103767529	-9.174000E+00	  0.103767529	6.571400E+01	  0.103767529	5.264600E+01	  0.103767529	3.796700E+01
420	  0.103967935	-9.159000E+00	  0.103967935	6.535800E+01	  0.103967935	5.287500E+01	  0.103967935	3.810900E+01
421	  0.104168333	-9.160000E+00	  0.104168333	6.501600E+01	  0.104168333	5.311700E+01	  0.104168333	3.817300E+01
422	  0.104368731	-9.146000E+00	  0.104368731	6.466600E+01	  0.104368731	5.334800E+01	  0.104368731	3.830700E+01
423	  0.104569137	-9.135000E+00	  0.104569137	6.432600E+01	  0.104569137	5.357700E+01	  0.104569137	3.842600E+01
424	  0.104769535	-9.131000E+00	  0.104769535	6.394100E+01	  0.104769535	5.385000E+01	  0.104769535	3.851900E+01
425	  0.104969934	-9.113000E+00	  0.104969934	6.353600E+01	  0.104969934	5.412300E+01	  0.104969934	3.867900E+01
426	  0.105170339	-9.101000E+00	  0.105170339	6.319300E+01	  0.105170339	5.435900E+01	  0.105170339	3.880300E+01
427	  0.105370738	-9.091000E+00	  0.105370738	6.283600E+01	  0.105370738	5.461100E+01	  0.105370738	3.891300E+01
428	  0.105571143	-9.075000E+00	  0.105571143	6.243400E+01	  0.105571143	5.489300E+01	  0.105571143	3.906300E+01
429	  0.105771542	-9.060000E+00	  0.105771542	6.197000E+01	  0.105771542	5.522300E+01	  0.105771542	3.922300E+01
430	  0.105971940	-9.047000E+00	  0.105971940	6.163900E+01	  0.105971940	5.546000E+01	  0.105971940	3.934400E+01
431	  0.106172346	-9.028000E+00	  0.106172346	6.120000E+01	  0.106172346	5.577500E+01	  0.106172346	3.951200E+01
432	  0.106372744	-9.009000E+00	  0.106372744	6.075500E+01	  0.106372744	5.609800E+01	  0.106372744	3.968400E+01
433	  0.106573142	-8.994000E+00	  0.106573142	6.036200E+01	  0.106573142	5.638900E+01	  0.106573142	3.982400E+01
434	  0.106773548	-8.974000E+00	  0.106773548	5.986800E+01	  0.106773548	5.675900E+01	  0.106773548	4.000100E+01
435	  0.106973946	-8.949000E+00	  0.106973946	5.943400E+01	  0.106973946	5.707900E+01	  0.106973946	4.019900E+01
436	  0.107174344	-8.933000E+00	  0.107174344	5.894000E+01	  0.107174344	5.746200E+01	  0.107174344	4.035900E+01
437	  0.107374750	-8.917000E+00	  0.107374750	5.844900E+01	  0.107374750	5.784600E+01	  0.107374750	4.051300E+01
438	  0.107575148	-8.889000E+00	  0.107575148	5.797400E+01	  0.107575148	5.821200E+01	  0.107575148	4.072800E+01
439	  0.107775547	-8.871000E+00	  0.107775547	5.742800E+01	  0.107775547	5.865100E+01	  0.107775547	4.090100E+01
440	  0.107975952	-8.849000E+00	  0.107975952	5.693000E+01	  0.107975952	5.905300E+01	  0.107975952	4.108200E+01
441	  0.108176351	-8.829000E+00	  0.108176351	5.638700E+01	  0.108176351	5.949900E+01	  0.108176351	4.126400E+01
442	  0.108376749	-8.807000E+00	  0.108376749	5.580800E+01	  0.108376749	5.998200E+01	  0.108376749	4.145100E+01
443	  0.108577155	-8.781000E+00	  0.108577155	5.526100E+01	  0.108577155	6.044200E+01	  0.108577155	4.166000E+01
444	  0.108777553	-8.765000E+00	  0.108777553	5.463300E+01	  0.108777553	6.098800E+01	  0.108777553	4.181100E+01
445	  0.108977959	-8.740000E+00	  0.108977959	5.406100E+01	  0.108977959	6.148500E+01	  0.108977959	4.201000E+01
446	  0.109178357	-8.722000E+00	  0.109178357	5.341200E+01	  0.109178357	6.206500E+01	  0.109178357	4.217200E+01
447	  0.109378755	-8.702000E+00	  0.109378755	5.280800E+01	  0.109378755	6.261100E+01	  0.109378755	4.233400E+01
448	  0.109579161	-8.682000E+00	  0.109579161	5.213100E+01	  0.109579161	6.323300E+01	  0.109579161	4.249800E+01
449	  0.109779559	-8.658000E+00	  0.109779559	5.148600E+01	  0.109779559	6.383500E+01	  0.109779559	4.267900E+01
450	  0.109979957	-8.643000E+00	  0.109979957	5.081800E+01	  0.109979957	6.447100E+01	  0.109979957	4.279500E+01
451	  0.110180363	-8.625000E+00	  0.110180363	5.013400E+01	  0.110180363	6.513100E+01	  0.110180363	4.293000E+01
452	  0.110380761	-8.612000E+00	  0.110380761	4.945000E+01	  0.110380761	6.580200E+01	  0.110380761	4.302000E+01
453	  0.110581160	-8.597000E+00	  0.110581160	4.875900E+01	  0.110581160	6.649000E+01	  0.110581160	4.312000E+01
454	  0.110781565	-8.585000E+00	  0.110781565	4.806600E+01	  0.110781565	6.718900E+01	  0.110781565	4.318600E+01
455	  0.110981964	-8.571000E+00	  0.110981964	4.734500E+01	  0.110981964	6.792600E+01	  0.110981964	4.325400E+01
456	  0.111182362	-8.565000E+00	  0.111182362	4.663400E+01	  0.111182362	6.866200E+01	  0.111182362	4.326100E+01
457	  0.111382768	-8.546000E+00	  0.111382768	4.590600E+01	  0.111382768	6.943000E+01	  0.111382768	4.333700E+01
458	  0.111583166	-8.539000E+00	  0.111583166	4.517900E+01	  0.111583166	7.020100E+01	  0.111583166	4.332400E+01
459	  0.111783572	-8.536000E+00	  0.111783572	4.444200E+01	  0.111783572	7.099000E+01	  0.111783572	4.326800E+01
460	  0.111983970	-8.526000E+00	  0.111983970	4.366000E+01	  0.111983970	7.184200E+01	  0.111983970	4.323500E+01
461	  0.112184368	-8.521000E+00	  0.112184368	4.288200E+01	  0.112184368	7.269400E+01	  0.112184368	4.315500E+01
462	  0.112384774	-8.518000E+00	  0.112384774	4.214500E+01	  0.112384774	7.350900E+01	  0.112384774	4.305300E+01
463	  0.112585172	-8.517000E+00	  0.112585172	4.135800E+01	  0.112585172	7.438400E+01	  0.112585172	4.290900E+01
464	  0.112785570	-8.509000E+00	  0.112785570	4.057600E+01	  0.112785570	7.527100E+01	  0.112785570	4.279500E+01
465	  0.112985976	-8.508000E+00	  0.112985976	3.974700E+01	  0.112985976	7.620700E+01	  0.112985976	4.259400E+01
466	  0.113186374	-8.506000E+00	  0.113186374	3.894200E+01	  0.113186374	7.712700E+01	  0.113186374	4.239300E+01
467	  0.113386773	-8.507000E+00	  0.113386773	3.813400E+01	  0.113386773	7.805000E+01	  0.113386773	4.213900E+01
468	  0.113587178	-8.506000E+00	  0.113587178	3.728000E+01	  0.113587178	7.903500E+01	  0.113587178	4.186200E+01
469	  0.113787577	-8.509000E+00	  0.113787577	3.642700E+01	  0.113787577	8.001400E+01	  0.113787577	4.152600E+01
470	  0.113987975	-8.514000E+00	  0.113987975	3.556400E+01	  0.113987975	8.100500E+01	  0.113987975	4.114800E+01
471	  0.114188381	-8.517000E+00	  0.114188381	3.472900E+01	  0.114188381	8.197000E+01	  0.114188381	4.076900E+01
472	  0.114388779	-8.524000E+00	  0.114388779	3.383700E+01	  0.114388779	8.299000E+01	  0.114388779	4.030000E+01
473	  0.114589177	-8.530000E+00	  0.114589177	3.291000E+01	  0.114589177	8.405200E+01	  0.114589177	3.978800E+01
474	  0.114789583	-8.541000E+00	  0.114789583	3.196600E+01	  0.114789583	8.511300E+01	  0.114789583	3.919400E+01
475	  0.114989981	-8.547000E+00	  0.114989981	3.104900E+01	  0.114989981	8.615500E+01	  0.114989981	3.861400E+01
476	  0.115190387	-8.563000E+00	  0.115190387	3.014700E+01	  0.115190387	8.713500E+01	  0.115190387	3.793600E+01
477	  0.115390785	-8.581000E+00	  0.115390785	2.919600E+01	  0.115390785	8.814900E+01	  0.115390785	3.717200E+01
478	  0.115591183	-8.597000E+00	  0.115591183	2.821900E+01	  0.115591183	8.919000E+01	  0.115591183	3.637200E+01
479	  0.115791589	-8.617000E+00	  0.115791589	2.726500E+01	  0.115791589	9.016200E+01	  0.115791589	3.550900E+01
480	  0.115991987	-8.642000E+00	  0.115991987	2.629200E+01	  0.115991987	9.111500E+01	  0.115991987	3.457100E+01
481	  0.116192386	-8.665000E+00	  0.116192386	2.534500E+01	  0.116192386	9.202200E+01	  0.116192386	3.362500E+01
482	  0.116392791	-8.695000E+00	  0.116392791	2.436500E+01	  0.116392791	9.289800E+01	  0.116392791	3.256400E+01
483	  0.116593190	-8.724000E+00	  0.116593190	2.334000E+01	  0.116593190	9.378900E+01	  0.116593190	3.143300E+01
484	  0.116793588	-8.756000E+00	  0.116793588	2.232300E+01	  0.116793588	9.462600E+01	  0.116793588	3.026200E+01
485	  0.116993994	-8.793000E+00	  0.116993994	2.132700E+01	  0.116993994	9.535900E+01	  0.116993994	2.903500E+01
486	  0.117194392	-8.824000E+00	  0.117194392	2.034500E+01	  0.117194392	9.608600E+01	  0.117194392	2.783900E+01
487	  0.117394790	-8.859000E+00	  0.117394790	1.931400E+01	  0.117394790	9.678600E+01	  0.117394790	2.653600E+01
488	  0.117595196	-8.903000E+00	  0.117595196	1.833900E+01	  0.117595196	9.732700E+01	  0.117595196	2.522000E+01
489	  0.117795594	-8.942000E+00	  0.117795594	1.730700E+01	  0.117795594	9.789600E+01	  0.117795594	2.384500E+01
490	  0.117995992	-8.982000E+00	  0.117995992	1.619300E+01	  0.117995992	9.847900E+01	  0.117995992	2.235500E+01
491	  0.118196398	-9.027000E+00	  0.118196398	1.514900E+01	  0.118196398	9.890200E+01	  0.118196398	2.089700E+01
492	  0.118396796	-9.075000E+00	  0.118396796	1.404000E+01	  0.118396796	9.929400E+01	  0.118396796	1.933900E+01
493	  0.118597202	-9.126000E+00	  0.118597202	1.291400E+01	  0.118597202	9.960800E+01	  0.118597202	1.773900E+01
494	  0.118797600	-9.181000E+00	  0.118797600	1.176300E+01	  0.118797600	9.982800E+01	  0.118797600	1.608500E+01
