! Anritsu VNA Master:             	Model: MS2036C/10/77
! SN:             	1601066
! /bd0/18may10/255.ns.m6.txt
! Existing Calibration Information:
! TYPE:             	Current Settings	Active Cal Settings
! TIME:             	05/10/2018 02:37:29 PM	05/10/2018 02:31:48 PM
! INTERNAL TEMP:    	60.3 C	59.5 C
! # POINTS:         	492	492
! START FREQ:       	20.000 MHz	20.000 MHz
! STOP FREQ:        	118.396 793 MHz	118.396 793 MHz
! SOURCE POWER:     	High	High
! IFBW:             	50 Hz	50 Hz
! AVG FACTOR:       	  1 	  1 
! REF PLANE 1:      	0 mm	0 mm
! REF PLANE 2:      	0 mm	0 mm
! CAL TYPE:         	Full S22	Full S22
! CAL METHOD:       	SOLT	SOLT
! CAL LINE TYPE:    	Coax	Coax
! DUT PORT 1:       	K-Conn(M)	K-Conn(M)
! DUT PORT 2:       	K-Conn(M)	K-Conn(M)
! CAL STATUS:       	OK: Accuracy High	--
! PROP-V:       	0.700
! CABLE LOSS:       	0.000 dB/m
! REF IMPEDANCE:       	50.0
! Trace Specific Parameters:	TR1	TR2	TR3	TR4
! TRACE.#.Y (GRAPH TYPE)	LOG MAG	PHASE	REAL IMPEDANCE	IMAGINARY IMPEDANCE
! TRACE.#.X 	FREQ.GHZ	FREQ.GHZ	FREQ.GHZ	FREQ.GHZ
! S-PARAMETER	S22	S22	S22	S22
! SMOOTH/APERTURE %	0	0	0	0
! WINDOW	NSL	NSL	NSL	NSL
! GATING	OFF	OFF	OFF	OFF
! FGTD	OFF	OFF	OFF	OFF
Marker Information per Trace:	TR1	TR2	TR3	TR4
!MK1	--	"MK1 TR2:  20.000 MHz,PH:-125.64°"	--	--
!MK2	--	--	"MK2 TR3:  70.100 200 MHz,Z:(17.341 ohm, -1.406 ohm)"	--
!MK3	--	--	--	--
!MK4	--	--	--	--
!MK5	--	--	--	--
!MK6	--	--	--	--
!MK7	--	--	--	--
!MK8	--	--	--	--
PNT	TR1.FREQ.GHZ	TR1.LOG MAG.dB	TR2.FREQ.GHZ	TR2.PHASE.deg	TR3.FREQ.GHZ	TR3.REAL IMPEDANCE.ohm	TR4.FREQ.GHZ	TR4.IMAGINARY IMPEDANCE.ohm
1	  0.020000000	-6.290000E-01	  0.020000000	-1.256400E+02	  0.020000000	2.289000E+00	  0.020000000	-2.563100E+01
2	  0.020200402	-6.340000E-01	  0.020200402	-1.270880E+02	  0.020200402	2.275000E+00	  0.020200402	-2.483900E+01
3	  0.020400802	-6.370000E-01	  0.020400802	-1.285350E+02	  0.020400802	2.258000E+00	  0.020400802	-2.405800E+01
4	  0.020601204	-6.390000E-01	  0.020601204	-1.300050E+02	  0.020601204	2.238000E+00	  0.020601204	-2.327400E+01
5	  0.020801604	-6.430000E-01	  0.020801604	-1.315170E+02	  0.020801604	2.225000E+00	  0.020801604	-2.247700E+01
6	  0.021002004	-6.450000E-01	  0.021002004	-1.330350E+02	  0.021002004	2.207000E+00	  0.021002004	-2.168600E+01
7	  0.021202406	-6.480000E-01	  0.021202406	-1.345520E+02	  0.021202406	2.193000E+00	  0.021202406	-2.090500E+01
8	  0.021402806	-6.490000E-01	  0.021402806	-1.360830E+02	  0.021402806	2.172000E+00	  0.021402806	-2.012600E+01
9	  0.021603208	-6.530000E-01	  0.021603208	-1.375830E+02	  0.021603208	2.161000E+00	  0.021603208	-1.937000E+01
10	  0.021803608	-6.540000E-01	  0.021803608	-1.391080E+02	  0.021803608	2.145000E+00	  0.021803608	-1.861000E+01
11	  0.022004008	-6.610000E-01	  0.022004008	-1.406360E+02	  0.022004008	2.144000E+00	  0.022004008	-1.785500E+01
12	  0.022204408	-6.680000E-01	  0.022204408	-1.421880E+02	  0.022204408	2.147000E+00	  0.022204408	-1.709600E+01
13	  0.022404809	-6.750000E-01	  0.022404809	-1.437520E+02	  0.022404809	2.151000E+00	  0.022404809	-1.633800E+01
14	  0.022605211	-6.770000E-01	  0.022605211	-1.453350E+02	  0.022605211	2.137000E+00	  0.022605211	-1.557800E+01
15	  0.022805611	-6.790000E-01	  0.022805611	-1.469280E+02	  0.022805611	2.126000E+00	  0.022805611	-1.481900E+01
16	  0.023006011	-6.830000E-01	  0.023006011	-1.485100E+02	  0.023006011	2.121000E+00	  0.023006011	-1.407200E+01
17	  0.023206413	-6.880000E-01	  0.023206413	-1.501020E+02	  0.023206413	2.121000E+00	  0.023206413	-1.332700E+01
18	  0.023406813	-6.960000E-01	  0.023406813	-1.516710E+02	  0.023406813	2.131000E+00	  0.023406813	-1.259700E+01
19	  0.023607215	-7.020000E-01	  0.023607215	-1.532780E+02	  0.023607215	2.136000E+00	  0.023607215	-1.185400E+01
20	  0.023807615	-7.100000E-01	  0.023807615	-1.548840E+02	  0.023807615	2.144000E+00	  0.023807615	-1.111800E+01
21	  0.024008015	-7.180000E-01	  0.024008015	-1.565150E+02	  0.024008015	2.157000E+00	  0.024008015	-1.037400E+01
22	  0.024208417	-7.260000E-01	  0.024208417	-1.581620E+02	  0.024208417	2.167000E+00	  0.024208417	-9.627000E+00
23	  0.024408817	-7.310000E-01	  0.024408817	-1.598260E+02	  0.024408817	2.170000E+00	  0.024408817	-8.878000E+00
24	  0.024609219	-7.380000E-01	  0.024609219	-1.614800E+02	  0.024609219	2.180000E+00	  0.024609219	-8.136000E+00
25	  0.024809619	-7.470000E-01	  0.024809619	-1.631450E+02	  0.024809619	2.195000E+00	  0.024809619	-7.393000E+00
26	  0.025010020	-7.560000E-01	  0.025010020	-1.648110E+02	  0.025010020	2.213000E+00	  0.025010020	-6.653000E+00
27	  0.025210422	-7.650000E-01	  0.025210422	-1.664850E+02	  0.025210422	2.233000E+00	  0.025210422	-5.912000E+00
28	  0.025410822	-7.760000E-01	  0.025410822	-1.681760E+02	  0.025410822	2.256000E+00	  0.025410822	-5.167000E+00
29	  0.025611224	-7.870000E-01	  0.025611224	-1.698670E+02	  0.025611224	2.283000E+00	  0.025611224	-4.423000E+00
30	  0.025811624	-7.980000E-01	  0.025811624	-1.715730E+02	  0.025811624	2.307000E+00	  0.025811624	-3.675000E+00
31	  0.026012026	-8.090000E-01	  0.026012026	-1.732990E+02	  0.026012026	2.335000E+00	  0.026012026	-2.920000E+00
32	  0.026212426	-8.210000E-01	  0.026212426	-1.750260E+02	  0.026212426	2.366000E+00	  0.026212426	-2.166000E+00
33	  0.026412826	-8.340000E-01	  0.026412826	-1.767480E+02	  0.026412826	2.401000E+00	  0.026412826	-1.415000E+00
34	  0.026613226	-8.470000E-01	  0.026613226	-1.784960E+02	  0.026613226	2.438000E+00	  0.026613226	-6.540000E-01
35	  0.026813626	-8.620000E-01	  0.026813626	1.797460E+02	  0.026813626	2.481000E+00	  0.026813626	1.100000E-01
36	  0.027014028	-8.790000E-01	  0.027014028	1.779860E+02	  0.027014028	2.528000E+00	  0.027014028	8.760000E-01
37	  0.027214428	-8.940000E-01	  0.027214428	1.762240E+02	  0.027214428	2.574000E+00	  0.027214428	1.643000E+00
38	  0.027414829	-9.120000E-01	  0.027414829	1.744440E+02	  0.027414829	2.630000E+00	  0.027414829	2.419000E+00
39	  0.027615231	-9.300000E-01	  0.027615231	1.726630E+02	  0.027615231	2.685000E+00	  0.027615231	3.196000E+00
40	  0.027815631	-9.480000E-01	  0.027815631	1.708670E+02	  0.027815631	2.744000E+00	  0.027815631	3.981000E+00
41	  0.028016033	-9.680000E-01	  0.028016033	1.690550E+02	  0.028016033	2.808000E+00	  0.028016033	4.774000E+00
42	  0.028216433	-9.880000E-01	  0.028216433	1.672370E+02	  0.028216433	2.877000E+00	  0.028216433	5.573000E+00
43	  0.028416833	-1.011000E+00	  0.028416833	1.654050E+02	  0.028416833	2.956000E+00	  0.028416833	6.380000E+00
44	  0.028617235	-1.032000E+00	  0.028617235	1.635700E+02	  0.028617235	3.030000E+00	  0.028617235	7.192000E+00
45	  0.028817635	-1.056000E+00	  0.028817635	1.617310E+02	  0.028817635	3.114000E+00	  0.028817635	8.009000E+00
46	  0.029018037	-1.080000E+00	  0.029018037	1.598910E+02	  0.029018037	3.203000E+00	  0.029018037	8.830000E+00
47	  0.029218437	-1.106000E+00	  0.029218437	1.580340E+02	  0.029218437	3.299000E+00	  0.029218437	9.662000E+00
48	  0.029418837	-1.133000E+00	  0.029418837	1.561590E+02	  0.029418837	3.401000E+00	  0.029418837	1.050800E+01
49	  0.029619239	-1.159000E+00	  0.029619239	1.542640E+02	  0.029619239	3.506000E+00	  0.029619239	1.136800E+01
50	  0.029819639	-1.188000E+00	  0.029819639	1.523700E+02	  0.029819639	3.620000E+00	  0.029819639	1.223300E+01
51	  0.030020041	-1.217000E+00	  0.030020041	1.504710E+02	  0.030020041	3.740000E+00	  0.030020041	1.310800E+01
52	  0.030220442	-1.245000E+00	  0.030220442	1.485720E+02	  0.030220442	3.861000E+00	  0.030220442	1.398900E+01
53	  0.030420844	-1.275000E+00	  0.030420844	1.466720E+02	  0.030420844	3.990000E+00	  0.030420844	1.487800E+01
54	  0.030621244	-1.306000E+00	  0.030621244	1.447740E+02	  0.030621244	4.130000E+00	  0.030621244	1.577400E+01
55	  0.030821642	-1.340000E+00	  0.030821642	1.428720E+02	  0.030821642	4.281000E+00	  0.030821642	1.668000E+01
56	  0.031022044	-1.372000E+00	  0.031022044	1.409500E+02	  0.031022044	4.435000E+00	  0.031022044	1.760600E+01
57	  0.031222444	-1.400000E+00	  0.031222444	1.390270E+02	  0.031222444	4.578000E+00	  0.031222444	1.854300E+01
58	  0.031422846	-1.432000E+00	  0.031422846	1.370810E+02	  0.031422846	4.744000E+00	  0.031422846	1.950100E+01
59	  0.031623244	-1.468000E+00	  0.031623244	1.351250E+02	  0.031623244	4.928000E+00	  0.031623244	2.047400E+01
60	  0.031823646	-1.503000E+00	  0.031823646	1.331690E+02	  0.031823646	5.119000E+00	  0.031823646	2.146100E+01
61	  0.032024048	-1.537000E+00	  0.032024048	1.312140E+02	  0.032024048	5.313000E+00	  0.032024048	2.246000E+01
62	  0.032224450	-1.576000E+00	  0.032224450	1.292580E+02	  0.032224450	5.531000E+00	  0.032224450	2.347200E+01
63	  0.032424849	-1.614000E+00	  0.032424849	1.272830E+02	  0.032424849	5.758000E+00	  0.032424849	2.451000E+01
64	  0.032625251	-1.650000E+00	  0.032625251	1.253040E+02	  0.032625251	5.990000E+00	  0.032625251	2.556600E+01
65	  0.032825653	-1.689000E+00	  0.032825653	1.232960E+02	  0.032825653	6.243000E+00	  0.032825653	2.665300E+01
66	  0.033026051	-1.727000E+00	  0.033026051	1.212900E+02	  0.033026051	6.503000E+00	  0.033026051	2.775800E+01
67	  0.033226453	-1.765000E+00	  0.033226453	1.192890E+02	  0.033226453	6.777000E+00	  0.033226453	2.888000E+01
68	  0.033426855	-1.801000E+00	  0.033426855	1.172790E+02	  0.033426855	7.058000E+00	  0.033426855	3.002800E+01
69	  0.033627257	-1.843000E+00	  0.033627257	1.152680E+02	  0.033627257	7.375000E+00	  0.033627257	3.119400E+01
70	  0.033827655	-1.884000E+00	  0.033827655	1.132760E+02	  0.033827655	7.706000E+00	  0.033827655	3.237200E+01
71	  0.034028057	-1.923000E+00	  0.034028057	1.112620E+02	  0.034028057	8.047000E+00	  0.034028057	3.358800E+01
72	  0.034228459	-1.967000E+00	  0.034228459	1.092390E+02	  0.034228459	8.428000E+00	  0.034228459	3.483200E+01
73	  0.034428857	-2.014000E+00	  0.034428857	1.071940E+02	  0.034428857	8.846000E+00	  0.034428857	3.611300E+01
74	  0.034629259	-2.057000E+00	  0.034629259	1.051340E+02	  0.034629259	9.273000E+00	  0.034629259	3.743500E+01
75	  0.034829661	-2.106000E+00	  0.034829661	1.030840E+02	  0.034829661	9.748000E+00	  0.034829661	3.877700E+01
76	  0.035030060	-2.154000E+00	  0.035030060	1.010250E+02	  0.035030060	1.025300E+01	  0.035030060	4.015500E+01
77	  0.035230462	-2.202000E+00	  0.035230462	9.896800E+01	  0.035230462	1.078500E+01	  0.035230462	4.156500E+01
78	  0.035430863	-2.252000E+00	  0.035430863	9.691400E+01	  0.035430863	1.136000E+01	  0.035430863	4.300400E+01
79	  0.035631265	-2.304000E+00	  0.035631265	9.485100E+01	  0.035631265	1.198400E+01	  0.035631265	4.448300E+01
80	  0.035831664	-2.355000E+00	  0.035831664	9.276600E+01	  0.035831664	1.265000E+01	  0.035831664	4.601700E+01
81	  0.036032066	-2.408000E+00	  0.036032066	9.069300E+01	  0.036032066	1.336200E+01	  0.036032066	4.758000E+01
82	  0.036232468	-2.461000E+00	  0.036232468	8.860900E+01	  0.036232468	1.413100E+01	  0.036232468	4.919000E+01
83	  0.036432866	-2.514000E+00	  0.036432866	8.651600E+01	  0.036432866	1.495500E+01	  0.036432866	5.085100E+01
84	  0.036633268	-2.568000E+00	  0.036633268	8.443000E+01	  0.036633268	1.584100E+01	  0.036633268	5.254900E+01
85	  0.036833670	-2.624000E+00	  0.036833670	8.234600E+01	  0.036833670	1.680500E+01	  0.036833670	5.428600E+01
86	  0.037034072	-2.679000E+00	  0.037034072	8.025100E+01	  0.037034072	1.783400E+01	  0.037034072	5.608400E+01
87	  0.037234470	-2.737000E+00	  0.037234470	7.816000E+01	  0.037234470	1.896000E+01	  0.037234470	5.792000E+01
88	  0.037434869	-2.791000E+00	  0.037434869	7.607700E+01	  0.037434869	2.014700E+01	  0.037434869	5.980400E+01
89	  0.037635271	-2.851000E+00	  0.037635271	7.400300E+01	  0.037635271	2.146000E+01	  0.037635271	6.171400E+01
90	  0.037835669	-2.909000E+00	  0.037835669	7.191000E+01	  0.037835669	2.286600E+01	  0.037835669	6.370100E+01
91	  0.038036071	-2.965000E+00	  0.038036071	6.982100E+01	  0.038036071	2.438100E+01	  0.038036071	6.573700E+01
92	  0.038236473	-3.026000E+00	  0.038236473	6.771500E+01	  0.038236473	2.605900E+01	  0.038236473	6.782700E+01
93	  0.038436871	-3.086000E+00	  0.038436871	6.561500E+01	  0.038436871	2.787400E+01	  0.038436871	6.995800E+01
94	  0.038637273	-3.143000E+00	  0.038637273	6.351400E+01	  0.038637273	2.981300E+01	  0.038637273	7.215400E+01
95	  0.038837675	-3.202000E+00	  0.038837675	6.143500E+01	  0.038837675	3.192700E+01	  0.038837675	7.435500E+01
96	  0.039038073	-3.257000E+00	  0.039038073	5.936200E+01	  0.039038073	3.418300E+01	  0.039038073	7.660900E+01
97	  0.039238475	-3.313000E+00	  0.039238475	5.729600E+01	  0.039238475	3.663400E+01	  0.039238475	7.888400E+01
98	  0.039438877	-3.370000E+00	  0.039438877	5.522500E+01	  0.039438877	3.932400E+01	  0.039438877	8.118200E+01
99	  0.039639279	-3.426000E+00	  0.039639279	5.316500E+01	  0.039639279	4.222600E+01	  0.039639279	8.348800E+01
100	  0.039839678	-3.481000E+00	  0.039839678	5.109200E+01	  0.039839678	4.540300E+01	  0.039839678	8.582100E+01
101	  0.040040080	-3.536000E+00	  0.040040080	4.902500E+01	  0.040040080	4.885600E+01	  0.040040080	8.813200E+01
102	  0.040240481	-3.591000E+00	  0.040240481	4.695300E+01	  0.040240481	5.262700E+01	  0.040240481	9.042000E+01
103	  0.040440880	-3.646000E+00	  0.040440880	4.490300E+01	  0.040440880	5.670700E+01	  0.040440880	9.260600E+01
104	  0.040641282	-3.700000E+00	  0.040641282	4.287000E+01	  0.040641282	6.110300E+01	  0.040641282	9.469400E+01
105	  0.040841684	-3.755000E+00	  0.040841684	4.084800E+01	  0.040841684	6.587200E+01	  0.040841684	9.661800E+01
106	  0.041042086	-3.812000E+00	  0.041042086	3.882100E+01	  0.041042086	7.107500E+01	  0.041042086	9.833000E+01
107	  0.041242484	-3.868000E+00	  0.041242484	3.677800E+01	  0.041242484	7.673800E+01	  0.041242484	9.983300E+01
108	  0.041442886	-3.921000E+00	  0.041442886	3.475000E+01	  0.041442886	8.279200E+01	  0.041442886	1.010590E+02
109	  0.041643288	-3.977000E+00	  0.041643288	3.269500E+01	  0.041643288	8.940200E+01	  0.041643288	1.018730E+02
110	  0.041843686	-4.031000E+00	  0.041843686	3.065900E+01	  0.041843686	9.640800E+01	  0.041843686	1.022210E+02
111	  0.042044088	-4.084000E+00	  0.042044088	2.863100E+01	  0.042044088	1.038270E+02	  0.042044088	1.019860E+02
112	  0.042244490	-4.134000E+00	  0.042244490	2.660400E+01	  0.042244490	1.116410E+02	  0.042244490	1.011590E+02
113	  0.042444889	-4.188000E+00	  0.042444889	2.460300E+01	  0.042444889	1.196990E+02	  0.042444889	9.944400E+01
114	  0.042645290	-4.243000E+00	  0.042645290	2.259400E+01	  0.042645290	1.280230E+02	  0.042645290	9.679400E+01
115	  0.042845692	-4.296000E+00	  0.042845692	2.059500E+01	  0.042845692	1.364280E+02	  0.042845692	9.317600E+01
116	  0.043046094	-4.345000E+00	  0.043046094	1.858600E+01	  0.043046094	1.448950E+02	  0.043046094	8.857400E+01
117	  0.043246493	-4.397000E+00	  0.043246493	1.657500E+01	  0.043246493	1.531120E+02	  0.043246493	8.268500E+01
118	  0.043446895	-4.447000E+00	  0.043446895	1.457200E+01	  0.043446895	1.609180E+02	  0.043446895	7.572700E+01
119	  0.043647297	-4.494000E+00	  0.043647297	1.258600E+01	  0.043647297	1.680390E+02	  0.043647297	6.769900E+01
120	  0.043847695	-4.542000E+00	  0.043847695	1.059400E+01	  0.043847695	1.743100E+02	  0.043847695	5.857000E+01
121	  0.044048097	-4.591000E+00	  0.044048097	8.620000E+00	  0.044048097	1.793900E+02	  0.044048097	4.857000E+01
122	  0.044248499	-4.636000E+00	  0.044248499	6.644000E+00	  0.044248499	1.833280E+02	  0.044248499	3.791100E+01
123	  0.044448901	-4.681000E+00	  0.044448901	4.714000E+00	  0.044448901	1.857790E+02	  0.044448901	2.700000E+01
124	  0.044649299	-4.724000E+00	  0.044649299	2.757000E+00	  0.044649299	1.869270E+02	  0.044649299	1.574600E+01
125	  0.044849701	-4.770000E+00	  0.044849701	8.250000E-01	  0.044849701	1.864920E+02	  0.044849701	4.653000E+00
126	  0.045050103	-4.811000E+00	  0.045050103	-1.116000E+00	  0.045050103	1.848930E+02	  0.045050103	-6.183000E+00
127	  0.045250501	-4.853000E+00	  0.045250501	-3.040000E+00	  0.045250501	1.820000E+02	  0.045250501	-1.640800E+01
128	  0.045450903	-4.893000E+00	  0.045450903	-4.950000E+00	  0.045450903	1.780860E+02	  0.045450903	-2.588700E+01
129	  0.045651305	-4.935000E+00	  0.045651305	-6.864000E+00	  0.045651305	1.732180E+02	  0.045651305	-3.454700E+01
130	  0.045851704	-4.974000E+00	  0.045851704	-8.752000E+00	  0.045851704	1.677650E+02	  0.045851704	-4.222900E+01
131	  0.046052102	-5.009000E+00	  0.046052102	-1.062800E+01	  0.046052102	1.619200E+02	  0.046052102	-4.902100E+01
132	  0.046252504	-5.050000E+00	  0.046252504	-1.249700E+01	  0.046252504	1.555940E+02	  0.046252504	-5.476500E+01
133	  0.046452906	-5.088000E+00	  0.046452906	-1.434400E+01	  0.046452906	1.492110E+02	  0.046452906	-5.963700E+01
134	  0.046653304	-5.123000E+00	  0.046653304	-1.620200E+01	  0.046653304	1.427560E+02	  0.046653304	-6.376800E+01
135	  0.046853706	-5.159000E+00	  0.046853706	-1.807300E+01	  0.046853706	1.362640E+02	  0.046853706	-6.714800E+01
136	  0.047054108	-5.192000E+00	  0.047054108	-1.990300E+01	  0.047054108	1.300360E+02	  0.047054108	-6.982100E+01
137	  0.047254506	-5.226000E+00	  0.047254506	-2.176000E+01	  0.047254506	1.238590E+02	  0.047254506	-7.188600E+01
138	  0.047454908	-5.258000E+00	  0.047454908	-2.357600E+01	  0.047454908	1.180420E+02	  0.047454908	-7.342500E+01
139	  0.047655310	-5.292000E+00	  0.047655310	-2.541000E+01	  0.047655310	1.123780E+02	  0.047655310	-7.444700E+01
140	  0.047855709	-5.323000E+00	  0.047855709	-2.720200E+01	  0.047855709	1.071010E+02	  0.047855709	-7.509300E+01
141	  0.048056111	-5.356000E+00	  0.048056111	-2.899500E+01	  0.048056111	1.020710E+02	  0.048056111	-7.535700E+01
142	  0.048256513	-5.389000E+00	  0.048256513	-3.078600E+01	  0.048256513	9.730800E+01	  0.048256513	-7.533300E+01
143	  0.048456915	-5.419000E+00	  0.048456915	-3.257800E+01	  0.048456915	9.280600E+01	  0.048456915	-7.512300E+01
144	  0.048657313	-5.451000E+00	  0.048657313	-3.435700E+01	  0.048657313	8.858300E+01	  0.048657313	-7.466200E+01
145	  0.048857715	-5.476000E+00	  0.048857715	-3.613900E+01	  0.048857715	8.459300E+01	  0.048857715	-7.410900E+01
146	  0.049058117	-5.502000E+00	  0.049058117	-3.791700E+01	  0.049058117	8.083800E+01	  0.049058117	-7.341100E+01
147	  0.049258515	-5.525000E+00	  0.049258515	-3.968400E+01	  0.049258515	7.732000E+01	  0.049258515	-7.261300E+01
148	  0.049458917	-5.551000E+00	  0.049458917	-4.141900E+01	  0.049458917	7.407100E+01	  0.049458917	-7.168600E+01
149	  0.049659319	-5.578000E+00	  0.049659319	-4.315900E+01	  0.049659319	7.100700E+01	  0.049659319	-7.066600E+01
150	  0.049859721	-5.605000E+00	  0.049859721	-4.487600E+01	  0.049859721	6.816200E+01	  0.049859721	-6.959200E+01
151	  0.050060119	-5.629000E+00	  0.050060119	-4.658100E+01	  0.050060119	6.549300E+01	  0.050060119	-6.850500E+01
152	  0.050260521	-5.649000E+00	  0.050260521	-4.831600E+01	  0.050260521	6.292200E+01	  0.050260521	-6.739000E+01
153	  0.050460923	-5.668000E+00	  0.050460923	-5.002200E+01	  0.050460923	6.053400E+01	  0.050460923	-6.627100E+01
154	  0.050661322	-5.687000E+00	  0.050661322	-5.172000E+01	  0.050661322	5.829300E+01	  0.050661322	-6.512800E+01
155	  0.050861724	-5.703000E+00	  0.050861724	-5.339100E+01	  0.050861724	5.619700E+01	  0.050861724	-6.400500E+01
156	  0.051062126	-5.722000E+00	  0.051062126	-5.504800E+01	  0.051062126	5.424900E+01	  0.051062126	-6.284300E+01
157	  0.051262524	-5.742000E+00	  0.051262524	-5.670100E+01	  0.051262524	5.241500E+01	  0.051262524	-6.167200E+01
158	  0.051462926	-5.761000E+00	  0.051462926	-5.833600E+01	  0.051462926	5.069600E+01	  0.051462926	-6.051400E+01
159	  0.051663328	-5.777000E+00	  0.051663328	-5.996000E+01	  0.051663328	4.906400E+01	  0.051663328	-5.938500E+01
160	  0.051863730	-5.793000E+00	  0.051863730	-6.159000E+01	  0.051863730	4.752000E+01	  0.051863730	-5.824400E+01
161	  0.052064128	-5.806000E+00	  0.052064128	-6.319800E+01	  0.052064128	4.605800E+01	  0.052064128	-5.714200E+01
162	  0.052264530	-5.819000E+00	  0.052264530	-6.477900E+01	  0.052264530	4.469600E+01	  0.052264530	-5.605800E+01
163	  0.052464932	-5.830000E+00	  0.052464932	-6.638000E+01	  0.052464932	4.337600E+01	  0.052464932	-5.497900E+01
164	  0.052665330	-5.844000E+00	  0.052665330	-6.795900E+01	  0.052665330	4.214900E+01	  0.052665330	-5.390400E+01
165	  0.052865732	-5.863000E+00	  0.052865732	-6.949700E+01	  0.052865732	4.103700E+01	  0.052865732	-5.283500E+01
166	  0.053066134	-5.875000E+00	  0.053066134	-7.106000E+01	  0.053066134	3.993000E+01	  0.053066134	-5.179700E+01
167	  0.053266536	-5.889000E+00	  0.053266536	-7.260000E+01	  0.053266536	3.890400E+01	  0.053266536	-5.076700E+01
168	  0.053466935	-5.903000E+00	  0.053466935	-7.411400E+01	  0.053466935	3.793900E+01	  0.053466935	-4.976800E+01
169	  0.053667337	-5.920000E+00	  0.053667337	-7.565800E+01	  0.053667337	3.701500E+01	  0.053667337	-4.874600E+01
170	  0.053867739	-5.931000E+00	  0.053867739	-7.717100E+01	  0.053867739	3.612400E+01	  0.053867739	-4.778100E+01
171	  0.054068137	-5.941000E+00	  0.054068137	-7.868500E+01	  0.054068137	3.527200E+01	  0.054068137	-4.682600E+01
172	  0.054268539	-5.956000E+00	  0.054268539	-8.019900E+01	  0.054268539	3.447900E+01	  0.054268539	-4.586300E+01
173	  0.054468941	-5.969000E+00	  0.054468941	-8.168100E+01	  0.054468941	3.373000E+01	  0.054468941	-4.493700E+01
174	  0.054669335	-5.981000E+00	  0.054669335	-8.317200E+01	  0.054669335	3.300300E+01	  0.054669335	-4.402000E+01
175	  0.054869737	-5.996000E+00	  0.054869737	-8.466700E+01	  0.054869737	3.231600E+01	  0.054869737	-4.310400E+01
176	  0.055070139	-6.009000E+00	  0.055070139	-8.611900E+01	  0.055070139	3.167700E+01	  0.055070139	-4.222500E+01
177	  0.055270538	-6.019000E+00	  0.055270538	-8.760400E+01	  0.055270538	3.103300E+01	  0.055270538	-4.135100E+01
178	  0.055470940	-6.029000E+00	  0.055470940	-8.906600E+01	  0.055470940	3.042800E+01	  0.055470940	-4.049700E+01
179	  0.055671342	-6.040000E+00	  0.055671342	-9.052200E+01	  0.055671342	2.985400E+01	  0.055671342	-3.965500E+01
180	  0.055871744	-6.049000E+00	  0.055871744	-9.196200E+01	  0.055871744	2.930300E+01	  0.055871744	-3.883600E+01
181	  0.056072142	-6.056000E+00	  0.056072142	-9.341300E+01	  0.056072142	2.876600E+01	  0.056072142	-3.802100E+01
182	  0.056272544	-6.062000E+00	  0.056272544	-9.484100E+01	  0.056272544	2.825300E+01	  0.056272544	-3.723400E+01
183	  0.056472946	-6.069000E+00	  0.056472946	-9.626600E+01	  0.056472946	2.776500E+01	  0.056472946	-3.645300E+01
184	  0.056673344	-6.079000E+00	  0.056673344	-9.766000E+01	  0.056673344	2.731400E+01	  0.056673344	-3.569100E+01
185	  0.056873746	-6.087000E+00	  0.056873746	-9.905800E+01	  0.056873746	2.687600E+01	  0.056873746	-3.493700E+01
186	  0.057074148	-6.089000E+00	  0.057074148	-1.004590E+02	  0.057074148	2.643100E+01	  0.057074148	-3.420400E+01
187	  0.057274550	-6.093000E+00	  0.057274550	-1.018470E+02	  0.057274550	2.601700E+01	  0.057274550	-3.347800E+01
188	  0.057474948	-6.098000E+00	  0.057474948	-1.032100E+02	  0.057474948	2.562400E+01	  0.057474948	-3.277200E+01
189	  0.057675350	-6.100000E+00	  0.057675350	-1.045750E+02	  0.057675350	2.524000E+01	  0.057675350	-3.207500E+01
190	  0.057875752	-6.105000E+00	  0.057875752	-1.059400E+02	  0.057875752	2.487800E+01	  0.057875752	-3.138000E+01
191	  0.058076151	-6.111000E+00	  0.058076151	-1.072970E+02	  0.058076151	2.453300E+01	  0.058076151	-3.069400E+01
192	  0.058276553	-6.113000E+00	  0.058276553	-1.086200E+02	  0.058276553	2.420000E+01	  0.058276553	-3.003800E+01
193	  0.058476955	-6.117000E+00	  0.058476955	-1.099340E+02	  0.058476955	2.388200E+01	  0.058476955	-2.938900E+01
194	  0.058677353	-6.116000E+00	  0.058677353	-1.112600E+02	  0.058677353	2.356200E+01	  0.058677353	-2.874500E+01
195	  0.058877755	-6.120000E+00	  0.058877755	-1.125750E+02	  0.058877755	2.326700E+01	  0.058877755	-2.810700E+01
196	  0.059078157	-6.121000E+00	  0.059078157	-1.138520E+02	  0.059078157	2.298400E+01	  0.059078157	-2.749500E+01
197	  0.059278559	-6.122000E+00	  0.059278559	-1.151750E+02	  0.059278559	2.270000E+01	  0.059278559	-2.686600E+01
198	  0.059478957	-6.122000E+00	  0.059478957	-1.164340E+02	  0.059478957	2.243900E+01	  0.059478957	-2.627300E+01
199	  0.059679359	-6.125000E+00	  0.059679359	-1.177270E+02	  0.059679359	2.218500E+01	  0.059679359	-2.566500E+01
200	  0.059879761	-6.128000E+00	  0.059879761	-1.190020E+02	  0.059879761	2.194500E+01	  0.059879761	-2.507100E+01
201	  0.060080159	-6.130000E+00	  0.060080159	-1.202430E+02	  0.060080159	2.171800E+01	  0.060080159	-2.449600E+01
202	  0.060280561	-6.135000E+00	  0.060280561	-1.215070E+02	  0.060280561	2.150200E+01	  0.060280561	-2.391300E+01
203	  0.060480963	-6.138000E+00	  0.060480963	-1.227510E+02	  0.060480963	2.129000E+01	  0.060480963	-2.334500E+01
204	  0.060681365	-6.143000E+00	  0.060681365	-1.239950E+02	  0.060681365	2.109300E+01	  0.060681365	-2.277800E+01
205	  0.060881764	-6.143000E+00	  0.060881764	-1.252280E+02	  0.060881764	2.089000E+01	  0.060881764	-2.222600E+01
206	  0.061082166	-6.145000E+00	  0.061082166	-1.264660E+02	  0.061082166	2.070000E+01	  0.061082166	-2.167300E+01
207	  0.061282568	-6.150000E+00	  0.061282568	-1.277010E+02	  0.061282568	2.052300E+01	  0.061282568	-2.112200E+01
208	  0.061482966	-6.152000E+00	  0.061482966	-1.289120E+02	  0.061482966	2.034700E+01	  0.061482966	-2.058900E+01
209	  0.061683368	-6.158000E+00	  0.061683368	-1.301350E+02	  0.061683368	2.018900E+01	  0.061683368	-2.004900E+01
210	  0.061883770	-6.162000E+00	  0.061883770	-1.313510E+02	  0.061883770	2.003200E+01	  0.061883770	-1.951700E+01
211	  0.062084168	-6.169000E+00	  0.062084168	-1.325790E+02	  0.062084168	1.988900E+01	  0.062084168	-1.898100E+01
212	  0.062284570	-6.169000E+00	  0.062284570	-1.337680E+02	  0.062284570	1.973500E+01	  0.062284570	-1.847000E+01
213	  0.062484972	-6.166000E+00	  0.062484972	-1.349510E+02	  0.062484972	1.957900E+01	  0.062484972	-1.796800E+01
214	  0.062685370	-6.166000E+00	  0.062685370	-1.361230E+02	  0.062685370	1.943700E+01	  0.062685370	-1.747000E+01
215	  0.062885776	-6.167000E+00	  0.062885776	-1.373460E+02	  0.062885776	1.929600E+01	  0.062885776	-1.695300E+01
216	  0.063086174	-6.173000E+00	  0.063086174	-1.385150E+02	  0.063086174	1.918200E+01	  0.063086174	-1.645700E+01
217	  0.063286573	-6.173000E+00	  0.063286573	-1.397390E+02	  0.063286573	1.905000E+01	  0.063286573	-1.594500E+01
218	  0.063486971	-6.175000E+00	  0.063486971	-1.408810E+02	  0.063486971	1.893600E+01	  0.063486971	-1.546800E+01
219	  0.063687377	-6.172000E+00	  0.063687377	-1.420380E+02	  0.063687377	1.881300E+01	  0.063687377	-1.499000E+01
220	  0.063887775	-6.173000E+00	  0.063887775	-1.431920E+02	  0.063887775	1.870500E+01	  0.063887775	-1.451300E+01
221	  0.064088173	-6.177000E+00	  0.064088173	-1.443640E+02	  0.064088173	1.860600E+01	  0.064088173	-1.402800E+01
222	  0.064288579	-6.179000E+00	  0.064288579	-1.455120E+02	  0.064288579	1.850900E+01	  0.064288579	-1.355700E+01
223	  0.064488977	-6.179000E+00	  0.064488977	-1.466620E+02	  0.064488977	1.841000E+01	  0.064488977	-1.308800E+01
224	  0.064689375	-6.181000E+00	  0.064689375	-1.478170E+02	  0.064689375	1.832100E+01	  0.064689375	-1.261800E+01
225	  0.064889781	-6.182000E+00	  0.064889781	-1.489540E+02	  0.064889781	1.823300E+01	  0.064889781	-1.215700E+01
226	  0.065090179	-6.185000E+00	  0.065090179	-1.500520E+02	  0.065090179	1.815700E+01	  0.065090179	-1.171300E+01
227	  0.065290578	-6.187000E+00	  0.065290578	-1.511910E+02	  0.065290578	1.808000E+01	  0.065290578	-1.125400E+01
228	  0.065490983	-6.192000E+00	  0.065490983	-1.522730E+02	  0.065490983	1.801700E+01	  0.065490983	-1.081800E+01
229	  0.065691382	-6.191000E+00	  0.065691382	-1.533980E+02	  0.065691382	1.794100E+01	  0.065691382	-1.036900E+01
230	  0.065891780	-6.194000E+00	  0.065891780	-1.544890E+02	  0.065891780	1.787800E+01	  0.065891780	-9.933000E+00
231	  0.066092186	-6.195000E+00	  0.066092186	-1.555890E+02	  0.066092186	1.781600E+01	  0.066092186	-9.496000E+00
232	  0.066292584	-6.197000E+00	  0.066292584	-1.566410E+02	  0.066292584	1.776000E+01	  0.066292584	-9.078000E+00
233	  0.066492982	-6.198000E+00	  0.066492982	-1.577560E+02	  0.066492982	1.770100E+01	  0.066492982	-8.637000E+00
234	  0.066693388	-6.205000E+00	  0.066693388	-1.587910E+02	  0.066693388	1.766600E+01	  0.066693388	-8.227000E+00
235	  0.066893786	-6.210000E+00	  0.066893786	-1.598660E+02	  0.066893786	1.762400E+01	  0.066893786	-7.803000E+00
236	  0.067094192	-6.212000E+00	  0.067094192	-1.609100E+02	  0.067094192	1.758100E+01	  0.067094192	-7.392000E+00
237	  0.067294590	-6.215000E+00	  0.067294590	-1.619830E+02	  0.067294590	1.754100E+01	  0.067294590	-6.971000E+00
238	  0.067494988	-6.219000E+00	  0.067494988	-1.630270E+02	  0.067494988	1.750900E+01	  0.067494988	-6.563000E+00
239	  0.067695394	-6.221000E+00	  0.067695394	-1.640790E+02	  0.067695394	1.747400E+01	  0.067695394	-6.152000E+00
240	  0.067895792	-6.230000E+00	  0.067895792	-1.651150E+02	  0.067895792	1.745900E+01	  0.067895792	-5.746000E+00
241	  0.068096191	-6.234000E+00	  0.068096191	-1.661530E+02	  0.068096191	1.743500E+01	  0.068096191	-5.342000E+00
242	  0.068296596	-6.242000E+00	  0.068296596	-1.672020E+02	  0.068296596	1.742100E+01	  0.068296596	-4.933000E+00
243	  0.068496995	-6.245000E+00	  0.068496995	-1.682380E+02	  0.068496995	1.739900E+01	  0.068496995	-4.532000E+00
244	  0.068697393	-6.251000E+00	  0.068697393	-1.692370E+02	  0.068697393	1.739000E+01	  0.068697393	-4.144000E+00
245	  0.068897791	-6.252000E+00	  0.068897791	-1.702540E+02	  0.068897791	1.736700E+01	  0.068897791	-3.751000E+00
246	  0.069098189	-6.255000E+00	  0.069098189	-1.712850E+02	  0.069098189	1.735200E+01	  0.069098189	-3.353000E+00
247	  0.069298595	-6.264000E+00	  0.069298595	-1.722950E+02	  0.069298595	1.735600E+01	  0.069298595	-2.962000E+00
248	  0.069498993	-6.264000E+00	  0.069498993	-1.733180E+02	  0.069498993	1.733900E+01	  0.069498993	-2.568000E+00
249	  0.069699399	-6.273000E+00	  0.069699399	-1.743180E+02	  0.069699399	1.734900E+01	  0.069699399	-2.182000E+00
250	  0.069899797	-6.278000E+00	  0.069899797	-1.753080E+02	  0.069899797	1.734800E+01	  0.069899797	-1.802000E+00
251	  0.070100196	-6.279000E+00	  0.070100196	-1.763390E+02	  0.070100196	1.734100E+01	  0.070100196	-1.405000E+00
252	  0.070300601	-6.287000E+00	  0.070300601	-1.773080E+02	  0.070300601	1.735400E+01	  0.070300601	-1.033000E+00
253	  0.070501000	-6.287000E+00	  0.070501000	-1.782750E+02	  0.070501000	1.734800E+01	  0.070501000	-6.610000E-01
254	  0.070701398	-6.291000E+00	  0.070701398	-1.792890E+02	  0.070701398	1.735600E+01	  0.070701398	-2.720000E-01
255	  0.070901804	-6.297000E+00	  0.070901804	1.797560E+02	  0.070901804	1.737200E+01	  0.070901804	9.300000E-02
256	  0.071102202	-6.304000E+00	  0.071102202	1.787740E+02	  0.071102202	1.739000E+01	  0.071102202	4.700000E-01
257	  0.071302600	-6.308000E+00	  0.071302600	1.777550E+02	  0.071302600	1.740400E+01	  0.071302600	8.600000E-01
258	  0.071503006	-6.312000E+00	  0.071503006	1.768090E+02	  0.071503006	1.742100E+01	  0.071503006	1.223000E+00
259	  0.071703404	-6.317000E+00	  0.071703404	1.758390E+02	  0.071703404	1.744100E+01	  0.071703404	1.595000E+00
260	  0.071903802	-6.324000E+00	  0.071903802	1.748800E+02	  0.071903802	1.746900E+01	  0.071903802	1.962000E+00
261	  0.072104208	-6.333000E+00	  0.072104208	1.739200E+02	  0.072104208	1.750500E+01	  0.072104208	2.330000E+00
262	  0.072304606	-6.337000E+00	  0.072304606	1.729620E+02	  0.072304606	1.752900E+01	  0.072304606	2.697000E+00
263	  0.072505005	-6.339000E+00	  0.072505005	1.720020E+02	  0.072505005	1.755200E+01	  0.072505005	3.066000E+00
264	  0.072705410	-6.344000E+00	  0.072705410	1.710730E+02	  0.072705410	1.758200E+01	  0.072705410	3.422000E+00
265	  0.072905809	-6.351000E+00	  0.072905809	1.700890E+02	  0.072905809	1.762400E+01	  0.072905809	3.799000E+00
266	  0.073106214	-6.357000E+00	  0.073106214	1.691400E+02	  0.073106214	1.766100E+01	  0.073106214	4.164000E+00
267	  0.073306613	-6.366000E+00	  0.073306613	1.682070E+02	  0.073306613	1.771000E+01	  0.073306613	4.521000E+00
268	  0.073507011	-6.376000E+00	  0.073507011	1.672630E+02	  0.073507011	1.776100E+01	  0.073507011	4.883000E+00
269	  0.073707417	-6.382000E+00	  0.073707417	1.663260E+02	  0.073707417	1.780700E+01	  0.073707417	5.243000E+00
270	  0.073907815	-6.388000E+00	  0.073907815	1.653830E+02	  0.073907815	1.785300E+01	  0.073907815	5.606000E+00
271	  0.074108213	-6.392000E+00	  0.074108213	1.644690E+02	  0.074108213	1.789700E+01	  0.074108213	5.958000E+00
272	  0.074308619	-6.403000E+00	  0.074308619	1.635500E+02	  0.074308619	1.796000E+01	  0.074308619	6.311000E+00
273	  0.074509017	-6.409000E+00	  0.074509017	1.626070E+02	  0.074509017	1.801300E+01	  0.074509017	6.674000E+00
274	  0.074709415	-6.420000E+00	  0.074709415	1.616770E+02	  0.074709415	1.808200E+01	  0.074709415	7.032000E+00
275	  0.074909821	-6.427000E+00	  0.074909821	1.607770E+02	  0.074909821	1.814200E+01	  0.074909821	7.379000E+00
276	  0.075110219	-6.434000E+00	  0.075110219	1.598250E+02	  0.075110219	1.820600E+01	  0.075110219	7.747000E+00
277	  0.075310618	-6.446000E+00	  0.075310618	1.589340E+02	  0.075310618	1.828200E+01	  0.075310618	8.090000E+00
278	  0.075511023	-6.452000E+00	  0.075511023	1.580470E+02	  0.075511023	1.834400E+01	  0.075511023	8.433000E+00
279	  0.075711422	-6.458000E+00	  0.075711422	1.571790E+02	  0.075711422	1.840600E+01	  0.075711422	8.770000E+00
280	  0.075911827	-6.470000E+00	  0.075911827	1.562640E+02	  0.075911827	1.849100E+01	  0.075911827	9.123000E+00
281	  0.076112226	-6.480000E+00	  0.076112226	1.553630E+02	  0.076112226	1.857000E+01	  0.076112226	9.472000E+00
282	  0.076312624	-6.486000E+00	  0.076312624	1.544830E+02	  0.076312624	1.864200E+01	  0.076312624	9.814000E+00
283	  0.076513030	-6.498000E+00	  0.076513030	1.535960E+02	  0.076513030	1.872900E+01	  0.076513030	1.015800E+01
284	  0.076713428	-6.510000E+00	  0.076713428	1.526830E+02	  0.076713428	1.882200E+01	  0.076713428	1.051100E+01
285	  0.076913826	-6.521000E+00	  0.076913826	1.518220E+02	  0.076913826	1.891200E+01	  0.076913826	1.084600E+01
286	  0.077114232	-6.533000E+00	  0.077114232	1.509540E+02	  0.077114232	1.900700E+01	  0.077114232	1.118200E+01
287	  0.077314630	-6.543000E+00	  0.077314630	1.500840E+02	  0.077314630	1.909700E+01	  0.077314630	1.152200E+01
288	  0.077515028	-6.556000E+00	  0.077515028	1.492440E+02	  0.077515028	1.919700E+01	  0.077515028	1.184800E+01
289	  0.077715434	-6.568000E+00	  0.077715434	1.483600E+02	  0.077715434	1.930000E+01	  0.077715434	1.219200E+01
290	  0.077915832	-6.582000E+00	  0.077915832	1.474920E+02	  0.077915832	1.940800E+01	  0.077915832	1.253000E+01
291	  0.078116231	-6.591000E+00	  0.078116231	1.466260E+02	  0.078116231	1.950700E+01	  0.078116231	1.287000E+01
292	  0.078316636	-6.609000E+00	  0.078316636	1.457810E+02	  0.078316636	1.963100E+01	  0.078316636	1.319600E+01
293	  0.078517035	-6.620000E+00	  0.078517035	1.448970E+02	  0.078517035	1.974000E+01	  0.078517035	1.354300E+01
294	  0.078717433	-6.632000E+00	  0.078717433	1.440470E+02	  0.078717433	1.985200E+01	  0.078717433	1.387600E+01
295	  0.078917839	-6.648000E+00	  0.078917839	1.431960E+02	  0.078917839	1.998000E+01	  0.078917839	1.420700E+01
296	  0.079118237	-6.660000E+00	  0.079118237	1.423410E+02	  0.079118237	2.009700E+01	  0.079118237	1.454300E+01
297	  0.079318643	-6.682000E+00	  0.079318643	1.415050E+02	  0.079318643	2.024000E+01	  0.079318643	1.486600E+01
298	  0.079519041	-6.695000E+00	  0.079519041	1.406760E+02	  0.079519041	2.036500E+01	  0.079519041	1.519100E+01
299	  0.079719439	-6.709000E+00	  0.079719439	1.398050E+02	  0.079719439	2.049600E+01	  0.079719439	1.553400E+01
300	  0.079919845	-6.727000E+00	  0.079919845	1.389400E+02	  0.079919845	2.064200E+01	  0.079919845	1.587100E+01
301	  0.080120243	-6.741000E+00	  0.080120243	1.381220E+02	  0.080120243	2.077500E+01	  0.080120243	1.619300E+01
302	  0.080320641	-6.760000E+00	  0.080320641	1.372790E+02	  0.080320641	2.092600E+01	  0.080320641	1.652100E+01
303	  0.080521047	-6.771000E+00	  0.080521047	1.364410E+02	  0.080521047	2.105900E+01	  0.080521047	1.685400E+01
304	  0.080721445	-6.788000E+00	  0.080721445	1.356260E+02	  0.080721445	2.120600E+01	  0.080721445	1.717300E+01
305	  0.080921844	-6.807000E+00	  0.080921844	1.347660E+02	  0.080921844	2.136800E+01	  0.080921844	1.750900E+01
306	  0.081122249	-6.817000E+00	  0.081122249	1.339700E+02	  0.081122249	2.150100E+01	  0.081122249	1.782700E+01
307	  0.081322648	-6.835000E+00	  0.081322648	1.331510E+02	  0.081322648	2.166100E+01	  0.081322648	1.814800E+01
308	  0.081523046	-6.847000E+00	  0.081523046	1.323290E+02	  0.081523046	2.180700E+01	  0.081523046	1.847700E+01
309	  0.081723452	-6.861000E+00	  0.081723452	1.315490E+02	  0.081723452	2.195700E+01	  0.081723452	1.878600E+01
310	  0.081923850	-6.876000E+00	  0.081923850	1.307310E+02	  0.081923850	2.211700E+01	  0.081923850	1.911000E+01
311	  0.082124248	-6.890000E+00	  0.082124248	1.299320E+02	  0.082124248	2.227400E+01	  0.082124248	1.942800E+01
312	  0.082324654	-6.905000E+00	  0.082324654	1.291480E+02	  0.082324654	2.243500E+01	  0.082324654	1.973900E+01
313	  0.082525052	-6.920000E+00	  0.082525052	1.283750E+02	  0.082525052	2.259900E+01	  0.082525052	2.004500E+01
314	  0.082725458	-6.941000E+00	  0.082725458	1.276450E+02	  0.082725458	2.277300E+01	  0.082725458	2.032800E+01
315	  0.082925856	-6.952000E+00	  0.082925856	1.268660E+02	  0.082925856	2.293100E+01	  0.082925856	2.064200E+01
316	  0.083126254	-6.973000E+00	  0.083126254	1.261210E+02	  0.083126254	2.311200E+01	  0.083126254	2.093200E+01
317	  0.083326660	-6.990000E+00	  0.083326660	1.253780E+02	  0.083326660	2.328600E+01	  0.083326660	2.122500E+01
318	  0.083527058	-7.003000E+00	  0.083527058	1.246210E+02	  0.083527058	2.345400E+01	  0.083527058	2.152900E+01
319	  0.083727457	-7.024000E+00	  0.083727457	1.238770E+02	  0.083727457	2.364500E+01	  0.083727457	2.181700E+01
320	  0.083927862	-7.039000E+00	  0.083927862	1.231470E+02	  0.083927862	2.381900E+01	  0.083927862	2.210800E+01
321	  0.084128261	-7.065000E+00	  0.084128261	1.224240E+02	  0.084128261	2.402600E+01	  0.084128261	2.238200E+01
322	  0.084328659	-7.085000E+00	  0.084328659	1.217270E+02	  0.084328659	2.421500E+01	  0.084328659	2.265100E+01
323	  0.084529065	-7.105000E+00	  0.084529065	1.210020E+02	  0.084529065	2.441100E+01	  0.084529065	2.293300E+01
324	  0.084729463	-7.126000E+00	  0.084729463	1.202880E+02	  0.084729463	2.461200E+01	  0.084729463	2.320800E+01
325	  0.084929854	-7.149000E+00	  0.084929854	1.195480E+02	  0.084929854	2.482600E+01	  0.084929854	2.349200E+01
326	  0.085130259	-7.170000E+00	  0.085130259	1.188260E+02	  0.085130259	2.503200E+01	  0.085130259	2.377100E+01
327	  0.085330658	-7.192000E+00	  0.085330658	1.181060E+02	  0.085330658	2.524500E+01	  0.085330658	2.404700E+01
328	  0.085531056	-7.216000E+00	  0.085531056	1.173880E+02	  0.085531056	2.546500E+01	  0.085531056	2.432000E+01
329	  0.085731462	-7.245000E+00	  0.085731462	1.166840E+02	  0.085731462	2.570000E+01	  0.085731462	2.457900E+01
330	  0.085931860	-7.264000E+00	  0.085931860	1.159870E+02	  0.085931860	2.590900E+01	  0.085931860	2.484700E+01
331	  0.086132258	-7.289000E+00	  0.086132258	1.153050E+02	  0.086132258	2.613500E+01	  0.086132258	2.510100E+01
332	  0.086332664	-7.313000E+00	  0.086332664	1.146170E+02	  0.086332664	2.636100E+01	  0.086332664	2.535900E+01
333	  0.086533062	-7.338000E+00	  0.086533062	1.138960E+02	  0.086533062	2.660100E+01	  0.086533062	2.562800E+01
334	  0.086733460	-7.365000E+00	  0.086733460	1.131880E+02	  0.086733460	2.685000E+01	  0.086733460	2.588700E+01
335	  0.086933866	-7.388000E+00	  0.086933866	1.124840E+02	  0.086933866	2.708700E+01	  0.086933866	2.615100E+01
336	  0.087134264	-7.406000E+00	  0.087134264	1.118010E+02	  0.087134264	2.730700E+01	  0.087134264	2.641400E+01
337	  0.087334670	-7.436000E+00	  0.087334670	1.110890E+02	  0.087334670	2.757200E+01	  0.087334670	2.666800E+01
338	  0.087535068	-7.458000E+00	  0.087535068	1.104010E+02	  0.087535068	2.781400E+01	  0.087535068	2.692400E+01
339	  0.087735467	-7.484000E+00	  0.087735467	1.097080E+02	  0.087735467	2.806800E+01	  0.087735467	2.717700E+01
340	  0.087935872	-7.507000E+00	  0.087935872	1.090590E+02	  0.087935872	2.830900E+01	  0.087935872	2.741200E+01
341	  0.088136271	-7.534000E+00	  0.088136271	1.083810E+02	  0.088136271	2.856900E+01	  0.088136271	2.765500E+01
342	  0.088336669	-7.559000E+00	  0.088336669	1.077140E+02	  0.088336669	2.882700E+01	  0.088336669	2.789300E+01
343	  0.088537075	-7.578000E+00	  0.088537075	1.070350E+02	  0.088537075	2.907200E+01	  0.088537075	2.814800E+01
344	  0.088737473	-7.596000E+00	  0.088737473	1.063840E+02	  0.088737473	2.931000E+01	  0.088737473	2.839200E+01
345	  0.088937871	-7.617000E+00	  0.088937871	1.057070E+02	  0.088937871	2.956600E+01	  0.088937871	2.864100E+01
346	  0.089138277	-7.644000E+00	  0.089138277	1.050890E+02	  0.089138277	2.982800E+01	  0.089138277	2.885000E+01
347	  0.089338675	-7.661000E+00	  0.089338675	1.044540E+02	  0.089338675	3.006900E+01	  0.089338675	2.908700E+01
348	  0.089539073	-7.686000E+00	  0.089539073	1.038540E+02	  0.089539073	3.032100E+01	  0.089539073	2.929300E+01
349	  0.089739479	-7.709000E+00	  0.089739479	1.032410E+02	  0.089739479	3.057800E+01	  0.089739479	2.950600E+01
350	  0.089939877	-7.725000E+00	  0.089939877	1.026360E+02	  0.089939877	3.081600E+01	  0.089939877	2.972800E+01
351	  0.090140276	-7.753000E+00	  0.090140276	1.020250E+02	  0.090140276	3.109100E+01	  0.090140276	2.992900E+01
352	  0.090340681	-7.774000E+00	  0.090340681	1.014360E+02	  0.090340681	3.134300E+01	  0.090340681	3.013200E+01
353	  0.090541080	-7.799000E+00	  0.090541080	1.008610E+02	  0.090541080	3.160200E+01	  0.090541080	3.032200E+01
354	  0.090741485	-7.820000E+00	  0.090741485	1.002760E+02	  0.090741485	3.185800E+01	  0.090741485	3.052300E+01
355	  0.090941884	-7.846000E+00	  0.090941884	9.974500E+01	  0.090941884	3.211200E+01	  0.090941884	3.068700E+01
356	  0.091142282	-7.872000E+00	  0.091142282	9.914600E+01	  0.091142282	3.239100E+01	  0.091142282	3.088000E+01
357	  0.091342688	-7.901000E+00	  0.091342688	9.859600E+01	  0.091342688	3.266500E+01	  0.091342688	3.104300E+01
358	  0.091543086	-7.925000E+00	  0.091543086	9.804200E+01	  0.091543086	3.293000E+01	  0.091543086	3.121600E+01
359	  0.091743484	-7.948000E+00	  0.091743484	9.746900E+01	  0.091743484	3.320000E+01	  0.091743484	3.140100E+01
360	  0.091943890	-7.975000E+00	  0.091943890	9.691500E+01	  0.091943890	3.347700E+01	  0.091943890	3.156500E+01
361	  0.092144288	-7.998000E+00	  0.092144288	9.634900E+01	  0.092144288	3.375000E+01	  0.092144288	3.174300E+01
362	  0.092344686	-8.026000E+00	  0.092344686	9.579600E+01	  0.092344686	3.403500E+01	  0.092344686	3.190200E+01
363	  0.092545092	-8.045000E+00	  0.092545092	9.523800E+01	  0.092545092	3.429800E+01	  0.092545092	3.208500E+01
364	  0.092745490	-8.073000E+00	  0.092745490	9.471000E+01	  0.092745490	3.457800E+01	  0.092745490	3.222900E+01
365	  0.092945889	-8.096000E+00	  0.092945889	9.416000E+01	  0.092945889	3.485500E+01	  0.092945889	3.239400E+01
366	  0.093146294	-8.127000E+00	  0.093146294	9.361700E+01	  0.093146294	3.515400E+01	  0.093146294	3.253400E+01
367	  0.093346693	-8.148000E+00	  0.093346693	9.308500E+01	  0.093346693	3.542400E+01	  0.093346693	3.269400E+01
368	  0.093547091	-8.176000E+00	  0.093547091	9.257900E+01	  0.093547091	3.570400E+01	  0.093547091	3.282100E+01
369	  0.093747497	-8.195000E+00	  0.093747497	9.200800E+01	  0.093747497	3.599000E+01	  0.093747497	3.299900E+01
370	  0.093947895	-8.222000E+00	  0.093947895	9.150600E+01	  0.093947895	3.626800E+01	  0.093947895	3.312700E+01
371	  0.094148301	-8.243000E+00	  0.094148301	9.094200E+01	  0.094148301	3.656300E+01	  0.094148301	3.329100E+01
372	  0.094348699	-8.263000E+00	  0.094348699	9.040800E+01	  0.094348699	3.684300E+01	  0.094348699	3.344600E+01
373	  0.094549097	-8.290000E+00	  0.094549097	8.992100E+01	  0.094549097	3.712300E+01	  0.094549097	3.356200E+01
374	  0.094749503	-8.309000E+00	  0.094749503	8.937800E+01	  0.094749503	3.741000E+01	  0.094749503	3.371900E+01
375	  0.094949901	-8.324000E+00	  0.094949901	8.889300E+01	  0.094949901	3.766500E+01	  0.094949901	3.386300E+01
376	  0.095150299	-8.344000E+00	  0.095150299	8.839500E+01	  0.095150299	3.793800E+01	  0.095150299	3.399900E+01
377	  0.095350705	-8.360000E+00	  0.095350705	8.791700E+01	  0.095350705	3.819400E+01	  0.095350705	3.413600E+01
378	  0.095551103	-8.373000E+00	  0.095551103	8.738900E+01	  0.095551103	3.846900E+01	  0.095551103	3.429900E+01
379	  0.095751502	-8.386000E+00	  0.095751502	8.689100E+01	  0.095751502	3.873300E+01	  0.095751502	3.445000E+01
380	  0.095951907	-8.400000E+00	  0.095951907	8.642300E+01	  0.095951907	3.898700E+01	  0.095951907	3.458500E+01
381	  0.096152306	-8.414000E+00	  0.096152306	8.593400E+01	  0.096152306	3.925400E+01	  0.096152306	3.472500E+01
382	  0.096352704	-8.426000E+00	  0.096352704	8.549500E+01	  0.096352704	3.949400E+01	  0.096352704	3.485300E+01
383	  0.096553110	-8.439000E+00	  0.096553110	8.502800E+01	  0.096553110	3.975200E+01	  0.096553110	3.498600E+01
384	  0.096753508	-8.448000E+00	  0.096753508	8.458300E+01	  0.096753508	3.999200E+01	  0.096753508	3.512300E+01
385	  0.096953906	-8.457000E+00	  0.096953906	8.413300E+01	  0.096953906	4.023500E+01	  0.096953906	3.526200E+01
386	  0.097154312	-8.464000E+00	  0.097154312	8.368400E+01	  0.097154312	4.047400E+01	  0.097154312	3.540700E+01
387	  0.097354710	-8.471000E+00	  0.097354710	8.325300E+01	  0.097354710	4.071000E+01	  0.097354710	3.554000E+01
388	  0.097555116	-8.484000E+00	  0.097555116	8.282800E+01	  0.097555116	4.095500E+01	  0.097555116	3.565400E+01
389	  0.097755514	-8.490000E+00	  0.097755514	8.242300E+01	  0.097755514	4.117700E+01	  0.097755514	3.578100E+01
390	  0.097955912	-8.499000E+00	  0.097955912	8.200700E+01	  0.097955912	4.141500E+01	  0.097955912	3.589900E+01
391	  0.098156318	-8.507000E+00	  0.098156318	8.159200E+01	  0.098156318	4.165000E+01	  0.098156318	3.602300E+01
392	  0.098356716	-8.511000E+00	  0.098356716	8.116900E+01	  0.098356716	4.188100E+01	  0.098356716	3.616200E+01
393	  0.098557115	-8.516000E+00	  0.098557115	8.077400E+01	  0.098557115	4.210300E+01	  0.098557115	3.628500E+01
394	  0.098757520	-8.524000E+00	  0.098757520	8.035600E+01	  0.098757520	4.234600E+01	  0.098757520	3.640500E+01
395	  0.098957919	-8.532000E+00	  0.098957919	7.990800E+01	  0.098957919	4.260600E+01	  0.098957919	3.653600E+01
396	  0.099158317	-8.533000E+00	  0.099158317	7.946200E+01	  0.099158317	4.285300E+01	  0.099158317	3.668800E+01
397	  0.099358723	-8.538000E+00	  0.099358723	7.905200E+01	  0.099358723	4.309000E+01	  0.099358723	3.681400E+01
398	  0.099559121	-8.542000E+00	  0.099559121	7.864000E+01	  0.099559121	4.332900E+01	  0.099559121	3.694200E+01
399	  0.099759519	-8.547000E+00	  0.099759519	7.818000E+01	  0.099759519	4.359800E+01	  0.099759519	3.708400E+01
400	  0.099959925	-8.541000E+00	  0.099959925	7.773500E+01	  0.099959925	4.383700E+01	  0.099959925	3.725800E+01
401	  0.100160323	-8.537000E+00	  0.100160323	7.727100E+01	  0.100160323	4.409500E+01	  0.100160323	3.743100E+01
402	  0.100360721	-8.540000E+00	  0.100360721	7.685200E+01	  0.100360721	4.434200E+01	  0.100360721	3.756400E+01
403	  0.100561127	-8.546000E+00	  0.100561127	7.640100E+01	  0.100561127	4.461900E+01	  0.100561127	3.769400E+01
404	  0.100761525	-8.545000E+00	  0.100761525	7.596900E+01	  0.100761525	4.487200E+01	  0.100761525	3.784300E+01
405	  0.100961931	-8.541000E+00	  0.100961931	7.549700E+01	  0.100961931	4.514600E+01	  0.100961931	3.801300E+01
406	  0.101162329	-8.532000E+00	  0.101162329	7.496200E+01	  0.101162329	4.544800E+01	  0.101162329	3.822900E+01
407	  0.101362728	-8.530000E+00	  0.101362728	7.450600E+01	  0.101362728	4.572100E+01	  0.101362728	3.838800E+01
408	  0.101563133	-8.527000E+00	  0.101563133	7.405800E+01	  0.101563133	4.599000E+01	  0.101563133	3.854700E+01
409	  0.101763532	-8.520000E+00	  0.101763532	7.355600E+01	  0.101763532	4.628900E+01	  0.101763532	3.873600E+01
410	  0.101963930	-8.518000E+00	  0.101963930	7.306000E+01	  0.101963930	4.659700E+01	  0.101963930	3.890500E+01
411	  0.102164328	-8.513000E+00	  0.102164328	7.259000E+01	  0.102164328	4.688500E+01	  0.102164328	3.907700E+01
412	  0.102364726	-8.505000E+00	  0.102364726	7.207700E+01	  0.102364726	4.719800E+01	  0.102364726	3.927500E+01
413	  0.102565125	-8.485000E+00	  0.102565125	7.159200E+01	  0.102565125	4.747300E+01	  0.102565125	3.951200E+01
414	  0.102765530	-8.486000E+00	  0.102765530	7.108300E+01	  0.102765530	4.780900E+01	  0.102765530	3.966900E+01
415	  0.102965929	-8.464000E+00	  0.102965929	7.057800E+01	  0.102965929	4.810000E+01	  0.102965929	3.992400E+01
416	  0.103166327	-8.465000E+00	  0.103166327	7.011500E+01	  0.103166327	4.841400E+01	  0.103166327	4.006200E+01
417	  0.103366733	-8.448000E+00	  0.103366733	6.957200E+01	  0.103366733	4.875000E+01	  0.103366733	4.030500E+01
418	  0.103567131	-8.443000E+00	  0.103567131	6.908100E+01	  0.103567131	4.907900E+01	  0.103567131	4.047600E+01
419	  0.103767529	-8.437000E+00	  0.103767529	6.858300E+01	  0.103767529	4.941500E+01	  0.103767529	4.065200E+01
420	  0.103967935	-8.428000E+00	  0.103967935	6.804800E+01	  0.103967935	4.977400E+01	  0.103967935	4.085400E+01
421	  0.104168333	-8.408000E+00	  0.104168333	6.755400E+01	  0.104168333	5.008700E+01	  0.104168333	4.109500E+01
422	  0.104368731	-8.401000E+00	  0.104368731	6.707500E+01	  0.104368731	5.042000E+01	  0.104368731	4.126800E+01
423	  0.104569137	-8.400000E+00	  0.104569137	6.658800E+01	  0.104569137	5.077500E+01	  0.104569137	4.141100E+01
424	  0.104769535	-8.389000E+00	  0.104769535	6.605300E+01	  0.104769535	5.114800E+01	  0.104769535	4.161800E+01
425	  0.104969934	-8.381000E+00	  0.104969934	6.554500E+01	  0.104969934	5.151300E+01	  0.104969934	4.180200E+01
426	  0.105170339	-8.374000E+00	  0.105170339	6.511600E+01	  0.105170339	5.182400E+01	  0.105170339	4.195400E+01
427	  0.105370738	-8.366000E+00	  0.105370738	6.454100E+01	  0.105370738	5.225000E+01	  0.105370738	4.215000E+01
428	  0.105571143	-8.351000E+00	  0.105571143	6.405900E+01	  0.105571143	5.259600E+01	  0.105571143	4.235400E+01
429	  0.105771542	-8.344000E+00	  0.105771542	6.350400E+01	  0.105771542	5.301800E+01	  0.105771542	4.253700E+01
430	  0.105971940	-8.340000E+00	  0.105971940	6.293900E+01	  0.105971940	5.345900E+01	  0.105971940	4.270400E+01
431	  0.106172346	-8.332000E+00	  0.106172346	6.244500E+01	  0.106172346	5.384100E+01	  0.106172346	4.287400E+01
432	  0.106372744	-8.324000E+00	  0.106372744	6.190800E+01	  0.106372744	5.426200E+01	  0.106372744	4.305100E+01
433	  0.106573142	-8.315000E+00	  0.106573142	6.134100E+01	  0.106573142	5.471400E+01	  0.106573142	4.323800E+01
434	  0.106773548	-8.310000E+00	  0.106773548	6.078100E+01	  0.106773548	5.517100E+01	  0.106773548	4.339800E+01
435	  0.106973946	-8.293000E+00	  0.106973946	6.022700E+01	  0.106973946	5.561100E+01	  0.106973946	4.362000E+01
436	  0.107174344	-8.286000E+00	  0.107174344	5.963700E+01	  0.107174344	5.610300E+01	  0.107174344	4.379200E+01
437	  0.107374750	-8.273000E+00	  0.107374750	5.906900E+01	  0.107374750	5.657600E+01	  0.107374750	4.398900E+01
438	  0.107575148	-8.260000E+00	  0.107575148	5.850100E+01	  0.107575148	5.705400E+01	  0.107575148	4.418600E+01
439	  0.107775547	-8.253000E+00	  0.107775547	5.787400E+01	  0.107775547	5.760000E+01	  0.107775547	4.435100E+01
440	  0.107975952	-8.229000E+00	  0.107975952	5.727100E+01	  0.107975952	5.811000E+01	  0.107975952	4.461500E+01
441	  0.108176351	-8.222000E+00	  0.108176351	5.667700E+01	  0.108176351	5.864200E+01	  0.108176351	4.477100E+01
442	  0.108376749	-8.216000E+00	  0.108376749	5.607300E+01	  0.108376749	5.919200E+01	  0.108376749	4.491400E+01
443	  0.108577155	-8.205000E+00	  0.108577155	5.545300E+01	  0.108577155	5.975900E+01	  0.108577155	4.508900E+01
444	  0.108777553	-8.186000E+00	  0.108777553	5.477000E+01	  0.108777553	6.038700E+01	  0.108777553	4.531800E+01
445	  0.108977959	-8.180000E+00	  0.108977959	5.411400E+01	  0.108977959	6.101100E+01	  0.108977959	4.545600E+01
446	  0.109178357	-8.163000E+00	  0.109178357	5.341800E+01	  0.109178357	6.167400E+01	  0.109178357	4.567000E+01
447	  0.109378755	-8.149000E+00	  0.109378755	5.281100E+01	  0.109378755	6.226300E+01	  0.109378755	4.584100E+01
448	  0.109579161	-8.142000E+00	  0.109579161	5.213300E+01	  0.109579161	6.293700E+01	  0.109579161	4.596800E+01
449	  0.109779559	-8.119000E+00	  0.109779559	5.149100E+01	  0.109779559	6.357400E+01	  0.109779559	4.619200E+01
450	  0.109979957	-8.105000E+00	  0.109979957	5.081600E+01	  0.109979957	6.426200E+01	  0.109979957	4.634900E+01
451	  0.110180363	-8.098000E+00	  0.110180363	5.010200E+01	  0.110180363	6.500600E+01	  0.110180363	4.645600E+01
452	  0.110380761	-8.087000E+00	  0.110380761	4.943400E+01	  0.110380761	6.570900E+01	  0.110380761	4.658100E+01
453	  0.110581160	-8.072000E+00	  0.110581160	4.876100E+01	  0.110581160	6.642800E+01	  0.110581160	4.672500E+01
454	  0.110781565	-8.063000E+00	  0.110781565	4.802700E+01	  0.110781565	6.722700E+01	  0.110781565	4.682000E+01
455	  0.110981964	-8.053000E+00	  0.110981964	4.733400E+01	  0.110981964	6.799200E+01	  0.110981964	4.690900E+01
456	  0.111182362	-8.039000E+00	  0.111182362	4.664300E+01	  0.111182362	6.876600E+01	  0.111182362	4.701200E+01
457	  0.111382768	-8.029000E+00	  0.111382768	4.590700E+01	  0.111382768	6.960300E+01	  0.111382768	4.707800E+01
458	  0.111583166	-8.027000E+00	  0.111583166	4.519300E+01	  0.111583166	7.042500E+01	  0.111583166	4.706900E+01
459	  0.111783572	-8.028000E+00	  0.111783572	4.448400E+01	  0.111783572	7.124900E+01	  0.111783572	4.702300E+01
460	  0.111983970	-8.019000E+00	  0.111983970	4.370400E+01	  0.111983970	7.217200E+01	  0.111983970	4.703700E+01
461	  0.112184368	-8.013000E+00	  0.112184368	4.297000E+01	  0.112184368	7.305100E+01	  0.112184368	4.701000E+01
462	  0.112384774	-8.016000E+00	  0.112384774	4.218200E+01	  0.112384774	7.399800E+01	  0.112384774	4.688800E+01
463	  0.112585172	-8.012000E+00	  0.112585172	4.141300E+01	  0.112585172	7.493800E+01	  0.112585172	4.680600E+01
464	  0.112785570	-8.009000E+00	  0.112785570	4.063800E+01	  0.112785570	7.589500E+01	  0.112785570	4.669700E+01
465	  0.112985976	-8.009000E+00	  0.112985976	3.985200E+01	  0.112985976	7.687300E+01	  0.112985976	4.653800E+01
466	  0.113186374	-8.018000E+00	  0.113186374	3.908000E+01	  0.113186374	7.782700E+01	  0.113186374	4.628700E+01
467	  0.113386773	-8.013000E+00	  0.113386773	3.826800E+01	  0.113386773	7.886100E+01	  0.113386773	4.611000E+01
468	  0.113587178	-8.024000E+00	  0.113587178	3.746700E+01	  0.113587178	7.985900E+01	  0.113587178	4.578700E+01
469	  0.113787577	-8.033000E+00	  0.113787577	3.663600E+01	  0.113787577	8.090300E+01	  0.113787577	4.543400E+01
470	  0.113987975	-8.040000E+00	  0.113987975	3.579000E+01	  0.113987975	8.197400E+01	  0.113987975	4.506700E+01
471	  0.114188381	-8.049000E+00	  0.114188381	3.491400E+01	  0.114188381	8.308300E+01	  0.114188381	4.464200E+01
472	  0.114388779	-8.055000E+00	  0.114388779	3.404300E+01	  0.114388779	8.419600E+01	  0.114388779	4.420900E+01
473	  0.114589177	-8.065000E+00	  0.114589177	3.315800E+01	  0.114589177	8.531500E+01	  0.114589177	4.369700E+01
474	  0.114789583	-8.076000E+00	  0.114789583	3.223700E+01	  0.114789583	8.647600E+01	  0.114789583	4.312000E+01
475	  0.114989981	-8.089000E+00	  0.114989981	3.134700E+01	  0.114989981	8.758700E+01	  0.114989981	4.250900E+01
476	  0.115190387	-8.097000E+00	  0.115190387	3.043300E+01	  0.115190387	8.873900E+01	  0.115190387	4.188000E+01
477	  0.115390785	-8.118000E+00	  0.115390785	2.951000E+01	  0.115390785	8.984400E+01	  0.115390785	4.109800E+01
478	  0.115591183	-8.127000E+00	  0.115591183	2.858900E+01	  0.115591183	9.098800E+01	  0.115591183	4.037900E+01
479	  0.115791589	-8.145000E+00	  0.115791589	2.761800E+01	  0.115791589	9.213800E+01	  0.115791589	3.950000E+01
480	  0.115991987	-8.169000E+00	  0.115991987	2.667600E+01	  0.115991987	9.319600E+01	  0.115991987	3.854300E+01
481	  0.116192386	-8.181000E+00	  0.116192386	2.574800E+01	  0.116192386	9.428800E+01	  0.116192386	3.766200E+01
482	  0.116392791	-8.209000E+00	  0.116392791	2.476700E+01	  0.116392791	9.532800E+01	  0.116392791	3.655800E+01
483	  0.116593190	-8.231000E+00	  0.116593190	2.377500E+01	  0.116593190	9.638700E+01	  0.116593190	3.545100E+01
484	  0.116793588	-8.257000E+00	  0.116793588	2.276900E+01	  0.116793588	9.740700E+01	  0.116793588	3.425900E+01
485	  0.116993994	-8.286000E+00	  0.116993994	2.172100E+01	  0.116993994	9.840700E+01	  0.116993994	3.294300E+01
486	  0.117194392	-8.312000E+00	  0.117194392	2.073600E+01	  0.117194392	9.932000E+01	  0.117194392	3.168100E+01
487	  0.117394790	-8.351000E+00	  0.117394790	1.966300E+01	  0.117394790	1.001890E+02	  0.117394790	3.019300E+01
488	  0.117595196	-8.385000E+00	  0.117595196	1.863700E+01	  0.117595196	1.009850E+02	  0.117595196	2.875000E+01
489	  0.117795594	-8.420000E+00	  0.117795594	1.762000E+01	  0.117795594	1.017140E+02	  0.117795594	2.728300E+01
490	  0.117995992	-8.457000E+00	  0.117995992	1.651900E+01	  0.117995992	1.024400E+02	  0.117995992	2.566300E+01
491	  0.118196398	-8.504000E+00	  0.118196398	1.545000E+01	  0.118196398	1.029910E+02	  0.118196398	2.399900E+01
492	  0.118396796	-8.550000E+00	  0.118396796	1.431500E+01	  0.118396796	1.035340E+02	  0.118396796	2.223500E+01
