! Anritsu VNA Master:             	Model: MS2036C/10/77
! SN:             	1601066
! /bd0/18may10/255.ns.m4.txt
! Existing Calibration Information:
! TYPE:             	Current Settings	Active Cal Settings
! TIME:             	05/10/2018 02:25:57 PM	05/10/2018 02:13:17 PM
! INTERNAL TEMP:    	59.0 C	57.5 C
! # POINTS:         	492	492
! START FREQ:       	20.000 MHz	20.000 MHz
! STOP FREQ:        	118.396 793 MHz	118.396 793 MHz
! SOURCE POWER:     	High	High
! IFBW:             	50 Hz	50 Hz
! AVG FACTOR:       	  1 	  1 
! REF PLANE 1:      	0 mm	0 mm
! REF PLANE 2:      	0 mm	0 mm
! CAL TYPE:         	Full S22	Full S22
! CAL METHOD:       	SOLT	SOLT
! CAL LINE TYPE:    	Coax	Coax
! DUT PORT 1:       	K-Conn(M)	K-Conn(M)
! DUT PORT 2:       	K-Conn(M)	K-Conn(M)
! CAL STATUS:       	OK: Accuracy High	--
! PROP-V:       	0.700
! CABLE LOSS:       	0.000 dB/m
! REF IMPEDANCE:       	50.0
! Trace Specific Parameters:	TR1	TR2	TR3	TR4
! TRACE.#.Y (GRAPH TYPE)	LOG MAG	PHASE	REAL IMPEDANCE	IMAGINARY IMPEDANCE
! TRACE.#.X 	FREQ.GHZ	FREQ.GHZ	FREQ.GHZ	FREQ.GHZ
! S-PARAMETER	S22	S22	S22	S22
! SMOOTH/APERTURE %	0	0	0	0
! WINDOW	NSL	NSL	NSL	NSL
! GATING	OFF	OFF	OFF	OFF
! FGTD	OFF	OFF	OFF	OFF
Marker Information per Trace:	TR1	TR2	TR3	TR4
!MK1	--	"MK1 TR2:  20.000 MHz,PH:-125.31°"	--	--
!MK2	--	--	"MK2 TR3:  70.100 200 MHz,Z:(17.279 ohm, -1.516 ohm)"	--
!MK3	--	--	--	--
!MK4	--	--	--	--
!MK5	--	--	--	--
!MK6	--	--	--	--
!MK7	--	--	--	--
!MK8	--	--	--	--
PNT	TR1.FREQ.GHZ	TR1.LOG MAG.dB	TR2.FREQ.GHZ	TR2.PHASE.deg	TR3.FREQ.GHZ	TR3.REAL IMPEDANCE.ohm	TR4.FREQ.GHZ	TR4.IMAGINARY IMPEDANCE.ohm
1	  0.020000000	-6.510000E-01	  0.020000000	-1.253100E+02	  0.020000000	2.373000E+00	  0.020000000	-2.581000E+01
2	  0.020200402	-6.550000E-01	  0.020200402	-1.267570E+02	  0.020200402	2.357000E+00	  0.020200402	-2.501600E+01
3	  0.020400802	-6.560000E-01	  0.020400802	-1.281970E+02	  0.020400802	2.334000E+00	  0.020400802	-2.423700E+01
4	  0.020601204	-6.610000E-01	  0.020601204	-1.296750E+02	  0.020601204	2.320000E+00	  0.020601204	-2.344600E+01
5	  0.020801604	-6.640000E-01	  0.020801604	-1.311710E+02	  0.020801604	2.304000E+00	  0.020801604	-2.265600E+01
6	  0.021002004	-6.660000E-01	  0.021002004	-1.326850E+02	  0.021002004	2.283000E+00	  0.021002004	-2.186500E+01
7	  0.021202406	-6.710000E-01	  0.021202406	-1.342000E+02	  0.021202406	2.274000E+00	  0.021202406	-2.108300E+01
8	  0.021402806	-6.710000E-01	  0.021402806	-1.357230E+02	  0.021402806	2.252000E+00	  0.021402806	-2.030600E+01
9	  0.021603208	-6.760000E-01	  0.021603208	-1.372400E+02	  0.021603208	2.242000E+00	  0.021603208	-1.954000E+01
10	  0.021803608	-6.780000E-01	  0.021803608	-1.387520E+02	  0.021803608	2.229000E+00	  0.021803608	-1.878400E+01
11	  0.022004008	-6.820000E-01	  0.022004008	-1.402780E+02	  0.022004008	2.220000E+00	  0.022004008	-1.802900E+01
12	  0.022204408	-6.870000E-01	  0.022204408	-1.418450E+02	  0.022204408	2.215000E+00	  0.022204408	-1.726100E+01
13	  0.022404809	-6.930000E-01	  0.022404809	-1.434140E+02	  0.022404809	2.212000E+00	  0.022404809	-1.649900E+01
14	  0.022605211	-6.960000E-01	  0.022605211	-1.449990E+02	  0.022605211	2.202000E+00	  0.022605211	-1.573700E+01
15	  0.022805611	-6.990000E-01	  0.022805611	-1.465890E+02	  0.022805611	2.192000E+00	  0.022805611	-1.497900E+01
16	  0.023006011	-7.020000E-01	  0.023006011	-1.481730E+02	  0.023006011	2.184000E+00	  0.023006011	-1.423000E+01
17	  0.023206413	-7.050000E-01	  0.023206413	-1.497550E+02	  0.023206413	2.177000E+00	  0.023206413	-1.348700E+01
18	  0.023406813	-7.100000E-01	  0.023406813	-1.513340E+02	  0.023406813	2.178000E+00	  0.023406813	-1.275200E+01
19	  0.023607215	-7.150000E-01	  0.023607215	-1.529260E+02	  0.023607215	2.176000E+00	  0.023607215	-1.201600E+01
20	  0.023807615	-7.230000E-01	  0.023807615	-1.545390E+02	  0.023807615	2.188000E+00	  0.023807615	-1.127500E+01
21	  0.024008015	-7.300000E-01	  0.024008015	-1.561700E+02	  0.024008015	2.193000E+00	  0.024008015	-1.053000E+01
22	  0.024208417	-7.360000E-01	  0.024208417	-1.578160E+02	  0.024208417	2.198000E+00	  0.024208417	-9.784000E+00
23	  0.024408817	-7.420000E-01	  0.024408817	-1.594650E+02	  0.024408817	2.204000E+00	  0.024408817	-9.039000E+00
24	  0.024609219	-7.460000E-01	  0.024609219	-1.611140E+02	  0.024609219	2.207000E+00	  0.024609219	-8.300000E+00
25	  0.024809619	-7.560000E-01	  0.024809619	-1.627660E+02	  0.024809619	2.224000E+00	  0.024809619	-7.562000E+00
26	  0.025010020	-7.630000E-01	  0.025010020	-1.644260E+02	  0.025010020	2.237000E+00	  0.025010020	-6.824000E+00
27	  0.025210422	-7.720000E-01	  0.025210422	-1.660970E+02	  0.025210422	2.255000E+00	  0.025210422	-6.083000E+00
28	  0.025410822	-7.830000E-01	  0.025410822	-1.677780E+02	  0.025410822	2.279000E+00	  0.025410822	-5.341000E+00
29	  0.025611224	-7.940000E-01	  0.025611224	-1.694630E+02	  0.025611224	2.304000E+00	  0.025611224	-4.600000E+00
30	  0.025811624	-8.040000E-01	  0.025811624	-1.711710E+02	  0.025811624	2.328000E+00	  0.025811624	-3.851000E+00
31	  0.026012026	-8.150000E-01	  0.026012026	-1.728830E+02	  0.026012026	2.355000E+00	  0.026012026	-3.102000E+00
32	  0.026212426	-8.240000E-01	  0.026212426	-1.746100E+02	  0.026212426	2.377000E+00	  0.026212426	-2.347000E+00
33	  0.026412826	-8.390000E-01	  0.026412826	-1.763330E+02	  0.026412826	2.417000E+00	  0.026412826	-1.596000E+00
34	  0.026613226	-8.530000E-01	  0.026613226	-1.780720E+02	  0.026613226	2.456000E+00	  0.026613226	-8.390000E-01
35	  0.026813626	-8.690000E-01	  0.026813626	-1.798210E+02	  0.026813626	2.499000E+00	  0.026813626	-7.700000E-02
36	  0.027014028	-8.840000E-01	  0.027014028	1.784300E+02	  0.027014028	2.544000E+00	  0.027014028	6.820000E-01
37	  0.027214428	-9.020000E-01	  0.027214428	1.766750E+02	  0.027214428	2.598000E+00	  0.027214428	1.446000E+00
38	  0.027414829	-9.170000E-01	  0.027414829	1.749050E+02	  0.027414829	2.642000E+00	  0.027414829	2.218000E+00
39	  0.027615231	-9.360000E-01	  0.027615231	1.731260E+02	  0.027615231	2.701000E+00	  0.027615231	2.994000E+00
40	  0.027815631	-9.540000E-01	  0.027815631	1.713450E+02	  0.027815631	2.759000E+00	  0.027815631	3.771000E+00
41	  0.028016033	-9.730000E-01	  0.028016033	1.695330E+02	  0.028016033	2.821000E+00	  0.028016033	4.565000E+00
42	  0.028216433	-9.930000E-01	  0.028216433	1.677210E+02	  0.028216433	2.887000E+00	  0.028216433	5.360000E+00
43	  0.028416833	-1.013000E+00	  0.028416833	1.659020E+02	  0.028416833	2.959000E+00	  0.028416833	6.161000E+00
44	  0.028617235	-1.035000E+00	  0.028617235	1.640790E+02	  0.028617235	3.035000E+00	  0.028617235	6.966000E+00
45	  0.028817635	-1.059000E+00	  0.028817635	1.622570E+02	  0.028817635	3.118000E+00	  0.028817635	7.774000E+00
46	  0.029018037	-1.082000E+00	  0.029018037	1.604250E+02	  0.029018037	3.202000E+00	  0.029018037	8.590000E+00
47	  0.029218437	-1.106000E+00	  0.029218437	1.585810E+02	  0.029218437	3.294000E+00	  0.029218437	9.416000E+00
48	  0.029418837	-1.133000E+00	  0.029418837	1.567160E+02	  0.029418837	3.396000E+00	  0.029418837	1.025500E+01
49	  0.029619239	-1.160000E+00	  0.029619239	1.548480E+02	  0.029619239	3.500000E+00	  0.029619239	1.110200E+01
50	  0.029819639	-1.187000E+00	  0.029819639	1.529620E+02	  0.029819639	3.607000E+00	  0.029819639	1.196200E+01
51	  0.030020041	-1.216000E+00	  0.030020041	1.510760E+02	  0.030020041	3.728000E+00	  0.030020041	1.282800E+01
52	  0.030220442	-1.246000E+00	  0.030220442	1.491920E+02	  0.030220442	3.852000E+00	  0.030220442	1.369900E+01
53	  0.030420844	-1.274000E+00	  0.030420844	1.472840E+02	  0.030420844	3.974000E+00	  0.030420844	1.459000E+01
54	  0.030621244	-1.307000E+00	  0.030621244	1.454050E+02	  0.030621244	4.117000E+00	  0.030621244	1.547400E+01
55	  0.030821642	-1.341000E+00	  0.030821642	1.434920E+02	  0.030821642	4.269000E+00	  0.030821642	1.638200E+01
56	  0.031022044	-1.373000E+00	  0.031022044	1.415750E+02	  0.031022044	4.422000E+00	  0.031022044	1.730200E+01
57	  0.031222444	-1.406000E+00	  0.031222444	1.396470E+02	  0.031222444	4.580000E+00	  0.031222444	1.823700E+01
58	  0.031422846	-1.441000E+00	  0.031422846	1.376860E+02	  0.031422846	4.755000E+00	  0.031422846	1.919700E+01
59	  0.031623244	-1.478000E+00	  0.031623244	1.357260E+02	  0.031623244	4.940000E+00	  0.031623244	2.016900E+01
60	  0.031823646	-1.512000E+00	  0.031823646	1.337600E+02	  0.031823646	5.125000E+00	  0.031823646	2.115700E+01
61	  0.032024048	-1.548000E+00	  0.032024048	1.317940E+02	  0.032024048	5.326000E+00	  0.032024048	2.215700E+01
62	  0.032224450	-1.588000E+00	  0.032224450	1.298120E+02	  0.032224450	5.548000E+00	  0.032224450	2.317800E+01
63	  0.032424849	-1.625000E+00	  0.032424849	1.278300E+02	  0.032424849	5.771000E+00	  0.032424849	2.421400E+01
64	  0.032625251	-1.664000E+00	  0.032625251	1.258480E+02	  0.032625251	6.008000E+00	  0.032625251	2.526600E+01
65	  0.032825653	-1.700000E+00	  0.032825653	1.238080E+02	  0.032825653	6.251000E+00	  0.032825653	2.636700E+01
66	  0.033026051	-1.738000E+00	  0.033026051	1.217940E+02	  0.033026051	6.512000E+00	  0.033026051	2.747100E+01
67	  0.033226453	-1.777000E+00	  0.033226453	1.197650E+02	  0.033226453	6.790000E+00	  0.033226453	2.860200E+01
68	  0.033426855	-1.813000E+00	  0.033426855	1.177370E+02	  0.033426855	7.071000E+00	  0.033426855	2.975400E+01
69	  0.033627257	-1.856000E+00	  0.033627257	1.157490E+02	  0.033627257	7.389000E+00	  0.033627257	3.090100E+01
70	  0.033827655	-1.894000E+00	  0.033827655	1.137320E+02	  0.033827655	7.705000E+00	  0.033827655	3.209000E+01
71	  0.034028057	-1.933000E+00	  0.034028057	1.117160E+02	  0.034028057	8.046000E+00	  0.034028057	3.330000E+01
72	  0.034228459	-1.977000E+00	  0.034228459	1.096890E+02	  0.034228459	8.424000E+00	  0.034228459	3.454000E+01
73	  0.034428857	-2.020000E+00	  0.034428857	1.076770E+02	  0.034428857	8.816000E+00	  0.034428857	3.579600E+01
74	  0.034629259	-2.059000E+00	  0.034629259	1.056290E+02	  0.034629259	9.221000E+00	  0.034629259	3.710500E+01
75	  0.034829661	-2.102000E+00	  0.034829661	1.036070E+02	  0.034829661	9.665000E+00	  0.034829661	3.842400E+01
76	  0.035030060	-2.149000E+00	  0.035030060	1.015690E+02	  0.035030060	1.015000E+01	  0.035030060	3.978100E+01
77	  0.035230462	-2.197000E+00	  0.035230462	9.953800E+01	  0.035230462	1.067500E+01	  0.035230462	4.116200E+01
78	  0.035430863	-2.249000E+00	  0.035430863	9.750500E+01	  0.035430863	1.124600E+01	  0.035430863	4.257400E+01
79	  0.035631265	-2.298000E+00	  0.035631265	9.548600E+01	  0.035631265	1.183600E+01	  0.035631265	4.401200E+01
80	  0.035831664	-2.349000E+00	  0.035831664	9.343300E+01	  0.035831664	1.248100E+01	  0.035831664	4.550900E+01
81	  0.036032066	-2.402000E+00	  0.036032066	9.139400E+01	  0.036032066	1.317900E+01	  0.036032066	4.702900E+01
82	  0.036232468	-2.455000E+00	  0.036232468	8.934400E+01	  0.036232468	1.392300E+01	  0.036232468	4.859700E+01
83	  0.036432866	-2.507000E+00	  0.036432866	8.728900E+01	  0.036432866	1.471300E+01	  0.036432866	5.021100E+01
84	  0.036633268	-2.563000E+00	  0.036633268	8.522600E+01	  0.036633268	1.558300E+01	  0.036633268	5.186700E+01
85	  0.036833670	-2.622000E+00	  0.036833670	8.314700E+01	  0.036833670	1.654200E+01	  0.036833670	5.357400E+01
86	  0.037034072	-2.680000E+00	  0.037034072	8.106900E+01	  0.037034072	1.755800E+01	  0.037034072	5.532700E+01
87	  0.037234470	-2.739000E+00	  0.037234470	7.898900E+01	  0.037234470	1.865900E+01	  0.037234470	5.712500E+01
88	  0.037434869	-2.797000E+00	  0.037434869	7.690200E+01	  0.037434869	1.984400E+01	  0.037434869	5.897800E+01
89	  0.037635271	-2.859000E+00	  0.037635271	7.481400E+01	  0.037635271	2.114200E+01	  0.037635271	6.086900E+01
90	  0.037835669	-2.922000E+00	  0.037835669	7.271700E+01	  0.037835669	2.255100E+01	  0.037835669	6.281500E+01
91	  0.038036071	-2.981000E+00	  0.038036071	7.060000E+01	  0.038036071	2.406600E+01	  0.038036071	6.483900E+01
92	  0.038236473	-3.042000E+00	  0.038236473	6.846200E+01	  0.038236473	2.572300E+01	  0.038236473	6.693200E+01
93	  0.038436871	-3.105000E+00	  0.038436871	6.631200E+01	  0.038436871	2.754600E+01	  0.038436871	6.907600E+01
94	  0.038637273	-3.168000E+00	  0.038637273	6.418200E+01	  0.038637273	2.951100E+01	  0.038637273	7.124500E+01
95	  0.038837675	-3.226000E+00	  0.038837675	6.205700E+01	  0.038837675	3.161000E+01	  0.038837675	7.346900E+01
96	  0.039038073	-3.285000E+00	  0.039038073	5.994400E+01	  0.039038073	3.388000E+01	  0.039038073	7.571900E+01
97	  0.039238475	-3.340000E+00	  0.039238475	5.784300E+01	  0.039238475	3.631700E+01	  0.039238475	7.800800E+01
98	  0.039438877	-3.397000E+00	  0.039438877	5.572100E+01	  0.039438877	3.900300E+01	  0.039438877	8.034200E+01
99	  0.039639279	-3.454000E+00	  0.039639279	5.361500E+01	  0.039639279	4.192400E+01	  0.039639279	8.266400E+01
100	  0.039839678	-3.509000E+00	  0.039839678	5.148000E+01	  0.039839678	4.512600E+01	  0.039839678	8.505100E+01
101	  0.040040080	-3.561000E+00	  0.040040080	4.938900E+01	  0.040040080	4.853800E+01	  0.040040080	8.739100E+01
102	  0.040240481	-3.611000E+00	  0.040240481	4.730400E+01	  0.040240481	5.223500E+01	  0.040240481	8.971600E+01
103	  0.040440880	-3.664000E+00	  0.040440880	4.522900E+01	  0.040440880	5.627800E+01	  0.040440880	9.194500E+01
104	  0.040641282	-3.714000E+00	  0.040641282	4.317800E+01	  0.040641282	6.061400E+01	  0.040641282	9.409200E+01
105	  0.040841684	-3.765000E+00	  0.040841684	4.113900E+01	  0.040841684	6.531800E+01	  0.040841684	9.608700E+01
106	  0.041042086	-3.817000E+00	  0.041042086	3.913000E+01	  0.041042086	7.036900E+01	  0.041042086	9.786000E+01
107	  0.041242484	-3.870000E+00	  0.041242484	3.711000E+01	  0.041242484	7.587300E+01	  0.041242484	9.941100E+01
108	  0.041442886	-3.923000E+00	  0.041442886	3.508700E+01	  0.041442886	8.182900E+01	  0.041442886	1.006740E+02
109	  0.041643288	-3.974000E+00	  0.041643288	3.309200E+01	  0.041643288	8.813500E+01	  0.041643288	1.015890E+02
110	  0.041843686	-4.025000E+00	  0.041843686	3.107700E+01	  0.041843686	9.495800E+01	  0.041843686	1.020650E+02
111	  0.042044088	-4.073000E+00	  0.042044088	2.909800E+01	  0.042044088	1.020820E+02	  0.042044088	1.020740E+02
112	  0.042244490	-4.127000E+00	  0.042244490	2.712900E+01	  0.042244490	1.095850E+02	  0.042244490	1.013070E+02
113	  0.042444889	-4.180000E+00	  0.042444889	2.516000E+01	  0.042444889	1.174170E+02	  0.042444889	9.981500E+01
114	  0.042645290	-4.234000E+00	  0.042645290	2.320000E+01	  0.042645290	1.254590E+02	  0.042645290	9.746800E+01
115	  0.042845692	-4.287000E+00	  0.042845692	2.125200E+01	  0.042845692	1.335970E+02	  0.042845692	9.422400E+01
116	  0.043046094	-4.340000E+00	  0.043046094	1.927500E+01	  0.043046094	1.418760E+02	  0.043046094	8.994300E+01
117	  0.043246493	-4.395000E+00	  0.043246493	1.730400E+01	  0.043246493	1.499270E+02	  0.043246493	8.447000E+01
118	  0.043446895	-4.446000E+00	  0.043446895	1.534100E+01	  0.043446895	1.576510E+02	  0.043446895	7.803400E+01
119	  0.043647297	-4.496000E+00	  0.043647297	1.336900E+01	  0.043647297	1.648590E+02	  0.043647297	7.045200E+01
120	  0.043847695	-4.551000E+00	  0.043847695	1.140500E+01	  0.043847695	1.711140E+02	  0.043847695	6.170800E+01
121	  0.044048097	-4.604000E+00	  0.044048097	9.428000E+00	  0.044048097	1.764680E+02	  0.044048097	5.206000E+01
122	  0.044248499	-4.654000E+00	  0.044248499	7.463000E+00	  0.044248499	1.806490E+02	  0.044248499	4.176100E+01
123	  0.044448901	-4.706000E+00	  0.044448901	5.509000E+00	  0.044448901	1.834110E+02	  0.044448901	3.095800E+01
124	  0.044649299	-4.754000E+00	  0.044649299	3.531000E+00	  0.044649299	1.849300E+02	  0.044649299	1.980500E+01
125	  0.044849701	-4.800000E+00	  0.044849701	1.556000E+00	  0.044849701	1.850740E+02	  0.044849701	8.650000E+00
126	  0.045050103	-4.849000E+00	  0.045050103	-4.010000E-01	  0.045050103	1.837080E+02	  0.045050103	-2.188000E+00
127	  0.045250501	-4.895000E+00	  0.045250501	-2.365000E+00	  0.045250501	1.811680E+02	  0.045250501	-1.259000E+01
128	  0.045450903	-4.938000E+00	  0.045450903	-4.327000E+00	  0.045450903	1.775510E+02	  0.045450903	-2.234100E+01
129	  0.045651305	-4.983000E+00	  0.045651305	-6.280000E+00	  0.045651305	1.729040E+02	  0.045651305	-3.122200E+01
130	  0.045851704	-5.021000E+00	  0.045851704	-8.222000E+00	  0.045851704	1.677200E+02	  0.045851704	-3.926600E+01
131	  0.046052102	-5.060000E+00	  0.046052102	-1.016500E+01	  0.046052102	1.619070E+02	  0.046052102	-4.637600E+01
132	  0.046252504	-5.098000E+00	  0.046252504	-1.207600E+01	  0.046252504	1.557840E+02	  0.046252504	-5.246300E+01
133	  0.046452906	-5.134000E+00	  0.046452906	-1.396600E+01	  0.046452906	1.494880E+02	  0.046452906	-5.761900E+01
134	  0.046653304	-5.166000E+00	  0.046653304	-1.588600E+01	  0.046653304	1.430620E+02	  0.046653304	-6.211500E+01
135	  0.046853706	-5.198000E+00	  0.046853706	-1.776000E+01	  0.046853706	1.367300E+02	  0.046853706	-6.569900E+01
136	  0.047054108	-5.230000E+00	  0.047054108	-1.965600E+01	  0.047054108	1.303850E+02	  0.047054108	-6.861100E+01
137	  0.047254506	-5.259000E+00	  0.047254506	-2.152400E+01	  0.047254506	1.242940E+02	  0.047254506	-7.089200E+01
138	  0.047454908	-5.290000E+00	  0.047454908	-2.336600E+01	  0.047454908	1.184480E+02	  0.047454908	-7.256200E+01
139	  0.047655310	-5.317000E+00	  0.047655310	-2.520700E+01	  0.047655310	1.128310E+02	  0.047655310	-7.379200E+01
140	  0.047855709	-5.346000E+00	  0.047855709	-2.699500E+01	  0.047855709	1.075900E+02	  0.047855709	-7.453700E+01
141	  0.048056111	-5.376000E+00	  0.048056111	-2.877200E+01	  0.048056111	1.026170E+02	  0.048056111	-7.492500E+01
142	  0.048256513	-5.407000E+00	  0.048256513	-3.056500E+01	  0.048256513	9.784600E+01	  0.048256513	-7.499000E+01
143	  0.048456915	-5.432000E+00	  0.048456915	-3.234000E+01	  0.048456915	9.337700E+01	  0.048456915	-7.488800E+01
144	  0.048657313	-5.461000E+00	  0.048657313	-3.410100E+01	  0.048657313	8.917800E+01	  0.048657313	-7.451300E+01
145	  0.048857715	-5.487000E+00	  0.048857715	-3.586600E+01	  0.048857715	8.520100E+01	  0.048857715	-7.399700E+01
146	  0.049058117	-5.511000E+00	  0.049058117	-3.761800E+01	  0.049058117	8.147200E+01	  0.049058117	-7.335800E+01
147	  0.049258515	-5.536000E+00	  0.049258515	-3.936900E+01	  0.049258515	7.796300E+01	  0.049258515	-7.256500E+01
148	  0.049458917	-5.563000E+00	  0.049458917	-4.109000E+01	  0.049458917	7.471300E+01	  0.049458917	-7.165700E+01
149	  0.049659319	-5.590000E+00	  0.049659319	-4.280000E+01	  0.049659319	7.167200E+01	  0.049659319	-7.068100E+01
150	  0.049859721	-5.616000E+00	  0.049859721	-4.451200E+01	  0.049859721	6.880300E+01	  0.049859721	-6.963900E+01
151	  0.050060119	-5.642000E+00	  0.050060119	-4.620000E+01	  0.050060119	6.613700E+01	  0.050060119	-6.855700E+01
152	  0.050260521	-5.665000E+00	  0.050260521	-4.792100E+01	  0.050260521	6.356500E+01	  0.050260521	-6.744600E+01
153	  0.050460923	-5.689000E+00	  0.050460923	-4.960600E+01	  0.050460923	6.119500E+01	  0.050460923	-6.631500E+01
154	  0.050661322	-5.707000E+00	  0.050661322	-5.130500E+01	  0.050661322	5.892100E+01	  0.050661322	-6.519500E+01
155	  0.050861724	-5.728000E+00	  0.050861724	-5.298700E+01	  0.050861724	5.680800E+01	  0.050861724	-6.403100E+01
156	  0.051062126	-5.749000E+00	  0.051062126	-5.466800E+01	  0.051062126	5.481100E+01	  0.051062126	-6.286500E+01
157	  0.051262524	-5.772000E+00	  0.051262524	-5.633100E+01	  0.051262524	5.295700E+01	  0.051262524	-6.167400E+01
158	  0.051462926	-5.792000E+00	  0.051462926	-5.798500E+01	  0.051462926	5.120000E+01	  0.051462926	-6.051400E+01
159	  0.051663328	-5.806000E+00	  0.051663328	-5.962000E+01	  0.051663328	4.953400E+01	  0.051663328	-5.940000E+01
160	  0.051863730	-5.824000E+00	  0.051863730	-6.126800E+01	  0.051863730	4.796000E+01	  0.051863730	-5.825000E+01
161	  0.052064128	-5.836000E+00	  0.052064128	-6.289600E+01	  0.052064128	4.646000E+01	  0.052064128	-5.715400E+01
162	  0.052264530	-5.850000E+00	  0.052264530	-6.452800E+01	  0.052264530	4.504300E+01	  0.052264530	-5.604300E+01
163	  0.052464932	-5.863000E+00	  0.052464932	-6.612600E+01	  0.052464932	4.372400E+01	  0.052464932	-5.496000E+01
164	  0.052665330	-5.873000E+00	  0.052665330	-6.772000E+01	  0.052665330	4.246100E+01	  0.052665330	-5.390100E+01
165	  0.052865732	-5.886000E+00	  0.052865732	-6.930600E+01	  0.052865732	4.128000E+01	  0.052865732	-5.283700E+01
166	  0.053066134	-5.897000E+00	  0.053066134	-7.084700E+01	  0.053066134	4.017700E+01	  0.053066134	-5.182200E+01
167	  0.053266536	-5.909000E+00	  0.053266536	-7.239600E+01	  0.053266536	3.912600E+01	  0.053266536	-5.080500E+01
168	  0.053466935	-5.924000E+00	  0.053466935	-7.393600E+01	  0.053466935	3.814200E+01	  0.053466935	-4.978700E+01
169	  0.053667337	-5.934000E+00	  0.053667337	-7.546200E+01	  0.053667337	3.719500E+01	  0.053667337	-4.880700E+01
170	  0.053867739	-5.942000E+00	  0.053867739	-7.698700E+01	  0.053867739	3.628300E+01	  0.053867739	-4.784500E+01
171	  0.054068137	-5.953000E+00	  0.054068137	-7.849300E+01	  0.054068137	3.543300E+01	  0.054068137	-4.689300E+01
172	  0.054268539	-5.960000E+00	  0.054268539	-7.998000E+01	  0.054268539	3.461600E+01	  0.054268539	-4.597800E+01
173	  0.054468941	-5.975000E+00	  0.054468941	-8.145100E+01	  0.054468941	3.387400E+01	  0.054468941	-4.505200E+01
174	  0.054669335	-5.986000E+00	  0.054669335	-8.293100E+01	  0.054669335	3.314300E+01	  0.054669335	-4.414600E+01
175	  0.054869737	-5.996000E+00	  0.054869737	-8.440400E+01	  0.054869737	3.244500E+01	  0.054869737	-4.325600E+01
176	  0.055070139	-6.009000E+00	  0.055070139	-8.583200E+01	  0.055070139	3.181000E+01	  0.055070139	-4.239000E+01
177	  0.055270538	-6.020000E+00	  0.055270538	-8.729000E+01	  0.055270538	3.117800E+01	  0.055270538	-4.152500E+01
178	  0.055470940	-6.031000E+00	  0.055470940	-8.872100E+01	  0.055470940	3.058500E+01	  0.055470940	-4.068500E+01
179	  0.055671342	-6.040000E+00	  0.055671342	-9.015800E+01	  0.055671342	3.000800E+01	  0.055671342	-3.985500E+01
180	  0.055871744	-6.049000E+00	  0.055871744	-9.161000E+01	  0.055871744	2.944500E+01	  0.055871744	-3.902800E+01
181	  0.056072142	-6.060000E+00	  0.056072142	-9.303500E+01	  0.056072142	2.892600E+01	  0.056072142	-3.821800E+01
182	  0.056272544	-6.065000E+00	  0.056272544	-9.447200E+01	  0.056272544	2.839900E+01	  0.056272544	-3.742600E+01
183	  0.056472946	-6.077000E+00	  0.056472946	-9.586900E+01	  0.056472946	2.793400E+01	  0.056472946	-3.664600E+01
184	  0.056673344	-6.084000E+00	  0.056673344	-9.728700E+01	  0.056673344	2.746000E+01	  0.056673344	-3.587600E+01
185	  0.056873746	-6.092000E+00	  0.056873746	-9.864700E+01	  0.056873746	2.702800E+01	  0.056873746	-3.514300E+01
186	  0.057074148	-6.099000E+00	  0.057074148	-1.000560E+02	  0.057074148	2.659300E+01	  0.057074148	-3.439200E+01
187	  0.057274550	-6.103000E+00	  0.057274550	-1.014550E+02	  0.057274550	2.616800E+01	  0.057274550	-3.366100E+01
188	  0.057474948	-6.109000E+00	  0.057474948	-1.028370E+02	  0.057474948	2.577300E+01	  0.057474948	-3.294000E+01
189	  0.057675350	-6.108000E+00	  0.057675350	-1.041910E+02	  0.057675350	2.537500E+01	  0.057675350	-3.225500E+01
190	  0.057875752	-6.115000E+00	  0.057875752	-1.055750E+02	  0.057875752	2.501100E+01	  0.057875752	-3.154500E+01
191	  0.058076151	-6.121000E+00	  0.058076151	-1.069220E+02	  0.058076151	2.466400E+01	  0.058076151	-3.086400E+01
192	  0.058276553	-6.121000E+00	  0.058276553	-1.082770E+02	  0.058276553	2.431100E+01	  0.058276553	-3.019400E+01
193	  0.058476955	-6.123000E+00	  0.058476955	-1.095920E+02	  0.058476955	2.398800E+01	  0.058476955	-2.954500E+01
194	  0.058677353	-6.123000E+00	  0.058677353	-1.109290E+02	  0.058677353	2.366200E+01	  0.058677353	-2.889500E+01
195	  0.058877755	-6.125000E+00	  0.058877755	-1.122370E+02	  0.058877755	2.336200E+01	  0.058877755	-2.826100E+01
196	  0.059078157	-6.125000E+00	  0.059078157	-1.135360E+02	  0.059078157	2.306800E+01	  0.059078157	-2.763900E+01
197	  0.059278559	-6.126000E+00	  0.059278559	-1.148200E+02	  0.059278559	2.278800E+01	  0.059278559	-2.702900E+01
198	  0.059478957	-6.124000E+00	  0.059478957	-1.161040E+02	  0.059478957	2.251100E+01	  0.059478957	-2.642600E+01
199	  0.059679359	-6.128000E+00	  0.059679359	-1.174010E+02	  0.059679359	2.225900E+01	  0.059679359	-2.581400E+01
200	  0.059879761	-6.126000E+00	  0.059879761	-1.186590E+02	  0.059879761	2.200700E+01	  0.059879761	-2.523100E+01
201	  0.060080159	-6.127000E+00	  0.060080159	-1.199020E+02	  0.060080159	2.177200E+01	  0.060080159	-2.465700E+01
202	  0.060280561	-6.130000E+00	  0.060280561	-1.211450E+02	  0.060280561	2.155100E+01	  0.060280561	-2.408400E+01
203	  0.060480963	-6.132000E+00	  0.060480963	-1.223920E+02	  0.060480963	2.133600E+01	  0.060480963	-2.351400E+01
204	  0.060681365	-6.135000E+00	  0.060681365	-1.236060E+02	  0.060681365	2.113600E+01	  0.060681365	-2.296200E+01
205	  0.060881764	-6.136000E+00	  0.060881764	-1.248280E+02	  0.060881764	2.093400E+01	  0.060881764	-2.241200E+01
206	  0.061082166	-6.137000E+00	  0.061082166	-1.260590E+02	  0.061082166	2.074100E+01	  0.061082166	-2.186200E+01
207	  0.061282568	-6.140000E+00	  0.061282568	-1.272950E+02	  0.061282568	2.055600E+01	  0.061282568	-2.131100E+01
208	  0.061482966	-6.148000E+00	  0.061482966	-1.284940E+02	  0.061482966	2.039800E+01	  0.061482966	-2.077500E+01
209	  0.061683368	-6.151000E+00	  0.061683368	-1.296910E+02	  0.061683368	2.023200E+01	  0.061683368	-2.024900E+01
210	  0.061883770	-6.157000E+00	  0.061883770	-1.308930E+02	  0.061883770	2.008100E+01	  0.061883770	-1.972000E+01
211	  0.062084168	-6.159000E+00	  0.062084168	-1.320930E+02	  0.062084168	1.992400E+01	  0.062084168	-1.919900E+01
212	  0.062284570	-6.162000E+00	  0.062284570	-1.332830E+02	  0.062284570	1.977500E+01	  0.062284570	-1.868500E+01
213	  0.062484972	-6.157000E+00	  0.062484972	-1.344520E+02	  0.062484972	1.961400E+01	  0.062484972	-1.818800E+01
214	  0.062685370	-6.161000E+00	  0.062685370	-1.356870E+02	  0.062685370	1.947500E+01	  0.062685370	-1.765900E+01
215	  0.062885776	-6.167000E+00	  0.062885776	-1.368570E+02	  0.062885776	1.935400E+01	  0.062885776	-1.715900E+01
216	  0.063086174	-6.169000E+00	  0.063086174	-1.380550E+02	  0.063086174	1.922200E+01	  0.063086174	-1.665300E+01
217	  0.063286573	-6.172000E+00	  0.063286573	-1.392600E+02	  0.063286573	1.909900E+01	  0.063286573	-1.614600E+01
218	  0.063486971	-6.174000E+00	  0.063486971	-1.404140E+02	  0.063486971	1.898100E+01	  0.063486971	-1.566300E+01
219	  0.063687377	-6.168000E+00	  0.063687377	-1.415820E+02	  0.063687377	1.884600E+01	  0.063687377	-1.518200E+01
220	  0.063887775	-6.169000E+00	  0.063887775	-1.427200E+02	  0.063887775	1.873900E+01	  0.063887775	-1.471000E+01
221	  0.064088173	-6.170000E+00	  0.064088173	-1.439090E+02	  0.064088173	1.862700E+01	  0.064088173	-1.422000E+01
222	  0.064288579	-6.172000E+00	  0.064288579	-1.450560E+02	  0.064288579	1.852800E+01	  0.064288579	-1.374800E+01
223	  0.064488977	-6.173000E+00	  0.064488977	-1.462220E+02	  0.064488977	1.843200E+01	  0.064488977	-1.327100E+01
224	  0.064689375	-6.176000E+00	  0.064689375	-1.473610E+02	  0.064689375	1.834400E+01	  0.064689375	-1.280600E+01
225	  0.064889781	-6.177000E+00	  0.064889781	-1.485110E+02	  0.064889781	1.825500E+01	  0.064889781	-1.233900E+01
226	  0.065090179	-6.179000E+00	  0.065090179	-1.496310E+02	  0.065090179	1.817300E+01	  0.065090179	-1.188500E+01
227	  0.065290578	-6.176000E+00	  0.065290578	-1.507300E+02	  0.065290578	1.808400E+01	  0.065290578	-1.144400E+01
228	  0.065490983	-6.179000E+00	  0.065490983	-1.518340E+02	  0.065490983	1.801400E+01	  0.065490983	-1.100000E+01
229	  0.065691382	-6.178000E+00	  0.065691382	-1.529170E+02	  0.065691382	1.793800E+01	  0.065691382	-1.056700E+01
230	  0.065891780	-6.181000E+00	  0.065891780	-1.540370E+02	  0.065891780	1.787300E+01	  0.065891780	-1.011900E+01
231	  0.066092186	-6.183000E+00	  0.066092186	-1.551140E+02	  0.066092186	1.781100E+01	  0.066092186	-9.689000E+00
232	  0.066292584	-6.184000E+00	  0.066292584	-1.561930E+02	  0.066292584	1.775100E+01	  0.066292584	-9.260000E+00
233	  0.066492982	-6.187000E+00	  0.066492982	-1.572660E+02	  0.066492982	1.769800E+01	  0.066492982	-8.835000E+00
234	  0.066693388	-6.193000E+00	  0.066693388	-1.583420E+02	  0.066693388	1.765800E+01	  0.066693388	-8.408000E+00
235	  0.066893786	-6.197000E+00	  0.066893786	-1.594010E+02	  0.066893786	1.761500E+01	  0.066893786	-7.990000E+00
236	  0.067094192	-6.201000E+00	  0.067094192	-1.604610E+02	  0.067094192	1.757500E+01	  0.067094192	-7.572000E+00
237	  0.067294590	-6.205000E+00	  0.067294590	-1.615060E+02	  0.067294590	1.753800E+01	  0.067294590	-7.161000E+00
238	  0.067494988	-6.212000E+00	  0.067494988	-1.625440E+02	  0.067494988	1.751100E+01	  0.067494988	-6.753000E+00
239	  0.067695394	-6.214000E+00	  0.067695394	-1.636260E+02	  0.067695394	1.747200E+01	  0.067695394	-6.330000E+00
240	  0.067895792	-6.221000E+00	  0.067895792	-1.646600E+02	  0.067895792	1.745100E+01	  0.067895792	-5.925000E+00
241	  0.068096191	-6.226000E+00	  0.068096191	-1.657280E+02	  0.068096191	1.742900E+01	  0.068096191	-5.509000E+00
242	  0.068296596	-6.226000E+00	  0.068296596	-1.667670E+02	  0.068296596	1.739500E+01	  0.068296596	-5.105000E+00
243	  0.068496995	-6.235000E+00	  0.068496995	-1.678340E+02	  0.068496995	1.738700E+01	  0.068496995	-4.690000E+00
244	  0.068697393	-6.243000E+00	  0.068697393	-1.688430E+02	  0.068697393	1.737800E+01	  0.068697393	-4.298000E+00
245	  0.068897791	-6.245000E+00	  0.068897791	-1.698940E+02	  0.068897791	1.735800E+01	  0.068897791	-3.891000E+00
246	  0.069098189	-6.243000E+00	  0.069098189	-1.709530E+02	  0.069098189	1.732900E+01	  0.069098189	-3.483000E+00
247	  0.069298595	-6.251000E+00	  0.069298595	-1.719880E+02	  0.069298595	1.732800E+01	  0.069298595	-3.082000E+00
248	  0.069498993	-6.250000E+00	  0.069498993	-1.730260E+02	  0.069498993	1.730900E+01	  0.069498993	-2.682000E+00
249	  0.069699399	-6.248000E+00	  0.069699399	-1.740680E+02	  0.069699399	1.728800E+01	  0.069699399	-2.281000E+00
250	  0.069899797	-6.251000E+00	  0.069899797	-1.750740E+02	  0.069899797	1.728300E+01	  0.069899797	-1.893000E+00
251	  0.070100196	-6.254000E+00	  0.070100196	-1.760570E+02	  0.070100196	1.727900E+01	  0.070100196	-1.515000E+00
252	  0.070300601	-6.250000E+00	  0.070300601	-1.770820E+02	  0.070300601	1.726200E+01	  0.070300601	-1.121000E+00
253	  0.070501000	-6.252000E+00	  0.070501000	-1.780560E+02	  0.070501000	1.726000E+01	  0.070501000	-7.470000E-01
254	  0.070701398	-6.243000E+00	  0.070701398	-1.790350E+02	  0.070701398	1.723500E+01	  0.070701398	-3.700000E-01
255	  0.070901804	-6.244000E+00	  0.070901804	1.799950E+02	  0.070901804	1.723600E+01	  0.070901804	1.000000E-03
256	  0.071102202	-6.243000E+00	  0.071102202	1.790270E+02	  0.071102202	1.723500E+01	  0.071102202	3.740000E-01
257	  0.071302600	-6.240000E+00	  0.071302600	1.780730E+02	  0.071302600	1.723200E+01	  0.071302600	7.400000E-01
258	  0.071503006	-6.241000E+00	  0.071503006	1.771160E+02	  0.071503006	1.723800E+01	  0.071503006	1.108000E+00
259	  0.071703404	-6.244000E+00	  0.071703404	1.762200E+02	  0.071703404	1.725400E+01	  0.071703404	1.453000E+00
260	  0.071903802	-6.247000E+00	  0.071903802	1.752870E+02	  0.071903802	1.726900E+01	  0.071903802	1.812000E+00
261	  0.072104208	-6.243000E+00	  0.072104208	1.743850E+02	  0.072104208	1.726900E+01	  0.072104208	2.159000E+00
262	  0.072304606	-6.246000E+00	  0.072304606	1.734990E+02	  0.072304606	1.729000E+01	  0.072304606	2.500000E+00
263	  0.072505005	-6.247000E+00	  0.072505005	1.726140E+02	  0.072505005	1.730700E+01	  0.072505005	2.841000E+00
264	  0.072705410	-6.255000E+00	  0.072705410	1.716900E+02	  0.072705410	1.734400E+01	  0.072705410	3.196000E+00
265	  0.072905809	-6.264000E+00	  0.072905809	1.708190E+02	  0.072905809	1.738500E+01	  0.072905809	3.531000E+00
266	  0.073106214	-6.268000E+00	  0.073106214	1.699230E+02	  0.073106214	1.741400E+01	  0.073106214	3.877000E+00
267	  0.073306613	-6.280000E+00	  0.073306613	1.690450E+02	  0.073306613	1.746800E+01	  0.073306613	4.214000E+00
268	  0.073507011	-6.289000E+00	  0.073507011	1.681520E+02	  0.073507011	1.751400E+01	  0.073507011	4.557000E+00
269	  0.073707417	-6.297000E+00	  0.073707417	1.672550E+02	  0.073707417	1.756200E+01	  0.073707417	4.902000E+00
270	  0.073907815	-6.310000E+00	  0.073907815	1.663680E+02	  0.073907815	1.762200E+01	  0.073907815	5.243000E+00
271	  0.074108213	-6.320000E+00	  0.074108213	1.654990E+02	  0.074108213	1.767700E+01	  0.074108213	5.577000E+00
272	  0.074308619	-6.336000E+00	  0.074308619	1.645780E+02	  0.074308619	1.775100E+01	  0.074308619	5.929000E+00
273	  0.074509017	-6.350000E+00	  0.074509017	1.636590E+02	  0.074509017	1.781900E+01	  0.074509017	6.283000E+00
274	  0.074709415	-6.362000E+00	  0.074709415	1.627680E+02	  0.074709415	1.788600E+01	  0.074709415	6.625000E+00
275	  0.074909821	-6.377000E+00	  0.074909821	1.618280E+02	  0.074909821	1.796500E+01	  0.074909821	6.986000E+00
276	  0.075110219	-6.393000E+00	  0.075110219	1.609150E+02	  0.075110219	1.804700E+01	  0.075110219	7.336000E+00
277	  0.075310618	-6.406000E+00	  0.075310618	1.599570E+02	  0.075310618	1.812700E+01	  0.075310618	7.704000E+00
278	  0.075511023	-6.423000E+00	  0.075511023	1.590380E+02	  0.075511023	1.821600E+01	  0.075511023	8.057000E+00
279	  0.075711422	-6.431000E+00	  0.075711422	1.581110E+02	  0.075711422	1.828500E+01	  0.075711422	8.416000E+00
280	  0.075911827	-6.444000E+00	  0.075911827	1.572160E+02	  0.075911827	1.836900E+01	  0.075911827	8.760000E+00
281	  0.076112226	-6.457000E+00	  0.076112226	1.562360E+02	  0.076112226	1.845800E+01	  0.076112226	9.139000E+00
282	  0.076312624	-6.471000E+00	  0.076312624	1.553150E+02	  0.076312624	1.854900E+01	  0.076312624	9.494000E+00
283	  0.076513030	-6.483000E+00	  0.076513030	1.543840E+02	  0.076513030	1.864000E+01	  0.076513030	9.854000E+00
284	  0.076713428	-6.493000E+00	  0.076713428	1.534490E+02	  0.076713428	1.872500E+01	  0.076713428	1.021800E+01
285	  0.076913826	-6.503000E+00	  0.076913826	1.525150E+02	  0.076913826	1.881600E+01	  0.076913826	1.058100E+01
286	  0.077114232	-6.510000E+00	  0.077114232	1.515950E+02	  0.077114232	1.890000E+01	  0.077114232	1.094000E+01
287	  0.077314630	-6.515000E+00	  0.077314630	1.506780E+02	  0.077314630	1.898000E+01	  0.077314630	1.130100E+01
288	  0.077515028	-6.520000E+00	  0.077515028	1.497850E+02	  0.077515028	1.906200E+01	  0.077515028	1.165100E+01
289	  0.077715434	-6.527000E+00	  0.077715434	1.489070E+02	  0.077715434	1.914800E+01	  0.077715434	1.199700E+01
290	  0.077915832	-6.534000E+00	  0.077915832	1.480190E+02	  0.077915832	1.923900E+01	  0.077915832	1.234600E+01
291	  0.078116231	-6.543000E+00	  0.078116231	1.471260E+02	  0.078116231	1.933800E+01	  0.078116231	1.269800E+01
292	  0.078316636	-6.548000E+00	  0.078316636	1.462640E+02	  0.078316636	1.942700E+01	  0.078316636	1.303900E+01
293	  0.078517035	-6.554000E+00	  0.078517035	1.453960E+02	  0.078517035	1.952000E+01	  0.078517035	1.338300E+01
294	  0.078717433	-6.560000E+00	  0.078717433	1.445550E+02	  0.078717433	1.961400E+01	  0.078717433	1.371700E+01
295	  0.078917839	-6.569000E+00	  0.078917839	1.437680E+02	  0.078917839	1.971200E+01	  0.078917839	1.402900E+01
296	  0.079118237	-6.578000E+00	  0.079118237	1.429690E+02	  0.079118237	1.981400E+01	  0.079118237	1.434500E+01
297	  0.079318643	-6.586000E+00	  0.079318643	1.421750E+02	  0.079318643	1.991500E+01	  0.079318643	1.466000E+01
298	  0.079519041	-6.599000E+00	  0.079519041	1.413800E+02	  0.079519041	2.003200E+01	  0.079519041	1.497300E+01
299	  0.079719439	-6.613000E+00	  0.079719439	1.405600E+02	  0.079719439	2.015800E+01	  0.079719439	1.529600E+01
300	  0.079919845	-6.625000E+00	  0.079919845	1.397920E+02	  0.079919845	2.027400E+01	  0.079919845	1.560000E+01
301	  0.080120243	-6.642000E+00	  0.080120243	1.389800E+02	  0.080120243	2.041000E+01	  0.080120243	1.591800E+01
302	  0.080320641	-6.656000E+00	  0.080320641	1.382070E+02	  0.080320641	2.053800E+01	  0.080320641	1.622300E+01
303	  0.080521047	-6.671000E+00	  0.080521047	1.374460E+02	  0.080521047	2.066700E+01	  0.080521047	1.652300E+01
304	  0.080721445	-6.693000E+00	  0.080721445	1.366760E+02	  0.080721445	2.081800E+01	  0.080721445	1.682100E+01
305	  0.080921844	-6.710000E+00	  0.080921844	1.359030E+02	  0.080921844	2.096200E+01	  0.080921844	1.712400E+01
306	  0.081122249	-6.735000E+00	  0.081122249	1.351040E+02	  0.081122249	2.113100E+01	  0.081122249	1.743200E+01
307	  0.081322648	-6.754000E+00	  0.081322648	1.343380E+02	  0.081322648	2.128100E+01	  0.081322648	1.773100E+01
308	  0.081523046	-6.774000E+00	  0.081523046	1.335340E+02	  0.081523046	2.144400E+01	  0.081523046	1.804500E+01
309	  0.081723452	-6.792000E+00	  0.081723452	1.327380E+02	  0.081723452	2.160200E+01	  0.081723452	1.835800E+01
310	  0.081923850	-6.813000E+00	  0.081923850	1.319250E+02	  0.081923850	2.177100E+01	  0.081923850	1.867500E+01
311	  0.082124248	-6.837000E+00	  0.082124248	1.311550E+02	  0.082124248	2.194800E+01	  0.082124248	1.897200E+01
312	  0.082324654	-6.856000E+00	  0.082324654	1.303390E+02	  0.082324654	2.212000E+01	  0.082324654	1.929300E+01
313	  0.082525052	-6.880000E+00	  0.082525052	1.295430E+02	  0.082525052	2.230600E+01	  0.082525052	1.960000E+01
314	  0.082725458	-6.901000E+00	  0.082725458	1.287370E+02	  0.082725458	2.248900E+01	  0.082725458	1.991400E+01
315	  0.082925856	-6.921000E+00	  0.082925856	1.279570E+02	  0.082925856	2.266700E+01	  0.082925856	2.021900E+01
316	  0.083126254	-6.940000E+00	  0.083126254	1.271610E+02	  0.083126254	2.284900E+01	  0.083126254	2.053200E+01
317	  0.083326660	-6.960000E+00	  0.083326660	1.263510E+02	  0.083326660	2.303700E+01	  0.083326660	2.085000E+01
318	  0.083527058	-6.975000E+00	  0.083527058	1.255710E+02	  0.083527058	2.321200E+01	  0.083527058	2.116100E+01
319	  0.083727457	-6.993000E+00	  0.083727457	1.247860E+02	  0.083727457	2.339700E+01	  0.083727457	2.147100E+01
320	  0.083927862	-7.014000E+00	  0.083927862	1.240020E+02	  0.083927862	2.359500E+01	  0.083927862	2.177600E+01
321	  0.084128261	-7.028000E+00	  0.084128261	1.232260E+02	  0.084128261	2.377600E+01	  0.084128261	2.208700E+01
322	  0.084328659	-7.048000E+00	  0.084328659	1.224590E+02	  0.084328659	2.397400E+01	  0.084328659	2.238700E+01
323	  0.084529065	-7.063000E+00	  0.084529065	1.217270E+02	  0.084529065	2.415400E+01	  0.084529065	2.267900E+01
324	  0.084729463	-7.080000E+00	  0.084729463	1.209990E+02	  0.084729463	2.434200E+01	  0.084729463	2.296600E+01
325	  0.084929854	-7.099000E+00	  0.084929854	1.202430E+02	  0.084929854	2.454400E+01	  0.084929854	2.326300E+01
326	  0.085130259	-7.112000E+00	  0.085130259	1.195230E+02	  0.085130259	2.472500E+01	  0.085130259	2.355300E+01
327	  0.085330658	-7.124000E+00	  0.085330658	1.187990E+02	  0.085330658	2.490800E+01	  0.085330658	2.384600E+01
328	  0.085531056	-7.138000E+00	  0.085531056	1.181180E+02	  0.085531056	2.509000E+01	  0.085531056	2.411700E+01
329	  0.085731462	-7.158000E+00	  0.085731462	1.174350E+02	  0.085731462	2.529300E+01	  0.085731462	2.438200E+01
330	  0.085931860	-7.179000E+00	  0.085931860	1.167620E+02	  0.085931860	2.549800E+01	  0.085931860	2.464000E+01
331	  0.086132258	-7.198000E+00	  0.086132258	1.161370E+02	  0.086132258	2.568900E+01	  0.086132258	2.488100E+01
332	  0.086332664	-7.214000E+00	  0.086332664	1.155030E+02	  0.086332664	2.587800E+01	  0.086332664	2.512900E+01
333	  0.086533062	-7.237000E+00	  0.086533062	1.148510E+02	  0.086533062	2.609300E+01	  0.086533062	2.537400E+01
334	  0.086733460	-7.258000E+00	  0.086733460	1.141870E+02	  0.086733460	2.630700E+01	  0.086733460	2.562800E+01
335	  0.086933866	-7.278000E+00	  0.086933866	1.135940E+02	  0.086933866	2.650400E+01	  0.086933866	2.585200E+01
336	  0.087134264	-7.301000E+00	  0.087134264	1.129410E+02	  0.087134264	2.672800E+01	  0.087134264	2.609600E+01
337	  0.087334670	-7.330000E+00	  0.087334670	1.123320E+02	  0.087334670	2.695900E+01	  0.087334670	2.631100E+01
338	  0.087535068	-7.356000E+00	  0.087535068	1.117140E+02	  0.087535068	2.718800E+01	  0.087535068	2.653400E+01
339	  0.087735467	-7.390000E+00	  0.087735467	1.110670E+02	  0.087735467	2.744800E+01	  0.087735467	2.675600E+01
340	  0.087935872	-7.418000E+00	  0.087935872	1.104540E+02	  0.087935872	2.768700E+01	  0.087935872	2.697100E+01
341	  0.088136271	-7.446000E+00	  0.088136271	1.098400E+02	  0.088136271	2.792800E+01	  0.088136271	2.718500E+01
342	  0.088336669	-7.477000E+00	  0.088336669	1.091960E+02	  0.088336669	2.818600E+01	  0.088336669	2.740800E+01
343	  0.088537075	-7.510000E+00	  0.088537075	1.085490E+02	  0.088537075	2.845500E+01	  0.088537075	2.762600E+01
344	  0.088737473	-7.530000E+00	  0.088737473	1.079390E+02	  0.088737473	2.868000E+01	  0.088737473	2.785100E+01
345	  0.088937871	-7.562000E+00	  0.088937871	1.072600E+02	  0.088937871	2.896300E+01	  0.088937871	2.808100E+01
346	  0.089138277	-7.589000E+00	  0.089138277	1.066330E+02	  0.089138277	2.921700E+01	  0.089138277	2.829900E+01
347	  0.089338675	-7.627000E+00	  0.089338675	1.059960E+02	  0.089338675	2.951100E+01	  0.089338675	2.849700E+01
348	  0.089539073	-7.652000E+00	  0.089539073	1.053670E+02	  0.089539073	2.976800E+01	  0.089539073	2.871600E+01
349	  0.089739479	-7.692000E+00	  0.089739479	1.047400E+02	  0.089739479	3.006800E+01	  0.089739479	2.890300E+01
350	  0.089939877	-7.714000E+00	  0.089939877	1.040610E+02	  0.089939877	3.033800E+01	  0.089939877	2.914700E+01
351	  0.090140276	-7.745000E+00	  0.090140276	1.034050E+02	  0.090140276	3.062900E+01	  0.090140276	2.936000E+01
352	  0.090340681	-7.767000E+00	  0.090340681	1.027960E+02	  0.090340681	3.088200E+01	  0.090340681	2.957300E+01
353	  0.090541080	-7.795000E+00	  0.090541080	1.021550E+02	  0.090541080	3.116500E+01	  0.090541080	2.978400E+01
354	  0.090741485	-7.822000E+00	  0.090741485	1.015250E+02	  0.090741485	3.144700E+01	  0.090741485	2.999100E+01
355	  0.090941884	-7.842000E+00	  0.090941884	1.008830E+02	  0.090941884	3.171400E+01	  0.090941884	3.021800E+01
356	  0.091142282	-7.873000E+00	  0.091142282	1.002570E+02	  0.091142282	3.201300E+01	  0.091142282	3.041000E+01
357	  0.091342688	-7.897000E+00	  0.091342688	9.962200E+01	  0.091342688	3.229500E+01	  0.091342688	3.062300E+01
358	  0.091543086	-7.920000E+00	  0.091543086	9.904500E+01	  0.091543086	3.255900E+01	  0.091543086	3.081100E+01
359	  0.091743484	-7.941000E+00	  0.091743484	9.841000E+01	  0.091743484	3.284100E+01	  0.091743484	3.102700E+01
360	  0.091943890	-7.962000E+00	  0.091943890	9.781900E+01	  0.091943890	3.311000E+01	  0.091943890	3.122300E+01
361	  0.092144288	-7.981000E+00	  0.092144288	9.723100E+01	  0.092144288	3.337700E+01	  0.092144288	3.142000E+01
362	  0.092344686	-7.999000E+00	  0.092344686	9.666300E+01	  0.092344686	3.363600E+01	  0.092344686	3.161100E+01
363	  0.092545092	-8.015000E+00	  0.092545092	9.610700E+01	  0.092545092	3.388500E+01	  0.092545092	3.180300E+01
364	  0.092745490	-8.041000E+00	  0.092745490	9.557000E+01	  0.092745490	3.415900E+01	  0.092745490	3.195900E+01
365	  0.092945889	-8.059000E+00	  0.092945889	9.501000E+01	  0.092945889	3.442400E+01	  0.092945889	3.214200E+01
366	  0.093146294	-8.080000E+00	  0.093146294	9.451200E+01	  0.093146294	3.467400E+01	  0.093146294	3.229200E+01
367	  0.093346693	-8.102000E+00	  0.093346693	9.398900E+01	  0.093346693	3.493900E+01	  0.093346693	3.244900E+01
368	  0.093547091	-8.112000E+00	  0.093547091	9.346200E+01	  0.093547091	3.517500E+01	  0.093547091	3.263700E+01
369	  0.093747497	-8.138000E+00	  0.093747497	9.297700E+01	  0.093747497	3.544000E+01	  0.093747497	3.276500E+01
370	  0.093947895	-8.150000E+00	  0.093947895	9.245600E+01	  0.093947895	3.568600E+01	  0.093947895	3.294100E+01
371	  0.094148301	-8.173000E+00	  0.094148301	9.198400E+01	  0.094148301	3.594200E+01	  0.094148301	3.306900E+01
372	  0.094348699	-8.194000E+00	  0.094348699	9.152900E+01	  0.094348699	3.618500E+01	  0.094348699	3.319500E+01
373	  0.094549097	-8.214000E+00	  0.094549097	9.104100E+01	  0.094549097	3.644600E+01	  0.094549097	3.333200E+01
374	  0.094749503	-8.235000E+00	  0.094749503	9.058100E+01	  0.094749503	3.669500E+01	  0.094749503	3.345800E+01
375	  0.094949901	-8.255000E+00	  0.094949901	9.014600E+01	  0.094949901	3.693500E+01	  0.094949901	3.357400E+01
376	  0.095150299	-8.273000E+00	  0.095150299	8.968100E+01	  0.095150299	3.718500E+01	  0.095150299	3.370400E+01
377	  0.095350705	-8.290000E+00	  0.095350705	8.922800E+01	  0.095350705	3.742900E+01	  0.095350705	3.383200E+01
378	  0.095551103	-8.309000E+00	  0.095551103	8.877200E+01	  0.095551103	3.767900E+01	  0.095551103	3.395600E+01
379	  0.095751502	-8.324000E+00	  0.095751502	8.830200E+01	  0.095751502	3.792800E+01	  0.095751502	3.409500E+01
380	  0.095951907	-8.340000E+00	  0.095951907	8.785400E+01	  0.095951907	3.817300E+01	  0.095951907	3.421900E+01
381	  0.096152306	-8.359000E+00	  0.096152306	8.743300E+01	  0.096152306	3.841500E+01	  0.096152306	3.432300E+01
382	  0.096352704	-8.374000E+00	  0.096352704	8.697700E+01	  0.096352704	3.866200E+01	  0.096352704	3.445500E+01
383	  0.096553110	-8.383000E+00	  0.096553110	8.653600E+01	  0.096553110	3.889300E+01	  0.096553110	3.459300E+01
384	  0.096753508	-8.398000E+00	  0.096753508	8.613900E+01	  0.096753508	3.911700E+01	  0.096753508	3.469800E+01
385	  0.096953906	-8.410000E+00	  0.096953906	8.569800E+01	  0.096953906	3.935600E+01	  0.096953906	3.482900E+01
386	  0.097154312	-8.422000E+00	  0.097154312	8.528200E+01	  0.097154312	3.958600E+01	  0.097154312	3.494700E+01
387	  0.097354710	-8.431000E+00	  0.097354710	8.486300E+01	  0.097354710	3.981300E+01	  0.097354710	3.507400E+01
388	  0.097555116	-8.441000E+00	  0.097555116	8.444200E+01	  0.097555116	4.004200E+01	  0.097555116	3.520000E+01
389	  0.097755514	-8.444000E+00	  0.097755514	8.401400E+01	  0.097755514	4.026200E+01	  0.097755514	3.534800E+01
390	  0.097955912	-8.453000E+00	  0.097955912	8.363400E+01	  0.097955912	4.047400E+01	  0.097955912	3.545900E+01
391	  0.098156318	-8.463000E+00	  0.098156318	8.322400E+01	  0.098156318	4.070300E+01	  0.098156318	3.558000E+01
392	  0.098356716	-8.468000E+00	  0.098356716	8.283300E+01	  0.098356716	4.091500E+01	  0.098356716	3.570500E+01
393	  0.098557115	-8.472000E+00	  0.098557115	8.241200E+01	  0.098557115	4.113900E+01	  0.098557115	3.584600E+01
394	  0.098757520	-8.474000E+00	  0.098757520	8.204500E+01	  0.098757520	4.133400E+01	  0.098757520	3.597300E+01
395	  0.098957919	-8.481000E+00	  0.098957919	8.163600E+01	  0.098957919	4.156400E+01	  0.098957919	3.609800E+01
396	  0.099158317	-8.482000E+00	  0.099158317	8.123100E+01	  0.099158317	4.177900E+01	  0.099158317	3.624100E+01
397	  0.099358723	-8.483000E+00	  0.099358723	8.085400E+01	  0.099358723	4.198200E+01	  0.099358723	3.637300E+01
398	  0.099559121	-8.489000E+00	  0.099559121	8.044900E+01	  0.099559121	4.221500E+01	  0.099559121	3.649500E+01
399	  0.099759519	-8.488000E+00	  0.099759519	8.007300E+01	  0.099759519	4.241400E+01	  0.099759519	3.663400E+01
400	  0.099959925	-8.485000E+00	  0.099959925	7.969400E+01	  0.099959925	4.261500E+01	  0.099959925	3.677900E+01
401	  0.100160323	-8.484000E+00	  0.100160323	7.924100E+01	  0.100160323	4.286000E+01	  0.100160323	3.694500E+01
402	  0.100360721	-8.483000E+00	  0.100360721	7.892300E+01	  0.100360721	4.303500E+01	  0.100360721	3.706000E+01
403	  0.100561127	-8.485000E+00	  0.100561127	7.845100E+01	  0.100561127	4.330400E+01	  0.100561127	3.721800E+01
404	  0.100761525	-8.488000E+00	  0.100761525	7.800100E+01	  0.100761525	4.356400E+01	  0.100761525	3.736600E+01
405	  0.100961931	-8.498000E+00	  0.100961931	7.764500E+01	  0.100961931	4.379100E+01	  0.100961931	3.745000E+01
406	  0.101162329	-8.491000E+00	  0.101162329	7.721500E+01	  0.101162329	4.402300E+01	  0.101162329	3.762500E+01
407	  0.101362728	-8.495000E+00	  0.101362728	7.678500E+01	  0.101362728	4.428000E+01	  0.101362728	3.776100E+01
408	  0.101563133	-8.493000E+00	  0.101563133	7.630200E+01	  0.101563133	4.456000E+01	  0.101563133	3.793200E+01
409	  0.101763532	-8.492000E+00	  0.101763532	7.583300E+01	  0.101763532	4.483600E+01	  0.101763532	3.809500E+01
410	  0.101963930	-8.492000E+00	  0.101963930	7.536700E+01	  0.101963930	4.511400E+01	  0.101963930	3.825400E+01
411	  0.102164328	-8.495000E+00	  0.102164328	7.489100E+01	  0.102164328	4.541000E+01	  0.102164328	3.840100E+01
412	  0.102364726	-8.490000E+00	  0.102364726	7.437600E+01	  0.102364726	4.571500E+01	  0.102364726	3.859100E+01
413	  0.102565125	-8.486000E+00	  0.102565125	7.389000E+01	  0.102565125	4.600500E+01	  0.102565125	3.877100E+01
414	  0.102765530	-8.481000E+00	  0.102765530	7.339100E+01	  0.102765530	4.630700E+01	  0.102765530	3.895500E+01
415	  0.102965929	-8.480000E+00	  0.102965929	7.289400E+01	  0.102965929	4.662000E+01	  0.102965929	3.912000E+01
416	  0.103166327	-8.473000E+00	  0.103166327	7.234900E+01	  0.103166327	4.695500E+01	  0.103166327	3.932300E+01
417	  0.103366733	-8.462000E+00	  0.103366733	7.178000E+01	  0.103366733	4.730100E+01	  0.103366733	3.955300E+01
418	  0.103567131	-8.463000E+00	  0.103567131	7.127000E+01	  0.103567131	4.763800E+01	  0.103567131	3.971000E+01
419	  0.103767529	-8.461000E+00	  0.103767529	7.076900E+01	  0.103767529	4.796600E+01	  0.103767529	3.987900E+01
420	  0.103967935	-8.453000E+00	  0.103967935	7.015100E+01	  0.103967935	4.836500E+01	  0.103967935	4.010600E+01
421	  0.104168333	-8.430000E+00	  0.104168333	6.957100E+01	  0.104168333	4.871400E+01	  0.104168333	4.038900E+01
422	  0.104368731	-8.431000E+00	  0.104368731	6.902700E+01	  0.104368731	4.909300E+01	  0.104368731	4.054600E+01
423	  0.104569137	-8.420000E+00	  0.104569137	6.851800E+01	  0.104569137	4.942600E+01	  0.104569137	4.075100E+01
424	  0.104769535	-8.414000E+00	  0.104769535	6.793900E+01	  0.104769535	4.982500E+01	  0.104769535	4.095000E+01
425	  0.104969934	-8.396000E+00	  0.104969934	6.743700E+01	  0.104969934	5.014900E+01	  0.104969934	4.118500E+01
426	  0.105170339	-8.383000E+00	  0.105170339	6.683600E+01	  0.105170339	5.056000E+01	  0.105170339	4.142400E+01
427	  0.105370738	-8.374000E+00	  0.105370738	6.635600E+01	  0.105370738	5.089600E+01	  0.105370738	4.160500E+01
428	  0.105571143	-8.362000E+00	  0.105571143	6.580500E+01	  0.105571143	5.128300E+01	  0.105571143	4.182000E+01
429	  0.105771542	-8.348000E+00	  0.105771542	6.526600E+01	  0.105771542	5.166400E+01	  0.105771542	4.204100E+01
430	  0.105971940	-8.336000E+00	  0.105971940	6.470700E+01	  0.105971940	5.206800E+01	  0.105971940	4.225600E+01
431	  0.106172346	-8.317000E+00	  0.106172346	6.418600E+01	  0.106172346	5.243600E+01	  0.106172346	4.249700E+01
432	  0.106372744	-8.308000E+00	  0.106372744	6.361000E+01	  0.106372744	5.287200E+01	  0.106372744	4.269800E+01
433	  0.106573142	-8.296000E+00	  0.106573142	6.308900E+01	  0.106573142	5.326300E+01	  0.106573142	4.289900E+01
434	  0.106773548	-8.277000E+00	  0.106773548	6.250100E+01	  0.106773548	5.370300E+01	  0.106773548	4.315300E+01
435	  0.106973946	-8.271000E+00	  0.106973946	6.197800E+01	  0.106973946	5.412000E+01	  0.106973946	4.331500E+01
436	  0.107174344	-8.253000E+00	  0.107174344	6.142900E+01	  0.107174344	5.454100E+01	  0.107174344	4.355500E+01
437	  0.107374750	-8.241000E+00	  0.107374750	6.088700E+01	  0.107374750	5.497400E+01	  0.107374750	4.375300E+01
438	  0.107575148	-8.226000E+00	  0.107575148	6.030800E+01	  0.107575148	5.543900E+01	  0.107575148	4.397700E+01
439	  0.107775547	-8.213000E+00	  0.107775547	5.976400E+01	  0.107775547	5.588500E+01	  0.107775547	4.417800E+01
440	  0.107975952	-8.195000E+00	  0.107975952	5.916800E+01	  0.107975952	5.637600E+01	  0.107975952	4.441300E+01
441	  0.108176351	-8.181000E+00	  0.108176351	5.859700E+01	  0.108176351	5.685700E+01	  0.108176351	4.462400E+01
442	  0.108376749	-8.166000E+00	  0.108376749	5.800200E+01	  0.108376749	5.736700E+01	  0.108376749	4.483900E+01
443	  0.108577155	-8.156000E+00	  0.108577155	5.739200E+01	  0.108577155	5.790500E+01	  0.108577155	4.502700E+01
444	  0.108777553	-8.150000E+00	  0.108777553	5.676600E+01	  0.108777553	5.847100E+01	  0.108777553	4.518600E+01
445	  0.108977959	-8.132000E+00	  0.108977959	5.617200E+01	  0.108977959	5.899900E+01	  0.108977959	4.541300E+01
446	  0.109178357	-8.119000E+00	  0.109178357	5.552100E+01	  0.109178357	5.959700E+01	  0.109178357	4.561200E+01
447	  0.109378755	-8.108000E+00	  0.109378755	5.488500E+01	  0.109378755	6.019100E+01	  0.109378755	4.579500E+01
448	  0.109579161	-8.090000E+00	  0.109579161	5.425500E+01	  0.109579161	6.078300E+01	  0.109579161	4.601300E+01
449	  0.109779559	-8.078000E+00	  0.109779559	5.361000E+01	  0.109779559	6.140400E+01	  0.109779559	4.619600E+01
450	  0.109979957	-8.069000E+00	  0.109979957	5.288900E+01	  0.109979957	6.211400E+01	  0.109979957	4.635900E+01
451	  0.110180363	-8.054000E+00	  0.110180363	5.226900E+01	  0.110180363	6.272900E+01	  0.110180363	4.654200E+01
452	  0.110380761	-8.032000E+00	  0.110380761	5.154200E+01	  0.110380761	6.345800E+01	  0.110380761	4.677800E+01
453	  0.110581160	-8.024000E+00	  0.110581160	5.089700E+01	  0.110581160	6.412500E+01	  0.110581160	4.690400E+01
454	  0.110781565	-8.010000E+00	  0.110781565	5.022100E+01	  0.110781565	6.483200E+01	  0.110781565	4.706300E+01
455	  0.110981964	-7.996000E+00	  0.110981964	4.952500E+01	  0.110981964	6.557100E+01	  0.110981964	4.721800E+01
456	  0.111182362	-7.987000E+00	  0.111182362	4.883400E+01	  0.111182362	6.631900E+01	  0.111182362	4.733200E+01
457	  0.111382768	-7.977000E+00	  0.111382768	4.815800E+01	  0.111382768	6.706100E+01	  0.111382768	4.743800E+01
458	  0.111583166	-7.965000E+00	  0.111583166	4.742700E+01	  0.111583166	6.787600E+01	  0.111583166	4.755200E+01
459	  0.111783572	-7.957000E+00	  0.111783572	4.673500E+01	  0.111783572	6.866000E+01	  0.111783572	4.762700E+01
460	  0.111983970	-7.956000E+00	  0.111983970	4.602900E+01	  0.111983970	6.947100E+01	  0.111983970	4.763800E+01
461	  0.112184368	-7.943000E+00	  0.112184368	4.527500E+01	  0.112184368	7.034900E+01	  0.112184368	4.772100E+01
462	  0.112384774	-7.937000E+00	  0.112384774	4.450200E+01	  0.112384774	7.126300E+01	  0.112384774	4.773700E+01
463	  0.112585172	-7.938000E+00	  0.112585172	4.379000E+01	  0.112585172	7.211300E+01	  0.112585172	4.768400E+01
464	  0.112785570	-7.932000E+00	  0.112785570	4.299100E+01	  0.112785570	7.308100E+01	  0.112785570	4.765800E+01
465	  0.112985976	-7.933000E+00	  0.112985976	4.224900E+01	  0.112985976	7.398800E+01	  0.112985976	4.756600E+01
466	  0.113186374	-7.930000E+00	  0.113186374	4.148300E+01	  0.113186374	7.493700E+01	  0.113186374	4.749000E+01
467	  0.113386773	-7.941000E+00	  0.113386773	4.072600E+01	  0.113386773	7.586900E+01	  0.113386773	4.727300E+01
468	  0.113587178	-7.939000E+00	  0.113587178	3.991800E+01	  0.113587178	7.688900E+01	  0.113587178	4.713700E+01
469	  0.113787577	-7.951000E+00	  0.113787577	3.912200E+01	  0.113787577	7.788100E+01	  0.113787577	4.685500E+01
470	  0.113987975	-7.957000E+00	  0.113987975	3.828500E+01	  0.113987975	7.894200E+01	  0.113987975	4.659500E+01
471	  0.114188381	-7.967000E+00	  0.114188381	3.742800E+01	  0.114188381	8.002700E+01	  0.114188381	4.626100E+01
472	  0.114388779	-7.977000E+00	  0.114388779	3.660200E+01	  0.114388779	8.107600E+01	  0.114388779	4.590500E+01
473	  0.114589177	-7.990000E+00	  0.114589177	3.568400E+01	  0.114589177	8.224000E+01	  0.114589177	4.546200E+01
474	  0.114789583	-8.002000E+00	  0.114789583	3.484700E+01	  0.114789583	8.330100E+01	  0.114789583	4.501700E+01
475	  0.114989981	-8.009000E+00	  0.114989981	3.394100E+01	  0.114989981	8.447000E+01	  0.114989981	4.455800E+01
476	  0.115190387	-8.023000E+00	  0.115190387	3.300100E+01	  0.115190387	8.566000E+01	  0.115190387	4.398200E+01
477	  0.115390785	-8.039000E+00	  0.115390785	3.204200E+01	  0.115390785	8.686500E+01	  0.115390785	4.333300E+01
478	  0.115591183	-8.061000E+00	  0.115591183	3.107500E+01	  0.115591183	8.805100E+01	  0.115591183	4.258900E+01
479	  0.115791589	-8.070000E+00	  0.115791589	3.015700E+01	  0.115791589	8.921400E+01	  0.115791589	4.193700E+01
480	  0.115991987	-8.097000E+00	  0.115991987	2.919700E+01	  0.115991987	9.034100E+01	  0.115991987	4.105900E+01
481	  0.116192386	-8.114000E+00	  0.116192386	2.816600E+01	  0.116192386	9.159200E+01	  0.116192386	4.017500E+01
482	  0.116392791	-8.134000E+00	  0.116392791	2.717800E+01	  0.116392791	9.275200E+01	  0.116392791	3.924500E+01
483	  0.116593190	-8.154000E+00	  0.116593190	2.617800E+01	  0.116593190	9.390700E+01	  0.116593190	3.825700E+01
484	  0.116793588	-8.176000E+00	  0.116793588	2.512100E+01	  0.116793588	9.509300E+01	  0.116793588	3.714700E+01
485	  0.116993994	-8.201000E+00	  0.116993994	2.408500E+01	  0.116993994	9.620500E+01	  0.116993994	3.598600E+01
486	  0.117194392	-8.227000E+00	  0.117194392	2.301300E+01	  0.117194392	9.731800E+01	  0.117194392	3.473300E+01
487	  0.117394790	-8.249000E+00	  0.117394790	2.194600E+01	  0.117394790	9.841100E+01	  0.117394790	3.346300E+01
488	  0.117595196	-8.281000E+00	  0.117595196	2.094000E+01	  0.117595196	9.932300E+01	  0.117595196	3.213600E+01
489	  0.117795594	-8.310000E+00	  0.117795594	1.983800E+01	  0.117795594	1.003120E+02	  0.117795594	3.068000E+01
490	  0.117995992	-8.342000E+00	  0.117995992	1.877700E+01	  0.117995992	1.011830E+02	  0.117995992	2.920900E+01
491	  0.118196398	-8.376000E+00	  0.118196398	1.769100E+01	  0.118196398	1.020010E+02	  0.118196398	2.765200E+01
492	  0.118396796	-8.412000E+00	  0.118396796	1.662200E+01	  0.118396796	1.027260E+02	  0.118396796	2.606900E+01
