! Anritsu VNA Master:             	Model: MS2036C/10/77
! SN:             	1601066
! /bd0/18may09/254.ns.m10.txt
! Existing Calibration Information:
! TYPE:             	Current Settings	Active Cal Settings
! TIME:             	05/09/2018 01:04:55 PM	05/09/2018 12:54:36 PM
! INTERNAL TEMP:    	58.8 C	58.3 C
! # POINTS:         	494	494
! START FREQ:       	20.000 MHz	20.000 MHz
! STOP FREQ:        	118.797 594 MHz	118.797 594 MHz
! SOURCE POWER:     	High	High
! IFBW:             	50 Hz	50 Hz
! AVG FACTOR:       	  1 	  1 
! REF PLANE 1:      	0 mm	0 mm
! REF PLANE 2:      	0 mm	0 mm
! CAL TYPE:         	Full S22	Full S22
! CAL METHOD:       	SOLT	SOLT
! CAL LINE TYPE:    	Coax	Coax
! DUT PORT 1:       	K-Conn(M)	K-Conn(M)
! DUT PORT 2:       	K-Conn(M)	K-Conn(M)
! CAL STATUS:       	OK: Accuracy High	--
! PROP-V:       	0.700
! CABLE LOSS:       	0.000 dB/m
! REF IMPEDANCE:       	50.0
! Trace Specific Parameters:	TR1	TR2	TR3	TR4
! TRACE.#.Y (GRAPH TYPE)	LOG MAG	PHASE	REAL IMPEDANCE	IMAGINARY IMPEDANCE
! TRACE.#.X 	FREQ.GHZ	FREQ.GHZ	FREQ.GHZ	FREQ.GHZ
! S-PARAMETER	S22	S22	S22	S22
! SMOOTH/APERTURE %	0	0	0	0
! WINDOW	NSL	NSL	NSL	NSL
! GATING	OFF	OFF	OFF	OFF
! FGTD	OFF	OFF	OFF	OFF
Marker Information per Trace:	TR1	TR2	TR3	TR4
!MK1	--	"MK1 TR2:  20.000 MHz,PH:-126.72°"	--	--
!MK2	--	--	"MK2 TR3:  70.100 200 MHz,Z:(16.400 ohm, -1.557 ohm)"	--
!MK3	--	--	--	--
!MK4	--	--	--	--
!MK5	--	--	--	--
!MK6	--	--	--	--
!MK7	--	--	--	--
!MK8	--	--	--	--
PNT	TR1.FREQ.GHZ	TR1.LOG MAG.dB	TR2.FREQ.GHZ	TR2.PHASE.deg	TR3.FREQ.GHZ	TR3.REAL IMPEDANCE.ohm	TR4.FREQ.GHZ	TR4.IMAGINARY IMPEDANCE.ohm
1	  0.020000000	-6.340000E-01	  0.020000000	-1.267180E+02	  0.020000000	2.282000E+00	  0.020000000	-2.504000E+01
2	  0.020200402	-6.370000E-01	  0.020200402	-1.281880E+02	  0.020200402	2.267000E+00	  0.020200402	-2.424400E+01
3	  0.020400802	-6.420000E-01	  0.020400802	-1.296760E+02	  0.020400802	2.255000E+00	  0.020400802	-2.344800E+01
4	  0.020601204	-6.460000E-01	  0.020601204	-1.311890E+02	  0.020601204	2.243000E+00	  0.020601204	-2.264800E+01
5	  0.020801604	-6.500000E-01	  0.020801604	-1.327340E+02	  0.020801604	2.227000E+00	  0.020801604	-2.184200E+01
6	  0.021002004	-6.510000E-01	  0.021002004	-1.342940E+02	  0.021002004	2.206000E+00	  0.021002004	-2.103700E+01
7	  0.021202406	-6.560000E-01	  0.021202406	-1.358510E+02	  0.021202406	2.199000E+00	  0.021202406	-2.024300E+01
8	  0.021402806	-6.580000E-01	  0.021402806	-1.374040E+02	  0.021402806	2.180000E+00	  0.021402806	-1.945900E+01
9	  0.021603208	-6.610000E-01	  0.021603208	-1.389490E+02	  0.021603208	2.170000E+00	  0.021603208	-1.868800E+01
10	  0.021803608	-6.650000E-01	  0.021803608	-1.405170E+02	  0.021803608	2.160000E+00	  0.021803608	-1.791300E+01
11	  0.022004008	-6.710000E-01	  0.022004008	-1.420760E+02	  0.022004008	2.158000E+00	  0.022004008	-1.715000E+01
12	  0.022204408	-6.780000E-01	  0.022204408	-1.436450E+02	  0.022204408	2.160000E+00	  0.022204408	-1.638900E+01
13	  0.022404809	-6.860000E-01	  0.022404809	-1.452430E+02	  0.022404809	2.168000E+00	  0.022404809	-1.562100E+01
14	  0.022605211	-6.880000E-01	  0.022605211	-1.468530E+02	  0.022605211	2.155000E+00	  0.022605211	-1.485400E+01
15	  0.022805611	-6.900000E-01	  0.022805611	-1.484790E+02	  0.022805611	2.144000E+00	  0.022805611	-1.408700E+01
16	  0.023006011	-6.960000E-01	  0.023006011	-1.500800E+02	  0.023006011	2.145000E+00	  0.023006011	-1.333700E+01
17	  0.023206413	-7.010000E-01	  0.023206413	-1.516800E+02	  0.023206413	2.145000E+00	  0.023206413	-1.259200E+01
18	  0.023406813	-7.080000E-01	  0.023406813	-1.532740E+02	  0.023406813	2.152000E+00	  0.023406813	-1.185600E+01
19	  0.023607215	-7.180000E-01	  0.023607215	-1.548740E+02	  0.023607215	2.168000E+00	  0.023607215	-1.112200E+01
20	  0.023807615	-7.260000E-01	  0.023807615	-1.564980E+02	  0.023807615	2.180000E+00	  0.023807615	-1.038100E+01
21	  0.024008015	-7.340000E-01	  0.024008015	-1.581440E+02	  0.024008015	2.191000E+00	  0.024008015	-9.635000E+00
22	  0.024208417	-7.420000E-01	  0.024208417	-1.597870E+02	  0.024208417	2.204000E+00	  0.024208417	-8.895000E+00
23	  0.024408817	-7.500000E-01	  0.024408817	-1.614520E+02	  0.024408817	2.215000E+00	  0.024408817	-8.148000E+00
24	  0.024609219	-7.560000E-01	  0.024609219	-1.631100E+02	  0.024609219	2.223000E+00	  0.024609219	-7.408000E+00
25	  0.024809619	-7.660000E-01	  0.024809619	-1.647710E+02	  0.024809619	2.243000E+00	  0.024809619	-6.670000E+00
26	  0.025010020	-7.750000E-01	  0.025010020	-1.664320E+02	  0.025010020	2.262000E+00	  0.025010020	-5.935000E+00
27	  0.025210422	-7.870000E-01	  0.025210422	-1.681170E+02	  0.025210422	2.288000E+00	  0.025210422	-5.192000E+00
28	  0.025410822	-7.960000E-01	  0.025410822	-1.698120E+02	  0.025410822	2.308000E+00	  0.025410822	-4.447000E+00
29	  0.025611224	-8.070000E-01	  0.025611224	-1.715210E+02	  0.025611224	2.334000E+00	  0.025611224	-3.698000E+00
30	  0.025811624	-8.180000E-01	  0.025811624	-1.732450E+02	  0.025811624	2.363000E+00	  0.025811624	-2.944000E+00
31	  0.026012026	-8.280000E-01	  0.026012026	-1.749860E+02	  0.026012026	2.387000E+00	  0.026012026	-2.183000E+00
32	  0.026212426	-8.390000E-01	  0.026212426	-1.767350E+02	  0.026212426	2.416000E+00	  0.026212426	-1.421000E+00
33	  0.026412826	-8.520000E-01	  0.026412826	-1.785030E+02	  0.026412826	2.453000E+00	  0.026412826	-6.510000E-01
34	  0.026613226	-8.670000E-01	  0.026613226	1.797310E+02	  0.026613226	2.494000E+00	  0.026613226	1.160000E-01
35	  0.026813626	-8.800000E-01	  0.026813626	1.779350E+02	  0.026813626	2.533000E+00	  0.026813626	8.980000E-01
36	  0.027014028	-8.970000E-01	  0.027014028	1.761480E+02	  0.027014028	2.583000E+00	  0.027014028	1.676000E+00
37	  0.027214428	-9.110000E-01	  0.027214428	1.743420E+02	  0.027214428	2.627000E+00	  0.027214428	2.463000E+00
38	  0.027414829	-9.280000E-01	  0.027414829	1.725390E+02	  0.027414829	2.682000E+00	  0.027414829	3.250000E+00
39	  0.027615231	-9.440000E-01	  0.027615231	1.707130E+02	  0.027615231	2.734000E+00	  0.027615231	4.048000E+00
40	  0.027815631	-9.620000E-01	  0.027815631	1.688830E+02	  0.027815631	2.793000E+00	  0.027815631	4.850000E+00
41	  0.028016033	-9.800000E-01	  0.028016033	1.670260E+02	  0.028016033	2.856000E+00	  0.028016033	5.666000E+00
42	  0.028216433	-9.980000E-01	  0.028216433	1.651710E+02	  0.028216433	2.919000E+00	  0.028216433	6.484000E+00
43	  0.028416833	-1.019000E+00	  0.028416833	1.633120E+02	  0.028416833	2.995000E+00	  0.028416833	7.307000E+00
44	  0.028617235	-1.040000E+00	  0.028617235	1.614350E+02	  0.028617235	3.069000E+00	  0.028617235	8.141000E+00
45	  0.028817635	-1.059000E+00	  0.028817635	1.595780E+02	  0.028817635	3.145000E+00	  0.028817635	8.971000E+00
46	  0.029018037	-1.082000E+00	  0.029018037	1.577020E+02	  0.029018037	3.231000E+00	  0.029018037	9.814000E+00
47	  0.029218437	-1.105000E+00	  0.029218437	1.558280E+02	  0.029218437	3.322000E+00	  0.029218437	1.066100E+01
48	  0.029418837	-1.131000E+00	  0.029418837	1.539250E+02	  0.029418837	3.424000E+00	  0.029418837	1.152500E+01
49	  0.029619239	-1.155000E+00	  0.029619239	1.520140E+02	  0.029619239	3.525000E+00	  0.029619239	1.240100E+01
50	  0.029819639	-1.180000E+00	  0.029819639	1.501030E+02	  0.029819639	3.633000E+00	  0.029819639	1.328300E+01
51	  0.030020041	-1.208000E+00	  0.030020041	1.481870E+02	  0.030020041	3.752000E+00	  0.030020041	1.417400E+01
52	  0.030220442	-1.234000E+00	  0.030220442	1.462630E+02	  0.030220442	3.871000E+00	  0.030220442	1.507700E+01
53	  0.030420844	-1.261000E+00	  0.030420844	1.443590E+02	  0.030420844	3.995000E+00	  0.030420844	1.597900E+01
54	  0.030621244	-1.288000E+00	  0.030621244	1.424460E+02	  0.030621244	4.128000E+00	  0.030621244	1.689400E+01
55	  0.030821642	-1.321000E+00	  0.030821642	1.405230E+02	  0.030821642	4.280000E+00	  0.030821642	1.782300E+01
56	  0.031022044	-1.351000E+00	  0.031022044	1.385750E+02	  0.031022044	4.434000E+00	  0.031022044	1.877500E+01
57	  0.031222444	-1.376000E+00	  0.031222444	1.366470E+02	  0.031222444	4.572000E+00	  0.031222444	1.972900E+01
58	  0.031422846	-1.409000E+00	  0.031422846	1.346600E+02	  0.031422846	4.748000E+00	  0.031422846	2.072300E+01
59	  0.031623244	-1.441000E+00	  0.031623244	1.326730E+02	  0.031623244	4.929000E+00	  0.031623244	2.173100E+01
60	  0.031823646	-1.475000E+00	  0.031823646	1.306910E+02	  0.031823646	5.121000E+00	  0.031823646	2.274900E+01
61	  0.032024048	-1.508000E+00	  0.032024048	1.287060E+02	  0.032024048	5.320000E+00	  0.032024048	2.378400E+01
62	  0.032224450	-1.546000E+00	  0.032224450	1.267160E+02	  0.032224450	5.544000E+00	  0.032224450	2.483700E+01
63	  0.032424849	-1.581000E+00	  0.032424849	1.247050E+02	  0.032424849	5.772000E+00	  0.032424849	2.591700E+01
64	  0.032625251	-1.617000E+00	  0.032625251	1.226800E+02	  0.032625251	6.012000E+00	  0.032625251	2.702300E+01
65	  0.032825653	-1.654000E+00	  0.032825653	1.206480E+02	  0.032825653	6.269000E+00	  0.032825653	2.815200E+01
66	  0.033026051	-1.687000E+00	  0.033026051	1.186030E+02	  0.033026051	6.528000E+00	  0.033026051	2.931000E+01
67	  0.033226453	-1.725000E+00	  0.033226453	1.165540E+02	  0.033226453	6.817000E+00	  0.033226453	3.049000E+01
68	  0.033426855	-1.760000E+00	  0.033426855	1.145100E+02	  0.033426855	7.108000E+00	  0.033426855	3.169200E+01
69	  0.033627257	-1.798000E+00	  0.033627257	1.124570E+02	  0.033627257	7.430000E+00	  0.033627257	3.292200E+01
70	  0.033827655	-1.837000E+00	  0.033827655	1.104250E+02	  0.033827655	7.771000E+00	  0.033827655	3.416500E+01
71	  0.034028057	-1.875000E+00	  0.034028057	1.083690E+02	  0.034028057	8.129000E+00	  0.034028057	3.545000E+01
72	  0.034228459	-1.914000E+00	  0.034228459	1.063150E+02	  0.034228459	8.512000E+00	  0.034228459	3.676100E+01
73	  0.034428857	-1.955000E+00	  0.034428857	1.042650E+02	  0.034428857	8.926000E+00	  0.034428857	3.810000E+01
74	  0.034629259	-1.996000E+00	  0.034629259	1.021630E+02	  0.034629259	9.373000E+00	  0.034629259	3.950500E+01
75	  0.034829661	-2.039000E+00	  0.034829661	1.001020E+02	  0.034829661	9.849000E+00	  0.034829661	4.091400E+01
76	  0.035030060	-2.083000E+00	  0.035030060	9.801400E+01	  0.035030060	1.036400E+01	  0.035030060	4.237800E+01
77	  0.035230462	-2.127000E+00	  0.035230462	9.594900E+01	  0.035230462	1.091200E+01	  0.035230462	4.386100E+01
78	  0.035430863	-2.173000E+00	  0.035430863	9.387100E+01	  0.035430863	1.150500E+01	  0.035430863	4.539200E+01
79	  0.035631265	-2.221000E+00	  0.035631265	9.179600E+01	  0.035631265	1.214500E+01	  0.035631265	4.695900E+01
80	  0.035831664	-2.267000E+00	  0.035831664	8.970700E+01	  0.035831664	1.282900E+01	  0.035831664	4.858100E+01
81	  0.036032066	-2.315000E+00	  0.036032066	8.763100E+01	  0.036032066	1.356100E+01	  0.036032066	5.023800E+01
82	  0.036232468	-2.360000E+00	  0.036232468	8.555600E+01	  0.036232468	1.433200E+01	  0.036232468	5.194400E+01
83	  0.036432866	-2.411000E+00	  0.036432866	8.346400E+01	  0.036432866	1.520300E+01	  0.036432866	5.370400E+01
84	  0.036633268	-2.463000E+00	  0.036633268	8.137600E+01	  0.036633268	1.613600E+01	  0.036633268	5.551000E+01
85	  0.036833670	-2.513000E+00	  0.036833670	7.927000E+01	  0.036833670	1.714200E+01	  0.036833670	5.738900E+01
86	  0.037034072	-2.567000E+00	  0.037034072	7.718100E+01	  0.037034072	1.824000E+01	  0.037034072	5.930000E+01
87	  0.037234470	-2.619000E+00	  0.037234470	7.507300E+01	  0.037234470	1.942100E+01	  0.037234470	6.129200E+01
88	  0.037434869	-2.672000E+00	  0.037434869	7.297300E+01	  0.037434869	2.070400E+01	  0.037434869	6.332900E+01
89	  0.037635271	-2.728000E+00	  0.037635271	7.083600E+01	  0.037635271	2.213000E+01	  0.037635271	6.546100E+01
90	  0.037835669	-2.792000E+00	  0.037835669	6.872000E+01	  0.037835669	2.372600E+01	  0.037835669	6.760100E+01
91	  0.038036071	-2.856000E+00	  0.038036071	6.665100E+01	  0.038036071	2.543200E+01	  0.038036071	6.974000E+01
92	  0.038236473	-2.911000E+00	  0.038236473	6.456100E+01	  0.038236473	2.722700E+01	  0.038236473	7.199300E+01
93	  0.038436871	-2.967000E+00	  0.038436871	6.247000E+01	  0.038436871	2.918700E+01	  0.038436871	7.430300E+01
94	  0.038637273	-3.021000E+00	  0.038637273	6.037700E+01	  0.038637273	3.130800E+01	  0.038637273	7.667900E+01
95	  0.038837675	-3.075000E+00	  0.038837675	5.827600E+01	  0.038837675	3.362800E+01	  0.038837675	7.912200E+01
96	  0.039038073	-3.128000E+00	  0.039038073	5.617700E+01	  0.039038073	3.615200E+01	  0.039038073	8.161700E+01
97	  0.039238475	-3.179000E+00	  0.039238475	5.408500E+01	  0.039238475	3.889200E+01	  0.039238475	8.415800E+01
98	  0.039438877	-3.234000E+00	  0.039438877	5.201400E+01	  0.039438877	4.190000E+01	  0.039438877	8.667500E+01
99	  0.039639279	-3.285000E+00	  0.039639279	4.992900E+01	  0.039639279	4.518300E+01	  0.039639279	8.925600E+01
100	  0.039839678	-3.340000E+00	  0.039839678	4.783000E+01	  0.039839678	4.883700E+01	  0.039839678	9.182900E+01
101	  0.040040080	-3.388000E+00	  0.040040080	4.574800E+01	  0.040040080	5.274700E+01	  0.040040080	9.443200E+01
102	  0.040240481	-3.436000E+00	  0.040240481	4.400300E+01	  0.040240481	5.639800E+01	  0.040240481	9.648500E+01
103	  0.040440880	-3.485000E+00	  0.040440880	4.193200E+01	  0.040440880	6.102400E+01	  0.040440880	9.895400E+01
104	  0.040641282	-3.530000E+00	  0.040641282	3.987500E+01	  0.040641282	6.603500E+01	  0.040641282	1.013430E+02
105	  0.040841684	-3.576000E+00	  0.040841684	3.784400E+01	  0.040841684	7.146400E+01	  0.040841684	1.035270E+02
106	  0.041042086	-3.625000E+00	  0.041042086	3.582300E+01	  0.041042086	7.739300E+01	  0.041042086	1.054340E+02
107	  0.041242484	-3.670000E+00	  0.041242484	3.378200E+01	  0.041242484	8.388000E+01	  0.041242484	1.071450E+02
108	  0.041442886	-3.718000E+00	  0.041442886	3.175600E+01	  0.041442886	9.089800E+01	  0.041442886	1.083950E+02
109	  0.041643288	-3.763000E+00	  0.041643288	2.973000E+01	  0.041643288	9.846200E+01	  0.041643288	1.092360E+02
110	  0.041843686	-3.809000E+00	  0.041843686	2.771500E+01	  0.041843686	1.065520E+02	  0.041843686	1.094630E+02
111	  0.042044088	-3.853000E+00	  0.042044088	2.570700E+01	  0.042044088	1.151540E+02	  0.042044088	1.089790E+02
112	  0.042244490	-3.896000E+00	  0.042244490	2.371200E+01	  0.042244490	1.241810E+02	  0.042244490	1.076740E+02
113	  0.042444889	-3.942000E+00	  0.042444889	2.174000E+01	  0.042444889	1.334810E+02	  0.042444889	1.052750E+02
114	  0.042645290	-3.987000E+00	  0.042645290	1.974300E+01	  0.042645290	1.431610E+02	  0.042645290	1.017220E+02
115	  0.042845692	-4.035000E+00	  0.042845692	1.776000E+01	  0.042845692	1.528080E+02	  0.042845692	9.679500E+01
116	  0.043046094	-4.081000E+00	  0.043046094	1.578300E+01	  0.043046094	1.623010E+02	  0.043046094	9.058700E+01
117	  0.043246493	-4.124000E+00	  0.043246493	1.379300E+01	  0.043246493	1.714770E+02	  0.043246493	8.294400E+01
118	  0.043446895	-4.168000E+00	  0.043446895	1.182800E+01	  0.043446895	1.798280E+02	  0.043446895	7.393900E+01
119	  0.043647297	-4.210000E+00	  0.043647297	9.832000E+00	  0.043647297	1.873390E+02	  0.043647297	6.347800E+01
120	  0.043847695	-4.253000E+00	  0.043847695	7.890000E+00	  0.043847695	1.933100E+02	  0.043847695	5.208100E+01
121	  0.044048097	-4.297000E+00	  0.044048097	5.920000E+00	  0.044048097	1.977790E+02	  0.044048097	3.960100E+01
122	  0.044248499	-4.341000E+00	  0.044248499	3.970000E+00	  0.044248499	2.004400E+02	  0.044248499	2.664100E+01
123	  0.044448901	-4.383000E+00	  0.044448901	2.043000E+00	  0.044448901	2.013470E+02	  0.044448901	1.363800E+01
124	  0.044649299	-4.425000E+00	  0.044649299	1.100000E-01	  0.044649299	2.004860E+02	  0.044649299	7.290000E-01
125	  0.044849701	-4.465000E+00	  0.044849701	-1.804000E+00	  0.044849701	1.980680E+02	  0.044849701	-1.161300E+01
126	  0.045050103	-4.504000E+00	  0.045050103	-3.732000E+00	  0.045050103	1.941350E+02	  0.045050103	-2.330700E+01
127	  0.045250501	-4.541000E+00	  0.045250501	-5.650000E+00	  0.045250501	1.890330E+02	  0.045250501	-3.402600E+01
128	  0.045450903	-4.576000E+00	  0.045450903	-7.561000E+00	  0.045450903	1.829590E+02	  0.045450903	-4.364200E+01
129	  0.045651305	-4.612000E+00	  0.045651305	-9.467000E+00	  0.045651305	1.761020E+02	  0.045651305	-5.206800E+01
130	  0.045851704	-4.650000E+00	  0.045851704	-1.134300E+01	  0.045851704	1.687620E+02	  0.045851704	-5.913500E+01
131	  0.046052102	-4.682000E+00	  0.046052102	-1.321000E+01	  0.046052102	1.613020E+02	  0.046052102	-6.518400E+01
132	  0.046252504	-4.717000E+00	  0.046252504	-1.505500E+01	  0.046252504	1.537220E+02	  0.046252504	-7.003200E+01
133	  0.046452906	-4.751000E+00	  0.046452906	-1.688100E+01	  0.046452906	1.462450E+02	  0.046452906	-7.388800E+01
134	  0.046653304	-4.787000E+00	  0.046653304	-1.871800E+01	  0.046653304	1.388530E+02	  0.046653304	-7.689100E+01
135	  0.046853706	-4.819000E+00	  0.046853706	-2.055500E+01	  0.046853706	1.317240E+02	  0.046853706	-7.922800E+01
136	  0.047054108	-4.852000E+00	  0.047054108	-2.236500E+01	  0.047054108	1.249460E+02	  0.047054108	-8.083700E+01
137	  0.047254506	-4.884000E+00	  0.047254506	-2.418300E+01	  0.047254506	1.184500E+02	  0.047254506	-8.190700E+01
138	  0.047454908	-4.909000E+00	  0.047454908	-2.597700E+01	  0.047454908	1.123830E+02	  0.047454908	-8.261300E+01
139	  0.047655310	-4.941000E+00	  0.047655310	-2.775600E+01	  0.047655310	1.066610E+02	  0.047655310	-8.277200E+01
140	  0.047855709	-4.971000E+00	  0.047855709	-2.952700E+01	  0.047855709	1.012940E+02	  0.047855709	-8.263100E+01
141	  0.048056111	-5.002000E+00	  0.048056111	-3.126600E+01	  0.048056111	9.633500E+01	  0.048056111	-8.218800E+01
142	  0.048256513	-5.032000E+00	  0.048256513	-3.300600E+01	  0.048256513	9.167400E+01	  0.048256513	-8.155200E+01
143	  0.048456915	-5.059000E+00	  0.048456915	-3.473200E+01	  0.048456915	8.732900E+01	  0.048456915	-8.078100E+01
144	  0.048657313	-5.089000E+00	  0.048657313	-3.644800E+01	  0.048657313	8.328500E+01	  0.048657313	-7.980100E+01
145	  0.048857715	-5.115000E+00	  0.048857715	-3.820300E+01	  0.048857715	7.940200E+01	  0.048857715	-7.874500E+01
146	  0.049058117	-5.141000E+00	  0.049058117	-3.993100E+01	  0.049058117	7.582000E+01	  0.049058117	-7.760200E+01
147	  0.049258515	-5.168000E+00	  0.049258515	-4.163900E+01	  0.049258515	7.250600E+01	  0.049258515	-7.637900E+01
148	  0.049458917	-5.192000E+00	  0.049458917	-4.334000E+01	  0.049458917	6.940500E+01	  0.049458917	-7.512100E+01
149	  0.049659319	-5.222000E+00	  0.049659319	-4.502500E+01	  0.049659319	6.654500E+01	  0.049659319	-7.377300E+01
150	  0.049859721	-5.247000E+00	  0.049859721	-4.672000E+01	  0.049859721	6.383200E+01	  0.049859721	-7.242800E+01
151	  0.050060119	-5.274000E+00	  0.050060119	-4.836700E+01	  0.050060119	6.136500E+01	  0.050060119	-7.107800E+01
152	  0.050260521	-5.295000E+00	  0.050260521	-5.006800E+01	  0.050260521	5.894400E+01	  0.050260521	-6.973200E+01
153	  0.050460923	-5.316000E+00	  0.050460923	-5.174000E+01	  0.050460923	5.670800E+01	  0.050460923	-6.839300E+01
154	  0.050661322	-5.333000E+00	  0.050661322	-5.340600E+01	  0.050661322	5.459400E+01	  0.050661322	-6.708600E+01
155	  0.050861724	-5.351000E+00	  0.050861724	-5.506600E+01	  0.050861724	5.261600E+01	  0.050861724	-6.576600E+01
156	  0.051062126	-5.370000E+00	  0.051062126	-5.671400E+01	  0.051062126	5.076600E+01	  0.051062126	-6.445300E+01
157	  0.051262524	-5.390000E+00	  0.051262524	-5.834900E+01	  0.051262524	4.904400E+01	  0.051262524	-6.314100E+01
158	  0.051462926	-5.407000E+00	  0.051462926	-5.996200E+01	  0.051462926	4.742800E+01	  0.051462926	-6.187100E+01
159	  0.051663328	-5.422000E+00	  0.051663328	-6.162100E+01	  0.051663328	4.584200E+01	  0.051663328	-6.059700E+01
160	  0.051863730	-5.435000E+00	  0.051863730	-6.320800E+01	  0.051863730	4.440500E+01	  0.051863730	-5.938800E+01
161	  0.052064128	-5.448000E+00	  0.052064128	-6.483900E+01	  0.052064128	4.300400E+01	  0.052064128	-5.815800E+01
162	  0.052264530	-5.455000E+00	  0.052264530	-6.644100E+01	  0.052264530	4.167200E+01	  0.052264530	-5.699600E+01
163	  0.052464932	-5.468000E+00	  0.052464932	-6.803500E+01	  0.052464932	4.044200E+01	  0.052464932	-5.581700E+01
164	  0.052665330	-5.478000E+00	  0.052665330	-6.959600E+01	  0.052665330	3.928800E+01	  0.052665330	-5.468600E+01
165	  0.052865732	-5.491000E+00	  0.052865732	-7.114700E+01	  0.052865732	3.821300E+01	  0.052865732	-5.355700E+01
166	  0.053066134	-5.504000E+00	  0.053066134	-7.268100E+01	  0.053066134	3.720100E+01	  0.053066134	-5.245600E+01
167	  0.053266536	-5.518000E+00	  0.053266536	-7.419500E+01	  0.053266536	3.625500E+01	  0.053266536	-5.137900E+01
168	  0.053466935	-5.533000E+00	  0.053466935	-7.572200E+01	  0.053466935	3.534800E+01	  0.053466935	-5.030500E+01
169	  0.053667337	-5.546000E+00	  0.053667337	-7.722500E+01	  0.053667337	3.449600E+01	  0.053667337	-4.926300E+01
170	  0.053867739	-5.557000E+00	  0.053867739	-7.870200E+01	  0.053867739	3.368600E+01	  0.053867739	-4.826400E+01
171	  0.054068137	-5.572000E+00	  0.054068137	-8.018800E+01	  0.054068137	3.292100E+01	  0.054068137	-4.725900E+01
172	  0.054268539	-5.584000E+00	  0.054268539	-8.162800E+01	  0.054268539	3.220500E+01	  0.054268539	-4.630500E+01
173	  0.054468941	-5.598000E+00	  0.054468941	-8.309800E+01	  0.054468941	3.151800E+01	  0.054468941	-4.533500E+01
174	  0.054669335	-5.614000E+00	  0.054669335	-8.454600E+01	  0.054669335	3.087200E+01	  0.054669335	-4.439200E+01
175	  0.054869737	-5.629000E+00	  0.054869737	-8.598500E+01	  0.054869737	3.025900E+01	  0.054869737	-4.346700E+01
176	  0.055070139	-5.645000E+00	  0.055070139	-8.741000E+01	  0.055070139	2.968200E+01	  0.055070139	-4.256100E+01
177	  0.055270538	-5.658000E+00	  0.055270538	-8.882200E+01	  0.055270538	2.912300E+01	  0.055270538	-4.168300E+01
178	  0.055470940	-5.673000E+00	  0.055470940	-9.024200E+01	  0.055470940	2.859300E+01	  0.055470940	-4.080600E+01
179	  0.055671342	-5.686000E+00	  0.055671342	-9.168200E+01	  0.055671342	2.806500E+01	  0.055671342	-3.993700E+01
180	  0.055871744	-5.698000E+00	  0.055871744	-9.310700E+01	  0.055871744	2.756300E+01	  0.055871744	-3.909000E+01
181	  0.056072142	-5.709000E+00	  0.056072142	-9.451600E+01	  0.056072142	2.708600E+01	  0.056072142	-3.826300E+01
182	  0.056272544	-5.725000E+00	  0.056272544	-9.593000E+01	  0.056272544	2.664400E+01	  0.056272544	-3.743300E+01
183	  0.056472946	-5.742000E+00	  0.056472946	-9.733200E+01	  0.056472946	2.622800E+01	  0.056472946	-3.661700E+01
184	  0.056673344	-5.755000E+00	  0.056673344	-9.873400E+01	  0.056673344	2.581200E+01	  0.056673344	-3.582300E+01
185	  0.056873746	-5.774000E+00	  0.056873746	-1.001070E+02	  0.056873746	2.544400E+01	  0.056873746	-3.504100E+01
186	  0.057074148	-5.788000E+00	  0.057074148	-1.014900E+02	  0.057074148	2.507100E+01	  0.057074148	-3.427400E+01
187	  0.057274550	-5.801000E+00	  0.057274550	-1.028840E+02	  0.057274550	2.470700E+01	  0.057274550	-3.351100E+01
188	  0.057474948	-5.815000E+00	  0.057474948	-1.042700E+02	  0.057474948	2.436100E+01	  0.057474948	-3.276000E+01
189	  0.057675350	-5.830000E+00	  0.057675350	-1.056450E+02	  0.057675350	2.403500E+01	  0.057675350	-3.202200E+01
190	  0.057875752	-5.844000E+00	  0.057875752	-1.069910E+02	  0.057875752	2.372800E+01	  0.057875752	-3.130900E+01
191	  0.058076151	-5.855000E+00	  0.058076151	-1.083280E+02	  0.058076151	2.342400E+01	  0.058076151	-3.061200E+01
192	  0.058276553	-5.866000E+00	  0.058276553	-1.096330E+02	  0.058276553	2.313800E+01	  0.058276553	-2.994100E+01
193	  0.058476955	-5.875000E+00	  0.058476955	-1.109260E+02	  0.058476955	2.286300E+01	  0.058476955	-2.928300E+01
194	  0.058677353	-5.885000E+00	  0.058677353	-1.122130E+02	  0.058677353	2.259900E+01	  0.058677353	-2.863400E+01
195	  0.058877755	-5.892000E+00	  0.058877755	-1.134950E+02	  0.058877755	2.233800E+01	  0.058877755	-2.799700E+01
196	  0.059078157	-5.898000E+00	  0.059078157	-1.147310E+02	  0.059078157	2.208900E+01	  0.059078157	-2.739200E+01
197	  0.059278559	-5.900000E+00	  0.059278559	-1.159530E+02	  0.059278559	2.184100E+01	  0.059278559	-2.680200E+01
198	  0.059478957	-5.900000E+00	  0.059478957	-1.171300E+02	  0.059478957	2.160700E+01	  0.059478957	-2.624000E+01
199	  0.059679359	-5.904000E+00	  0.059679359	-1.183270E+02	  0.059679359	2.138400E+01	  0.059679359	-2.566900E+01
200	  0.059879761	-5.903000E+00	  0.059879761	-1.195260E+02	  0.059879761	2.115500E+01	  0.059879761	-2.510700E+01
201	  0.060080159	-5.902000E+00	  0.060080159	-1.207450E+02	  0.060080159	2.092900E+01	  0.060080159	-2.454000E+01
202	  0.060280561	-5.901000E+00	  0.060280561	-1.219720E+02	  0.060280561	2.071100E+01	  0.060280561	-2.397200E+01
203	  0.060480963	-5.902000E+00	  0.060480963	-1.231730E+02	  0.060480963	2.051100E+01	  0.060480963	-2.341800E+01
204	  0.060681365	-5.903000E+00	  0.060681365	-1.243730E+02	  0.060681365	2.031500E+01	  0.060681365	-2.286900E+01
205	  0.060881764	-5.902000E+00	  0.060881764	-1.255590E+02	  0.060881764	2.012300E+01	  0.060881764	-2.233100E+01
206	  0.061082166	-5.906000E+00	  0.061082166	-1.267620E+02	  0.061082166	1.995000E+01	  0.061082166	-2.178300E+01
207	  0.061282568	-5.910000E+00	  0.061282568	-1.279450E+02	  0.061282568	1.978600E+01	  0.061282568	-2.124900E+01
208	  0.061482966	-5.916000E+00	  0.061482966	-1.291090E+02	  0.061482966	1.963300E+01	  0.061482966	-2.072600E+01
209	  0.061683368	-5.919000E+00	  0.061683368	-1.302650E+02	  0.061683368	1.948200E+01	  0.061683368	-2.021100E+01
210	  0.061883770	-5.924000E+00	  0.061883770	-1.314170E+02	  0.061883770	1.933900E+01	  0.061883770	-1.970000E+01
211	  0.062084168	-5.932000E+00	  0.062084168	-1.325670E+02	  0.062084168	1.921300E+01	  0.062084168	-1.918900E+01
212	  0.062284570	-5.938000E+00	  0.062284570	-1.337000E+02	  0.062284570	1.908600E+01	  0.062284570	-1.869200E+01
213	  0.062484972	-5.934000E+00	  0.062484972	-1.348080E+02	  0.062484972	1.894000E+01	  0.062484972	-1.821500E+01
214	  0.062685370	-5.937000E+00	  0.062685370	-1.359610E+02	  0.062685370	1.881200E+01	  0.062685370	-1.771700E+01
215	  0.062885776	-5.940000E+00	  0.062885776	-1.370900E+02	  0.062885776	1.869000E+01	  0.062885776	-1.723100E+01
216	  0.063086174	-5.944000E+00	  0.063086174	-1.382340E+02	  0.063086174	1.857600E+01	  0.063086174	-1.674000E+01
217	  0.063286573	-5.949000E+00	  0.063286573	-1.393750E+02	  0.063286573	1.846800E+01	  0.063286573	-1.625300E+01
218	  0.063486971	-5.950000E+00	  0.063486971	-1.405120E+02	  0.063486971	1.835400E+01	  0.063486971	-1.577300E+01
219	  0.063687377	-5.949000E+00	  0.063687377	-1.416410E+02	  0.063687377	1.824000E+01	  0.063687377	-1.529900E+01
220	  0.063887775	-5.952000E+00	  0.063887775	-1.427590E+02	  0.063887775	1.814100E+01	  0.063887775	-1.483000E+01
221	  0.064088173	-5.953000E+00	  0.064088173	-1.438880E+02	  0.064088173	1.803900E+01	  0.064088173	-1.435900E+01
222	  0.064288579	-5.956000E+00	  0.064288579	-1.450110E+02	  0.064288579	1.794700E+01	  0.064288579	-1.389200E+01
223	  0.064488977	-5.954000E+00	  0.064488977	-1.461350E+02	  0.064488977	1.784500E+01	  0.064488977	-1.342900E+01
224	  0.064689375	-5.956000E+00	  0.064689375	-1.472740E+02	  0.064689375	1.775900E+01	  0.064689375	-1.295900E+01
225	  0.064889781	-5.956000E+00	  0.064889781	-1.483870E+02	  0.064889781	1.767100E+01	  0.064889781	-1.250300E+01
226	  0.065090179	-5.957000E+00	  0.065090179	-1.494740E+02	  0.065090179	1.759200E+01	  0.065090179	-1.205800E+01
227	  0.065290578	-5.952000E+00	  0.065290578	-1.505500E+02	  0.065290578	1.749800E+01	  0.065290578	-1.162300E+01
228	  0.065490983	-5.948000E+00	  0.065490983	-1.516800E+02	  0.065490983	1.741000E+01	  0.065490983	-1.116600E+01
229	  0.065691382	-5.943000E+00	  0.065691382	-1.527520E+02	  0.065691382	1.732600E+01	  0.065691382	-1.073500E+01
230	  0.065891780	-5.938000E+00	  0.065891780	-1.538520E+02	  0.065891780	1.724100E+01	  0.065891780	-1.029300E+01
231	  0.066092186	-5.938000E+00	  0.066092186	-1.548930E+02	  0.066092186	1.717900E+01	  0.066092186	-9.874000E+00
232	  0.066292584	-5.930000E+00	  0.066292584	-1.559600E+02	  0.066292584	1.709800E+01	  0.066292584	-9.448000E+00
233	  0.066492982	-5.923000E+00	  0.066492982	-1.570120E+02	  0.066492982	1.702100E+01	  0.066492982	-9.030000E+00
234	  0.066693388	-5.923000E+00	  0.066693388	-1.580710E+02	  0.066693388	1.696400E+01	  0.066693388	-8.607000E+00
235	  0.066893786	-5.917000E+00	  0.066893786	-1.591210E+02	  0.066893786	1.689700E+01	  0.066893786	-8.190000E+00
236	  0.067094192	-5.910000E+00	  0.067094192	-1.601570E+02	  0.067094192	1.683100E+01	  0.067094192	-7.780000E+00
237	  0.067294590	-5.910000E+00	  0.067294590	-1.612010E+02	  0.067294590	1.678300E+01	  0.067294590	-7.366000E+00
238	  0.067494988	-5.902000E+00	  0.067494988	-1.622570E+02	  0.067494988	1.671900E+01	  0.067494988	-6.950000E+00
239	  0.067695394	-5.898000E+00	  0.067695394	-1.633320E+02	  0.067695394	1.666500E+01	  0.067695394	-6.525000E+00
240	  0.067895792	-5.900000E+00	  0.067895792	-1.643360E+02	  0.067895792	1.663500E+01	  0.067895792	-6.128000E+00
241	  0.068096191	-5.896000E+00	  0.068096191	-1.654300E+02	  0.068096191	1.658500E+01	  0.068096191	-5.698000E+00
242	  0.068296596	-5.894000E+00	  0.068296596	-1.664900E+02	  0.068296596	1.654800E+01	  0.068296596	-5.281000E+00
243	  0.068496995	-5.897000E+00	  0.068496995	-1.675450E+02	  0.068496995	1.652300E+01	  0.068496995	-4.866000E+00
244	  0.068697393	-5.900000E+00	  0.068697393	-1.685990E+02	  0.068697393	1.650200E+01	  0.068697393	-4.451000E+00
245	  0.068897791	-5.896000E+00	  0.068897791	-1.696590E+02	  0.068897791	1.646700E+01	  0.068897791	-4.036000E+00
246	  0.069098189	-5.897000E+00	  0.069098189	-1.707150E+02	  0.069098189	1.644600E+01	  0.069098189	-3.623000E+00
247	  0.069298595	-5.898000E+00	  0.069298595	-1.717910E+02	  0.069298595	1.642900E+01	  0.069298595	-3.202000E+00
248	  0.069498993	-5.899000E+00	  0.069498993	-1.728210E+02	  0.069498993	1.641200E+01	  0.069498993	-2.799000E+00
249	  0.069699399	-5.905000E+00	  0.069699399	-1.739190E+02	  0.069699399	1.641200E+01	  0.069699399	-2.370000E+00
250	  0.069899797	-5.905000E+00	  0.069899797	-1.749560E+02	  0.069899797	1.639900E+01	  0.069899797	-1.965000E+00
251	  0.070100196	-5.909000E+00	  0.070100196	-1.760040E+02	  0.070100196	1.640000E+01	  0.070100196	-1.556000E+00
252	  0.070300601	-5.913000E+00	  0.070300601	-1.770650E+02	  0.070300601	1.640200E+01	  0.070300601	-1.143000E+00
253	  0.070501000	-5.914000E+00	  0.070501000	-1.781010E+02	  0.070501000	1.639900E+01	  0.070501000	-7.390000E-01
254	  0.070701398	-5.916000E+00	  0.070701398	-1.791200E+02	  0.070701398	1.640100E+01	  0.070701398	-3.420000E-01
255	  0.070901804	-5.918000E+00	  0.070901804	1.798360E+02	  0.070901804	1.640600E+01	  0.070901804	6.300000E-02
256	  0.071102202	-5.925000E+00	  0.071102202	1.787910E+02	  0.071102202	1.642500E+01	  0.071102202	4.700000E-01
257	  0.071302600	-5.927000E+00	  0.071302600	1.777570E+02	  0.071302600	1.643300E+01	  0.071302600	8.720000E-01
258	  0.071503006	-5.936000E+00	  0.071503006	1.767150E+02	  0.071503006	1.646400E+01	  0.071503006	1.278000E+00
259	  0.071703404	-5.942000E+00	  0.071703404	1.757050E+02	  0.071703404	1.648800E+01	  0.071703404	1.670000E+00
260	  0.071903802	-5.949000E+00	  0.071903802	1.746940E+02	  0.071903802	1.651500E+01	  0.071903802	2.064000E+00
261	  0.072104208	-5.957000E+00	  0.072104208	1.736800E+02	  0.072104208	1.654800E+01	  0.072104208	2.458000E+00
262	  0.072304606	-5.962000E+00	  0.072304606	1.726860E+02	  0.072304606	1.657800E+01	  0.072304606	2.845000E+00
263	  0.072505005	-5.969000E+00	  0.072505005	1.716950E+02	  0.072505005	1.661300E+01	  0.072505005	3.230000E+00
264	  0.072705410	-5.979000E+00	  0.072705410	1.707330E+02	  0.072705410	1.665900E+01	  0.072705410	3.605000E+00
265	  0.072905809	-5.986000E+00	  0.072905809	1.697470E+02	  0.072905809	1.669900E+01	  0.072905809	3.988000E+00
266	  0.073106214	-5.995000E+00	  0.073106214	1.687750E+02	  0.073106214	1.674500E+01	  0.073106214	4.366000E+00
267	  0.073306613	-6.008000E+00	  0.073306613	1.678260E+02	  0.073306613	1.680200E+01	  0.073306613	4.735000E+00
268	  0.073507011	-6.018000E+00	  0.073507011	1.668570E+02	  0.073507011	1.685800E+01	  0.073507011	5.112000E+00
269	  0.073707417	-6.033000E+00	  0.073707417	1.658790E+02	  0.073707417	1.692700E+01	  0.073707417	5.492000E+00
270	  0.073907815	-6.043000E+00	  0.073907815	1.649660E+02	  0.073907815	1.698300E+01	  0.073907815	5.847000E+00
271	  0.074108213	-6.055000E+00	  0.074108213	1.640110E+02	  0.074108213	1.704800E+01	  0.074108213	6.219000E+00
272	  0.074308619	-6.069000E+00	  0.074308619	1.630920E+02	  0.074308619	1.712000E+01	  0.074308619	6.576000E+00
273	  0.074509017	-6.079000E+00	  0.074509017	1.621420E+02	  0.074509017	1.718300E+01	  0.074509017	6.947000E+00
274	  0.074709415	-6.096000E+00	  0.074709415	1.612180E+02	  0.074709415	1.726700E+01	  0.074709415	7.306000E+00
275	  0.074909821	-6.109000E+00	  0.074909821	1.602950E+02	  0.074909821	1.734400E+01	  0.074909821	7.665000E+00
276	  0.075110219	-6.123000E+00	  0.075110219	1.594150E+02	  0.075110219	1.742100E+01	  0.075110219	8.008000E+00
277	  0.075310618	-6.137000E+00	  0.075310618	1.584820E+02	  0.075310618	1.750500E+01	  0.075310618	8.371000E+00
278	  0.075511023	-6.149000E+00	  0.075511023	1.576200E+02	  0.075511023	1.758000E+01	  0.075511023	8.709000E+00
279	  0.075711422	-6.157000E+00	  0.075711422	1.567520E+02	  0.075711422	1.764900E+01	  0.075711422	9.049000E+00
280	  0.075911827	-6.169000E+00	  0.075911827	1.558530E+02	  0.075911827	1.773300E+01	  0.075911827	9.401000E+00
281	  0.076112226	-6.178000E+00	  0.076112226	1.549630E+02	  0.076112226	1.780900E+01	  0.076112226	9.751000E+00
282	  0.076312624	-6.190000E+00	  0.076312624	1.541050E+02	  0.076312624	1.789300E+01	  0.076312624	1.008700E+01
283	  0.076513030	-6.204000E+00	  0.076513030	1.531940E+02	  0.076513030	1.798900E+01	  0.076513030	1.044500E+01
284	  0.076713428	-6.210000E+00	  0.076713428	1.523390E+02	  0.076713428	1.806100E+01	  0.076713428	1.078400E+01
285	  0.076913826	-6.216000E+00	  0.076913826	1.514480E+02	  0.076913826	1.813700E+01	  0.076913826	1.113700E+01
286	  0.077114232	-6.223000E+00	  0.077114232	1.505630E+02	  0.077114232	1.822100E+01	  0.077114232	1.148900E+01
287	  0.077314630	-6.231000E+00	  0.077314630	1.497030E+02	  0.077314630	1.830600E+01	  0.077314630	1.183000E+01
288	  0.077515028	-6.235000E+00	  0.077515028	1.488480E+02	  0.077515028	1.838200E+01	  0.077515028	1.217300E+01
289	  0.077715434	-6.243000E+00	  0.077715434	1.479850E+02	  0.077715434	1.847100E+01	  0.077715434	1.251700E+01
290	  0.077915832	-6.247000E+00	  0.077915832	1.471040E+02	  0.077915832	1.855400E+01	  0.077915832	1.287200E+01
291	  0.078116231	-6.252000E+00	  0.078116231	1.462290E+02	  0.078116231	1.864200E+01	  0.078116231	1.322400E+01
292	  0.078316636	-6.258000E+00	  0.078316636	1.453840E+02	  0.078316636	1.873100E+01	  0.078316636	1.356400E+01
293	  0.078517035	-6.259000E+00	  0.078517035	1.444830E+02	  0.078517035	1.881700E+01	  0.078517035	1.393000E+01
294	  0.078717433	-6.268000E+00	  0.078717433	1.436120E+02	  0.078717433	1.892100E+01	  0.078717433	1.428100E+01
295	  0.078917839	-6.277000E+00	  0.078917839	1.427280E+02	  0.078917839	1.903000E+01	  0.078917839	1.463800E+01
296	  0.079118237	-6.283000E+00	  0.079118237	1.419100E+02	  0.079118237	1.912800E+01	  0.079118237	1.497000E+01
297	  0.079318643	-6.289000E+00	  0.079318643	1.410440E+02	  0.079318643	1.923200E+01	  0.079318643	1.532300E+01
298	  0.079519041	-6.298000E+00	  0.079519041	1.402050E+02	  0.079519041	1.934300E+01	  0.079519041	1.566400E+01
299	  0.079719439	-6.307000E+00	  0.079719439	1.393550E+02	  0.079719439	1.945900E+01	  0.079719439	1.601000E+01
300	  0.079919845	-6.317000E+00	  0.079919845	1.384820E+02	  0.079919845	1.958200E+01	  0.079919845	1.636500E+01
301	  0.080120243	-6.326000E+00	  0.080120243	1.376330E+02	  0.080120243	1.970500E+01	  0.080120243	1.671200E+01
302	  0.080320641	-6.335000E+00	  0.080320641	1.367620E+02	  0.080320641	1.982900E+01	  0.080320641	1.707000E+01
303	  0.080521047	-6.349000E+00	  0.080521047	1.359270E+02	  0.080521047	1.997000E+01	  0.080521047	1.740800E+01
304	  0.080721445	-6.361000E+00	  0.080721445	1.350630E+02	  0.080721445	2.010800E+01	  0.080721445	1.776200E+01
305	  0.080921844	-6.372000E+00	  0.080921844	1.342330E+02	  0.080921844	2.024300E+01	  0.080921844	1.810200E+01
306	  0.081122249	-6.391000E+00	  0.081122249	1.333670E+02	  0.081122249	2.041000E+01	  0.081122249	1.845100E+01
307	  0.081322648	-6.405000E+00	  0.081322648	1.325240E+02	  0.081322648	2.056000E+01	  0.081322648	1.879700E+01
308	  0.081523046	-6.423000E+00	  0.081523046	1.316420E+02	  0.081523046	2.073300E+01	  0.081523046	1.915400E+01
309	  0.081723452	-6.437000E+00	  0.081723452	1.307710E+02	  0.081723452	2.089300E+01	  0.081723452	1.951300E+01
310	  0.081923850	-6.454000E+00	  0.081923850	1.299260E+02	  0.081923850	2.106300E+01	  0.081923850	1.985800E+01
311	  0.082124248	-6.475000E+00	  0.082124248	1.290930E+02	  0.082124248	2.124600E+01	  0.082124248	2.019400E+01
312	  0.082324654	-6.491000E+00	  0.082324654	1.282510E+02	  0.082324654	2.142000E+01	  0.082324654	2.053900E+01
313	  0.082525052	-6.513000E+00	  0.082525052	1.274370E+02	  0.082525052	2.160800E+01	  0.082525052	2.086700E+01
314	  0.082725458	-6.536000E+00	  0.082725458	1.266400E+02	  0.082725458	2.179800E+01	  0.082725458	2.118700E+01
315	  0.082925856	-6.552000E+00	  0.082925856	1.258020E+02	  0.082925856	2.198100E+01	  0.082925856	2.153200E+01
316	  0.083126254	-6.575000E+00	  0.083126254	1.249490E+02	  0.083126254	2.219200E+01	  0.083126254	2.187600E+01
317	  0.083326660	-6.595000E+00	  0.083326660	1.241430E+02	  0.083326660	2.238500E+01	  0.083326660	2.220400E+01
318	  0.083527058	-6.614000E+00	  0.083527058	1.233150E+02	  0.083527058	2.258700E+01	  0.083527058	2.254200E+01
319	  0.083727457	-6.639000E+00	  0.083727457	1.225190E+02	  0.083727457	2.280200E+01	  0.083727457	2.286000E+01
320	  0.083927862	-6.660000E+00	  0.083927862	1.217070E+02	  0.083927862	2.301100E+01	  0.083927862	2.319000E+01
321	  0.084128261	-6.682000E+00	  0.084128261	1.208880E+02	  0.084128261	2.322800E+01	  0.084128261	2.352200E+01
322	  0.084328659	-6.705000E+00	  0.084328659	1.201310E+02	  0.084328659	2.344300E+01	  0.084328659	2.382400E+01
323	  0.084529065	-6.730000E+00	  0.084529065	1.193650E+02	  0.084529065	2.366500E+01	  0.084529065	2.412900E+01
324	  0.084729463	-6.750000E+00	  0.084729463	1.185670E+02	  0.084729463	2.388300E+01	  0.084729463	2.445400E+01
325	  0.084929854	-6.773000E+00	  0.084929854	1.177660E+02	  0.084929854	2.411600E+01	  0.084929854	2.477600E+01
326	  0.085130259	-6.793000E+00	  0.085130259	1.169590E+02	  0.085130259	2.434500E+01	  0.085130259	2.510600E+01
327	  0.085330658	-6.818000E+00	  0.085330658	1.161770E+02	  0.085330658	2.458600E+01	  0.085330658	2.541700E+01
328	  0.085531056	-6.839000E+00	  0.085531056	1.154030E+02	  0.085531056	2.481900E+01	  0.085531056	2.573000E+01
329	  0.085731462	-6.861000E+00	  0.085731462	1.146550E+02	  0.085731462	2.505100E+01	  0.085731462	2.603000E+01
330	  0.085931860	-6.883000E+00	  0.085931860	1.138850E+02	  0.085931860	2.529500E+01	  0.085931860	2.633800E+01
331	  0.086132258	-6.903000E+00	  0.086132258	1.131520E+02	  0.086132258	2.552400E+01	  0.086132258	2.663600E+01
332	  0.086332664	-6.925000E+00	  0.086332664	1.124180E+02	  0.086332664	2.576600E+01	  0.086332664	2.692800E+01
333	  0.086533062	-6.952000E+00	  0.086533062	1.116660E+02	  0.086533062	2.602900E+01	  0.086533062	2.722100E+01
334	  0.086733460	-6.971000E+00	  0.086733460	1.109020E+02	  0.086733460	2.627700E+01	  0.086733460	2.753200E+01
335	  0.086933866	-6.995000E+00	  0.086933866	1.101960E+02	  0.086933866	2.652900E+01	  0.086933866	2.780700E+01
336	  0.087134264	-7.019000E+00	  0.087134264	1.094620E+02	  0.087134264	2.679000E+01	  0.087134264	2.809600E+01
337	  0.087334670	-7.041000E+00	  0.087334670	1.087180E+02	  0.087334670	2.705100E+01	  0.087334670	2.839200E+01
338	  0.087535068	-7.066000E+00	  0.087535068	1.079960E+02	  0.087535068	2.732200E+01	  0.087535068	2.867200E+01
339	  0.087735467	-7.088000E+00	  0.087735467	1.072960E+02	  0.087735467	2.758000E+01	  0.087735467	2.894700E+01
340	  0.087935872	-7.117000E+00	  0.087935872	1.065650E+02	  0.087935872	2.787200E+01	  0.087935872	2.922100E+01
341	  0.088136271	-7.139000E+00	  0.088136271	1.058670E+02	  0.088136271	2.813800E+01	  0.088136271	2.949300E+01
342	  0.088336669	-7.167000E+00	  0.088336669	1.051230E+02	  0.088336669	2.843900E+01	  0.088336669	2.977400E+01
343	  0.088537075	-7.185000E+00	  0.088537075	1.044200E+02	  0.088537075	2.870100E+01	  0.088537075	3.005600E+01
344	  0.088737473	-7.208000E+00	  0.088737473	1.037240E+02	  0.088737473	2.898200E+01	  0.088737473	3.032200E+01
345	  0.088937871	-7.227000E+00	  0.088937871	1.029850E+02	  0.088937871	2.926700E+01	  0.088937871	3.061600E+01
346	  0.089138277	-7.255000E+00	  0.089138277	1.022730E+02	  0.089138277	2.957400E+01	  0.089138277	3.087900E+01
347	  0.089338675	-7.274000E+00	  0.089338675	1.015890E+02	  0.089338675	2.985300E+01	  0.089338675	3.114500E+01
348	  0.089539073	-7.303000E+00	  0.089539073	1.009220E+02	  0.089539073	3.015700E+01	  0.089539073	3.138300E+01
349	  0.089739479	-7.326000E+00	  0.089739479	1.002340E+02	  0.089739479	3.045400E+01	  0.089739479	3.164100E+01
350	  0.089939877	-7.348000E+00	  0.089939877	9.953200E+01	  0.089939877	3.075600E+01	  0.089939877	3.190900E+01
351	  0.090140276	-7.372000E+00	  0.090140276	9.885600E+01	  0.090140276	3.106000E+01	  0.090140276	3.215700E+01
352	  0.090340681	-7.393000E+00	  0.090340681	9.818100E+01	  0.090340681	3.136200E+01	  0.090340681	3.241000E+01
353	  0.090541080	-7.420000E+00	  0.090541080	9.747500E+01	  0.090541080	3.169400E+01	  0.090541080	3.266300E+01
354	  0.090741485	-7.443000E+00	  0.090741485	9.682700E+01	  0.090741485	3.199700E+01	  0.090741485	3.289800E+01
355	  0.090941884	-7.468000E+00	  0.090941884	9.614100E+01	  0.090941884	3.232600E+01	  0.090941884	3.314200E+01
356	  0.091142282	-7.496000E+00	  0.091142282	9.546500E+01	  0.091142282	3.266200E+01	  0.091142282	3.337400E+01
357	  0.091342688	-7.523000E+00	  0.091342688	9.481200E+01	  0.091342688	3.299300E+01	  0.091342688	3.359400E+01
358	  0.091543086	-7.551000E+00	  0.091543086	9.410700E+01	  0.091543086	3.335000E+01	  0.091543086	3.383400E+01
359	  0.091743484	-7.576000E+00	  0.091743484	9.347900E+01	  0.091743484	3.367200E+01	  0.091743484	3.404600E+01
360	  0.091943890	-7.606000E+00	  0.091943890	9.279200E+01	  0.091943890	3.403500E+01	  0.091943890	3.427000E+01
361	  0.092144288	-7.631000E+00	  0.092144288	9.213600E+01	  0.092144288	3.437800E+01	  0.092144288	3.448800E+01
362	  0.092344686	-7.657000E+00	  0.092344686	9.143900E+01	  0.092344686	3.474400E+01	  0.092344686	3.472100E+01
363	  0.092545092	-7.692000E+00	  0.092545092	9.077900E+01	  0.092545092	3.512500E+01	  0.092545092	3.491000E+01
364	  0.092745490	-7.719000E+00	  0.092745490	9.016000E+01	  0.092745490	3.546800E+01	  0.092745490	3.510200E+01
365	  0.092945889	-7.750000E+00	  0.092945889	8.951400E+01	  0.092945889	3.584000E+01	  0.092945889	3.528900E+01
366	  0.093146294	-7.783000E+00	  0.093146294	8.890200E+01	  0.093146294	3.620500E+01	  0.093146294	3.545500E+01
367	  0.093346693	-7.809000E+00	  0.093346693	8.826000E+01	  0.093346693	3.656600E+01	  0.093346693	3.565300E+01
368	  0.093547091	-7.846000E+00	  0.093547091	8.767600E+01	  0.093547091	3.693800E+01	  0.093547091	3.578700E+01
369	  0.093747497	-7.871000E+00	  0.093747497	8.702500E+01	  0.093747497	3.731100E+01	  0.093747497	3.598300E+01
370	  0.093947895	-7.904000E+00	  0.093947895	8.643400E+01	  0.093947895	3.768000E+01	  0.093947895	3.612800E+01
371	  0.094148301	-7.935000E+00	  0.094148301	8.578600E+01	  0.094148301	3.807700E+01	  0.094148301	3.629700E+01
372	  0.094348699	-7.969000E+00	  0.094348699	8.521400E+01	  0.094348699	3.844500E+01	  0.094348699	3.642700E+01
373	  0.094549097	-8.001000E+00	  0.094549097	8.460100E+01	  0.094549097	3.883300E+01	  0.094549097	3.657300E+01
374	  0.094749503	-8.032000E+00	  0.094749503	8.401400E+01	  0.094749503	3.921000E+01	  0.094749503	3.670700E+01
375	  0.094949901	-8.063000E+00	  0.094949901	8.342200E+01	  0.094949901	3.959200E+01	  0.094949901	3.684100E+01
376	  0.095150299	-8.090000E+00	  0.095150299	8.283700E+01	  0.095150299	3.996300E+01	  0.095150299	3.698200E+01
377	  0.095350705	-8.124000E+00	  0.095350705	8.225300E+01	  0.095350705	4.035500E+01	  0.095350705	3.709600E+01
378	  0.095551103	-8.151000E+00	  0.095551103	8.166200E+01	  0.095551103	4.073500E+01	  0.095551103	3.723200E+01
379	  0.095751502	-8.183000E+00	  0.095751502	8.108300E+01	  0.095751502	4.112400E+01	  0.095751502	3.734500E+01
380	  0.095951907	-8.213000E+00	  0.095951907	8.050900E+01	  0.095951907	4.150900E+01	  0.095951907	3.745800E+01
381	  0.096152306	-8.244000E+00	  0.096152306	7.995900E+01	  0.096152306	4.188600E+01	  0.096152306	3.755600E+01
382	  0.096352704	-8.276000E+00	  0.096352704	7.940300E+01	  0.096352704	4.227200E+01	  0.096352704	3.764700E+01
383	  0.096553110	-8.305000E+00	  0.096553110	7.884100E+01	  0.096553110	4.265600E+01	  0.096553110	3.774800E+01
384	  0.096753508	-8.334000E+00	  0.096753508	7.830500E+01	  0.096753508	4.302900E+01	  0.096753508	3.783500E+01
385	  0.096953906	-8.361000E+00	  0.096953906	7.777300E+01	  0.096953906	4.339900E+01	  0.096953906	3.792300E+01
386	  0.097154312	-8.392000E+00	  0.097154312	7.722500E+01	  0.097154312	4.378900E+01	  0.097154312	3.800100E+01
387	  0.097354710	-8.415000E+00	  0.097354710	7.670700E+01	  0.097354710	4.414500E+01	  0.097354710	3.809400E+01
388	  0.097555116	-8.449000E+00	  0.097555116	7.621400E+01	  0.097555116	4.451200E+01	  0.097555116	3.813500E+01
389	  0.097755514	-8.475000E+00	  0.097755514	7.569000E+01	  0.097755514	4.488200E+01	  0.097755514	3.821200E+01
390	  0.097955912	-8.507000E+00	  0.097955912	7.516700E+01	  0.097955912	4.526800E+01	  0.097955912	3.826100E+01
391	  0.098156318	-8.537000E+00	  0.098156318	7.467200E+01	  0.098156318	4.563500E+01	  0.098156318	3.830600E+01
392	  0.098356716	-8.560000E+00	  0.098356716	7.418200E+01	  0.098356716	4.598600E+01	  0.098356716	3.837100E+01
393	  0.098557115	-8.588000E+00	  0.098557115	7.367900E+01	  0.098557115	4.635500E+01	  0.098557115	3.842000E+01
394	  0.098757520	-8.616000E+00	  0.098757520	7.319300E+01	  0.098757520	4.671700E+01	  0.098757520	3.845900E+01
395	  0.098957919	-8.645000E+00	  0.098957919	7.271900E+01	  0.098957919	4.707700E+01	  0.098957919	3.848200E+01
396	  0.099158317	-8.673000E+00	  0.099158317	7.222200E+01	  0.099158317	4.744800E+01	  0.099158317	3.851700E+01
397	  0.099358723	-8.700000E+00	  0.099358723	7.173400E+01	  0.099358723	4.781300E+01	  0.099358723	3.855100E+01
398	  0.099559121	-8.732000E+00	  0.099559121	7.129800E+01	  0.099559121	4.815600E+01	  0.099559121	3.854400E+01
399	  0.099759519	-8.760000E+00	  0.099759519	7.082500E+01	  0.099759519	4.851800E+01	  0.099759519	3.855900E+01
400	  0.099959925	-8.782000E+00	  0.099959925	7.037200E+01	  0.099959925	4.885700E+01	  0.099959925	3.858900E+01
401	  0.100160323	-8.813000E+00	  0.100160323	6.990700E+01	  0.100160323	4.921900E+01	  0.100160323	3.858500E+01
402	  0.100360721	-8.838000E+00	  0.100360721	6.949300E+01	  0.100360721	4.954000E+01	  0.100360721	3.858700E+01
403	  0.100561127	-8.863000E+00	  0.100561127	6.900400E+01	  0.100561127	4.991100E+01	  0.100561127	3.860600E+01
404	  0.100761525	-8.888000E+00	  0.100761525	6.854800E+01	  0.100761525	5.026200E+01	  0.100761525	3.861300E+01
405	  0.100961931	-8.910000E+00	  0.100961931	6.811100E+01	  0.100961931	5.059500E+01	  0.100961931	3.862400E+01
406	  0.101162329	-8.939000E+00	  0.101162329	6.766900E+01	  0.101162329	5.094500E+01	  0.101162329	3.860200E+01
407	  0.101362728	-8.955000E+00	  0.101362728	6.726600E+01	  0.101362728	5.124800E+01	  0.101362728	3.862700E+01
408	  0.101563133	-8.989000E+00	  0.101563133	6.680400E+01	  0.101563133	5.162000E+01	  0.101563133	3.858100E+01
409	  0.101763532	-8.996000E+00	  0.101763532	6.642700E+01	  0.101763532	5.189400E+01	  0.101763532	3.863600E+01
410	  0.101963930	-9.021000E+00	  0.101963930	6.603800E+01	  0.101963930	5.220400E+01	  0.101963930	3.860600E+01
411	  0.102164328	-9.044000E+00	  0.102164328	6.554300E+01	  0.102164328	5.258700E+01	  0.102164328	3.860600E+01
412	  0.102364726	-9.061000E+00	  0.102364726	6.513100E+01	  0.102364726	5.290400E+01	  0.102364726	3.861100E+01
413	  0.102565125	-9.082000E+00	  0.102565125	6.471700E+01	  0.102565125	5.322700E+01	  0.102565125	3.859900E+01
414	  0.102765530	-9.099000E+00	  0.102765530	6.430500E+01	  0.102765530	5.354600E+01	  0.102765530	3.859900E+01
415	  0.102965929	-9.112000E+00	  0.102965929	6.393300E+01	  0.102965929	5.383300E+01	  0.102965929	3.861000E+01
416	  0.103166327	-9.122000E+00	  0.103166327	6.350600E+01	  0.103166327	5.415600E+01	  0.103166327	3.864000E+01
417	  0.103366733	-9.129000E+00	  0.103366733	6.308200E+01	  0.103366733	5.447500E+01	  0.103366733	3.868400E+01
418	  0.103567131	-9.137000E+00	  0.103567131	6.273200E+01	  0.103567131	5.474300E+01	  0.103567131	3.870700E+01
419	  0.103767529	-9.146000E+00	  0.103767529	6.226400E+01	  0.103767529	5.510000E+01	  0.103767529	3.874300E+01
420	  0.103967935	-9.153000E+00	  0.103967935	6.186900E+01	  0.103967935	5.540300E+01	  0.103967935	3.877500E+01
421	  0.104168333	-9.158000E+00	  0.104168333	6.146300E+01	  0.104168333	5.571300E+01	  0.104168333	3.881800E+01
422	  0.104368731	-9.164000E+00	  0.104368731	6.111400E+01	  0.104368731	5.598300E+01	  0.104368731	3.884200E+01
423	  0.104569137	-9.167000E+00	  0.104569137	6.064900E+01	  0.104569137	5.634100E+01	  0.104569137	3.889300E+01
424	  0.104769535	-9.165000E+00	  0.104769535	6.030800E+01	  0.104769535	5.660000E+01	  0.104769535	3.895600E+01
425	  0.104969934	-9.174000E+00	  0.104969934	5.985000E+01	  0.104969934	5.696300E+01	  0.104969934	3.897000E+01
426	  0.105170339	-9.164000E+00	  0.105170339	5.945900E+01	  0.105170339	5.725800E+01	  0.105170339	3.907600E+01
427	  0.105370738	-9.177000E+00	  0.105370738	5.904900E+01	  0.105370738	5.759000E+01	  0.105370738	3.906200E+01
428	  0.105571143	-9.178000E+00	  0.105571143	5.860100E+01	  0.105571143	5.794400E+01	  0.105571143	3.911000E+01
429	  0.105771542	-9.183000E+00	  0.105771542	5.816000E+01	  0.105771542	5.829800E+01	  0.105771542	3.913500E+01
430	  0.105971940	-9.183000E+00	  0.105971940	5.773800E+01	  0.105971940	5.863500E+01	  0.105971940	3.917900E+01
431	  0.106172346	-9.180000E+00	  0.106172346	5.726200E+01	  0.106172346	5.901600E+01	  0.106172346	3.924200E+01
432	  0.106372744	-9.177000E+00	  0.106372744	5.685400E+01	  0.106372744	5.934600E+01	  0.106372744	3.929500E+01
433	  0.106573142	-9.181000E+00	  0.106573142	5.640700E+01	  0.106573142	5.971300E+01	  0.106573142	3.931600E+01
434	  0.106773548	-9.175000E+00	  0.106773548	5.590900E+01	  0.106773548	6.011900E+01	  0.106773548	3.938600E+01
435	  0.106973946	-9.163000E+00	  0.106973946	5.546200E+01	  0.106973946	6.048400E+01	  0.106973946	3.948500E+01
436	  0.107174344	-9.169000E+00	  0.107174344	5.498100E+01	  0.107174344	6.089000E+01	  0.107174344	3.948100E+01
437	  0.107374750	-9.171000E+00	  0.107374750	5.442700E+01	  0.107374750	6.135800E+01	  0.107374750	3.950100E+01
438	  0.107575148	-9.161000E+00	  0.107575148	5.396700E+01	  0.107575148	6.174500E+01	  0.107575148	3.958000E+01
439	  0.107775547	-9.160000E+00	  0.107775547	5.345400E+01	  0.107775547	6.218400E+01	  0.107775547	3.960600E+01
440	  0.107975952	-9.151000E+00	  0.107975952	5.290300E+01	  0.107975952	6.265900E+01	  0.107975952	3.967300E+01
441	  0.108176351	-9.150000E+00	  0.108176351	5.240400E+01	  0.108176351	6.309300E+01	  0.108176351	3.969300E+01
442	  0.108376749	-9.143000E+00	  0.108376749	5.182700E+01	  0.108376749	6.359900E+01	  0.108376749	3.974000E+01
443	  0.108577155	-9.141000E+00	  0.108577155	5.136800E+01	  0.108577155	6.400500E+01	  0.108577155	3.975200E+01
444	  0.108777553	-9.133000E+00	  0.108777553	5.072900E+01	  0.108777553	6.457600E+01	  0.108777553	3.979400E+01
445	  0.108977959	-9.127000E+00	  0.108977959	5.011500E+01	  0.108977959	6.513000E+01	  0.108977959	3.981800E+01
446	  0.109178357	-9.123000E+00	  0.109178357	4.959200E+01	  0.109178357	6.560600E+01	  0.109178357	3.982200E+01
447	  0.109378755	-9.117000E+00	  0.109378755	4.906500E+01	  0.109378755	6.609100E+01	  0.109378755	3.983800E+01
448	  0.109579161	-9.094000E+00	  0.109579161	4.848300E+01	  0.109579161	6.663600E+01	  0.109579161	3.994300E+01
449	  0.109779559	-9.090000E+00	  0.109779559	4.785900E+01	  0.109779559	6.722100E+01	  0.109779559	3.992700E+01
450	  0.109979957	-9.077000E+00	  0.109979957	4.728100E+01	  0.109979957	6.777100E+01	  0.109979957	3.996200E+01
451	  0.110180363	-9.066000E+00	  0.110180363	4.667100E+01	  0.110180363	6.835700E+01	  0.110180363	3.997100E+01
452	  0.110380761	-9.057000E+00	  0.110380761	4.601300E+01	  0.110380761	6.899500E+01	  0.110380761	3.996000E+01
453	  0.110581160	-9.043000E+00	  0.110581160	4.543700E+01	  0.110581160	6.956200E+01	  0.110581160	3.997500E+01
454	  0.110781565	-9.033000E+00	  0.110781565	4.482700E+01	  0.110781565	7.016600E+01	  0.110781565	3.995900E+01
455	  0.110981964	-9.021000E+00	  0.110981964	4.421500E+01	  0.110981964	7.077900E+01	  0.110981964	3.994400E+01
456	  0.111182362	-9.012000E+00	  0.111182362	4.359500E+01	  0.111182362	7.140400E+01	  0.111182362	3.989900E+01
457	  0.111382768	-8.999000E+00	  0.111382768	4.300000E+01	  0.111382768	7.201300E+01	  0.111382768	3.987500E+01
458	  0.111583166	-8.990000E+00	  0.111583166	4.235000E+01	  0.111583166	7.268000E+01	  0.111583166	3.980500E+01
459	  0.111783572	-8.990000E+00	  0.111783572	4.168700E+01	  0.111783572	7.335000E+01	  0.111783572	3.965700E+01
460	  0.111983970	-8.971000E+00	  0.111983970	4.107900E+01	  0.111983970	7.400000E+01	  0.111983970	3.964000E+01
461	  0.112184368	-8.973000E+00	  0.112184368	4.039900E+01	  0.112184368	7.469500E+01	  0.112184368	3.945400E+01
462	  0.112384774	-8.966000E+00	  0.112384774	3.973800E+01	  0.112384774	7.538900E+01	  0.112384774	3.932100E+01
463	  0.112585172	-8.963000E+00	  0.112585172	3.907500E+01	  0.112585172	7.608300E+01	  0.112585172	3.914700E+01
464	  0.112785570	-8.958000E+00	  0.112785570	3.837200E+01	  0.112785570	7.682700E+01	  0.112785570	3.895900E+01
465	  0.112985976	-8.952000E+00	  0.112985976	3.769500E+01	  0.112985976	7.754900E+01	  0.112985976	3.876900E+01
466	  0.113186374	-8.956000E+00	  0.113186374	3.698400E+01	  0.113186374	7.828500E+01	  0.113186374	3.848100E+01
467	  0.113386773	-8.965000E+00	  0.113386773	3.622600E+01	  0.113386773	7.906000E+01	  0.113386773	3.812500E+01
468	  0.113587178	-8.966000E+00	  0.113587178	3.551600E+01	  0.113587178	7.980500E+01	  0.113587178	3.782500E+01
469	  0.113787577	-8.971000E+00	  0.113787577	3.473800E+01	  0.113787577	8.060900E+01	  0.113787577	3.744700E+01
470	  0.113987975	-8.975000E+00	  0.113987975	3.393000E+01	  0.113987975	8.145000E+01	  0.113987975	3.704400E+01
471	  0.114188381	-8.984000E+00	  0.114188381	3.319100E+01	  0.114188381	8.219600E+01	  0.114188381	3.661200E+01
472	  0.114388779	-8.997000E+00	  0.114388779	3.240800E+01	  0.114388779	8.297500E+01	  0.114388779	3.611800E+01
473	  0.114589177	-9.010000E+00	  0.114589177	3.155900E+01	  0.114589177	8.381300E+01	  0.114589177	3.555700E+01
474	  0.114789583	-9.020000E+00	  0.114789583	3.077400E+01	  0.114789583	8.458700E+01	  0.114789583	3.502900E+01
475	  0.114989981	-9.026000E+00	  0.114989981	2.988200E+01	  0.114989981	8.548100E+01	  0.114989981	3.443700E+01
476	  0.115190387	-9.040000E+00	  0.115190387	2.904400E+01	  0.115190387	8.627800E+01	  0.115190387	3.379900E+01
477	  0.115390785	-9.061000E+00	  0.115390785	2.816200E+01	  0.115390785	8.707900E+01	  0.115390785	3.306300E+01
478	  0.115591183	-9.074000E+00	  0.115591183	2.727900E+01	  0.115591183	8.789800E+01	  0.115591183	3.234600E+01
479	  0.115791589	-9.091000E+00	  0.115791589	2.632800E+01	  0.115791589	8.875200E+01	  0.115791589	3.152700E+01
480	  0.115991987	-9.105000E+00	  0.115991987	2.542500E+01	  0.115991987	8.955600E+01	  0.115991987	3.073100E+01
481	  0.116192386	-9.128000E+00	  0.116192386	2.448800E+01	  0.116192386	9.032500E+01	  0.116192386	2.982500E+01
482	  0.116392791	-9.141000E+00	  0.116392791	2.353500E+01	  0.116392791	9.113600E+01	  0.116392791	2.893300E+01
483	  0.116593190	-9.160000E+00	  0.116593190	2.258700E+01	  0.116593190	9.188500E+01	  0.116593190	2.798000E+01
484	  0.116793588	-9.188000E+00	  0.116793588	2.157500E+01	  0.116793588	9.261400E+01	  0.116793588	2.689200E+01
485	  0.116993994	-9.201000E+00	  0.116993994	2.055900E+01	  0.116993994	9.340200E+01	  0.116993994	2.585000E+01
486	  0.117194392	-9.222000E+00	  0.117194392	1.958400E+01	  0.117194392	9.407200E+01	  0.117194392	2.477300E+01
487	  0.117394790	-9.245000E+00	  0.117394790	1.859400E+01	  0.117394790	9.470800E+01	  0.117394790	2.364700E+01
488	  0.117595196	-9.277000E+00	  0.117595196	1.755200E+01	  0.117595196	9.527800E+01	  0.117595196	2.239200E+01
489	  0.117795594	-9.296000E+00	  0.117795594	1.654000E+01	  0.117795594	9.588300E+01	  0.117795594	2.121600E+01
490	  0.117995992	-9.328000E+00	  0.117995992	1.548600E+01	  0.117995992	9.637900E+01	  0.117995992	1.990900E+01
491	  0.118196398	-9.359000E+00	  0.118196398	1.442200E+01	  0.118196398	9.684000E+01	  0.118196398	1.857600E+01
492	  0.118396796	-9.389000E+00	  0.118396796	1.335700E+01	  0.118396796	9.725500E+01	  0.118396796	1.722800E+01
493	  0.118597202	-9.428000E+00	  0.118597202	1.226300E+01	  0.118597202	9.757100E+01	  0.118597202	1.580200E+01
494	  0.118797600	-9.472000E+00	  0.118797600	1.115400E+01	  0.118797600	9.779300E+01	  0.118797600	1.433300E+01
