! Anritsu VNA Master:             	Model: MS2036C/10/77
! SN:             	1601066
! /bd0/18may09/254.ns.m8.txt
! Existing Calibration Information:
! TYPE:             	Current Settings	Active Cal Settings
! TIME:             	05/09/2018 01:01:31 PM	05/09/2018 12:54:36 PM
! INTERNAL TEMP:    	58.5 C	58.3 C
! # POINTS:         	494	494
! START FREQ:       	20.000 MHz	20.000 MHz
! STOP FREQ:        	118.797 594 MHz	118.797 594 MHz
! SOURCE POWER:     	High	High
! IFBW:             	50 Hz	50 Hz
! AVG FACTOR:       	  1 	  1 
! REF PLANE 1:      	0 mm	0 mm
! REF PLANE 2:      	0 mm	0 mm
! CAL TYPE:         	Full S22	Full S22
! CAL METHOD:       	SOLT	SOLT
! CAL LINE TYPE:    	Coax	Coax
! DUT PORT 1:       	K-Conn(M)	K-Conn(M)
! DUT PORT 2:       	K-Conn(M)	K-Conn(M)
! CAL STATUS:       	OK: Accuracy High	--
! PROP-V:       	0.700
! CABLE LOSS:       	0.000 dB/m
! REF IMPEDANCE:       	50.0
! Trace Specific Parameters:	TR1	TR2	TR3	TR4
! TRACE.#.Y (GRAPH TYPE)	LOG MAG	PHASE	REAL IMPEDANCE	IMAGINARY IMPEDANCE
! TRACE.#.X 	FREQ.GHZ	FREQ.GHZ	FREQ.GHZ	FREQ.GHZ
! S-PARAMETER	S22	S22	S22	S22
! SMOOTH/APERTURE %	0	0	0	0
! WINDOW	NSL	NSL	NSL	NSL
! GATING	OFF	OFF	OFF	OFF
! FGTD	OFF	OFF	OFF	OFF
Marker Information per Trace:	TR1	TR2	TR3	TR4
!MK1	--	"MK1 TR2:  20.000 MHz,PH:-126.72°"	--	--
!MK2	--	--	"MK2 TR3:  70.100 200 MHz,Z:(16.513 ohm, -1.493 ohm)"	--
!MK3	--	--	--	--
!MK4	--	--	--	--
!MK5	--	--	--	--
!MK6	--	--	--	--
!MK7	--	--	--	--
!MK8	--	--	--	--
PNT	TR1.FREQ.GHZ	TR1.LOG MAG.dB	TR2.FREQ.GHZ	TR2.PHASE.deg	TR3.FREQ.GHZ	TR3.REAL IMPEDANCE.ohm	TR4.FREQ.GHZ	TR4.IMAGINARY IMPEDANCE.ohm
1	  0.020000000	-6.370000E-01	  0.020000000	-1.267150E+02	  0.020000000	2.294000E+00	  0.020000000	-2.504200E+01
2	  0.020200402	-6.400000E-01	  0.020200402	-1.281830E+02	  0.020200402	2.275000E+00	  0.020200402	-2.424600E+01
3	  0.020400802	-6.440000E-01	  0.020400802	-1.296620E+02	  0.020400802	2.262000E+00	  0.020400802	-2.345500E+01
4	  0.020601204	-6.480000E-01	  0.020601204	-1.311690E+02	  0.020601204	2.249000E+00	  0.020601204	-2.265800E+01
5	  0.020801604	-6.510000E-01	  0.020801604	-1.327160E+02	  0.020801604	2.232000E+00	  0.020801604	-2.185100E+01
6	  0.021002004	-6.520000E-01	  0.021002004	-1.342600E+02	  0.021002004	2.210000E+00	  0.021002004	-2.105400E+01
7	  0.021202406	-6.570000E-01	  0.021202406	-1.358160E+02	  0.021202406	2.202000E+00	  0.021202406	-2.026000E+01
8	  0.021402806	-6.590000E-01	  0.021402806	-1.373580E+02	  0.021402806	2.187000E+00	  0.021402806	-1.948200E+01
9	  0.021603208	-6.630000E-01	  0.021603208	-1.388980E+02	  0.021603208	2.175000E+00	  0.021603208	-1.871300E+01
10	  0.021803608	-6.660000E-01	  0.021803608	-1.404590E+02	  0.021803608	2.163000E+00	  0.021803608	-1.794100E+01
11	  0.022004008	-6.710000E-01	  0.022004008	-1.420120E+02	  0.022004008	2.161000E+00	  0.022004008	-1.718100E+01
12	  0.022204408	-6.790000E-01	  0.022204408	-1.435780E+02	  0.022204408	2.166000E+00	  0.022204408	-1.642100E+01
13	  0.022404809	-6.860000E-01	  0.022404809	-1.451810E+02	  0.022404809	2.170000E+00	  0.022404809	-1.565000E+01
14	  0.022605211	-6.870000E-01	  0.022605211	-1.467990E+02	  0.022605211	2.154000E+00	  0.022605211	-1.488000E+01
15	  0.022805611	-6.900000E-01	  0.022805611	-1.484160E+02	  0.022805611	2.146000E+00	  0.022805611	-1.411600E+01
16	  0.023006011	-6.950000E-01	  0.023006011	-1.500190E+02	  0.023006011	2.144000E+00	  0.023006011	-1.336500E+01
17	  0.023206413	-7.040000E-01	  0.023206413	-1.516170E+02	  0.023206413	2.154000E+00	  0.023206413	-1.262100E+01
18	  0.023406813	-7.100000E-01	  0.023406813	-1.532170E+02	  0.023406813	2.160000E+00	  0.023406813	-1.188200E+01
19	  0.023607215	-7.190000E-01	  0.023607215	-1.548230E+02	  0.023607215	2.173000E+00	  0.023607215	-1.114500E+01
20	  0.023807615	-7.270000E-01	  0.023807615	-1.564590E+02	  0.023807615	2.182000E+00	  0.023807615	-1.039900E+01
21	  0.024008015	-7.360000E-01	  0.024008015	-1.581060E+02	  0.024008015	2.196000E+00	  0.024008015	-9.652000E+00
22	  0.024208417	-7.450000E-01	  0.024208417	-1.597540E+02	  0.024208417	2.213000E+00	  0.024208417	-8.910000E+00
23	  0.024408817	-7.520000E-01	  0.024408817	-1.614270E+02	  0.024408817	2.221000E+00	  0.024408817	-8.159000E+00
24	  0.024609219	-7.580000E-01	  0.024609219	-1.630890E+02	  0.024609219	2.230000E+00	  0.024609219	-7.418000E+00
25	  0.024809619	-7.680000E-01	  0.024809619	-1.647580E+02	  0.024809619	2.251000E+00	  0.024809619	-6.676000E+00
26	  0.025010020	-7.770000E-01	  0.025010020	-1.664320E+02	  0.025010020	2.266000E+00	  0.025010020	-5.935000E+00
27	  0.025210422	-7.880000E-01	  0.025210422	-1.681270E+02	  0.025210422	2.291000E+00	  0.025210422	-5.188000E+00
28	  0.025410822	-7.970000E-01	  0.025410822	-1.698270E+02	  0.025410822	2.313000E+00	  0.025410822	-4.440000E+00
29	  0.025611224	-8.080000E-01	  0.025611224	-1.715390E+02	  0.025611224	2.337000E+00	  0.025611224	-3.690000E+00
30	  0.025811624	-8.190000E-01	  0.025811624	-1.732660E+02	  0.025811624	2.366000E+00	  0.025811624	-2.935000E+00
31	  0.026012026	-8.280000E-01	  0.026012026	-1.750170E+02	  0.026012026	2.387000E+00	  0.026012026	-2.170000E+00
32	  0.026212426	-8.400000E-01	  0.026212426	-1.767660E+02	  0.026212426	2.418000E+00	  0.026212426	-1.408000E+00
33	  0.026412826	-8.530000E-01	  0.026412826	-1.785300E+02	  0.026412826	2.454000E+00	  0.026412826	-6.390000E-01
34	  0.026613226	-8.660000E-01	  0.026613226	1.797000E+02	  0.026613226	2.492000E+00	  0.026613226	1.300000E-01
35	  0.026813626	-8.810000E-01	  0.026813626	1.779180E+02	  0.026813626	2.534000E+00	  0.026813626	9.060000E-01
36	  0.027014028	-8.960000E-01	  0.027014028	1.761250E+02	  0.027014028	2.581000E+00	  0.027014028	1.686000E+00
37	  0.027214428	-9.100000E-01	  0.027214428	1.743240E+02	  0.027214428	2.623000E+00	  0.027214428	2.471000E+00
38	  0.027414829	-9.260000E-01	  0.027414829	1.725220E+02	  0.027414829	2.676000E+00	  0.027414829	3.257000E+00
39	  0.027615231	-9.430000E-01	  0.027615231	1.706980E+02	  0.027615231	2.731000E+00	  0.027615231	4.055000E+00
40	  0.027815631	-9.610000E-01	  0.027815631	1.688800E+02	  0.027815631	2.789000E+00	  0.027815631	4.852000E+00
41	  0.028016033	-9.770000E-01	  0.028016033	1.670280E+02	  0.028016033	2.848000E+00	  0.028016033	5.665000E+00
42	  0.028216433	-9.960000E-01	  0.028216433	1.651740E+02	  0.028216433	2.913000E+00	  0.028216433	6.483000E+00
43	  0.028416833	-1.017000E+00	  0.028416833	1.633250E+02	  0.028416833	2.986000E+00	  0.028416833	7.301000E+00
44	  0.028617235	-1.037000E+00	  0.028617235	1.614480E+02	  0.028617235	3.060000E+00	  0.028617235	8.136000E+00
45	  0.028817635	-1.056000E+00	  0.028817635	1.595940E+02	  0.028817635	3.136000E+00	  0.028817635	8.964000E+00
46	  0.029018037	-1.080000E+00	  0.029018037	1.577250E+02	  0.029018037	3.224000E+00	  0.029018037	9.803000E+00
47	  0.029218437	-1.103000E+00	  0.029218437	1.558490E+02	  0.029218437	3.316000E+00	  0.029218437	1.065100E+01
48	  0.029418837	-1.128000E+00	  0.029418837	1.539490E+02	  0.029418837	3.415000E+00	  0.029418837	1.151500E+01
49	  0.029619239	-1.153000E+00	  0.029619239	1.520420E+02	  0.029619239	3.518000E+00	  0.029619239	1.238800E+01
50	  0.029819639	-1.179000E+00	  0.029819639	1.501330E+02	  0.029819639	3.628000E+00	  0.029819639	1.326900E+01
51	  0.030020041	-1.206000E+00	  0.030020041	1.482150E+02	  0.030020041	3.745000E+00	  0.030020041	1.416100E+01
52	  0.030220442	-1.231000E+00	  0.030220442	1.462810E+02	  0.030220442	3.861000E+00	  0.030220442	1.506900E+01
53	  0.030420844	-1.259000E+00	  0.030420844	1.443770E+02	  0.030420844	3.988000E+00	  0.030420844	1.597100E+01
54	  0.030621244	-1.288000E+00	  0.030621244	1.424590E+02	  0.030621244	4.125000E+00	  0.030621244	1.688800E+01
55	  0.030821642	-1.319000E+00	  0.030821642	1.405320E+02	  0.030821642	4.275000E+00	  0.030821642	1.781900E+01
56	  0.031022044	-1.350000E+00	  0.031022044	1.385830E+02	  0.031022044	4.431000E+00	  0.031022044	1.877100E+01
57	  0.031222444	-1.374000E+00	  0.031222444	1.366490E+02	  0.031222444	4.567000E+00	  0.031222444	1.972800E+01
58	  0.031422846	-1.408000E+00	  0.031422846	1.346640E+02	  0.031422846	4.744000E+00	  0.031422846	2.072100E+01
59	  0.031623244	-1.440000E+00	  0.031623244	1.326770E+02	  0.031623244	4.922000E+00	  0.031623244	2.172900E+01
60	  0.031823646	-1.474000E+00	  0.031823646	1.306990E+02	  0.031823646	5.116000E+00	  0.031823646	2.274600E+01
61	  0.032024048	-1.508000E+00	  0.032024048	1.286960E+02	  0.032024048	5.320000E+00	  0.032024048	2.379000E+01
62	  0.032224450	-1.545000E+00	  0.032224450	1.267160E+02	  0.032224450	5.543000E+00	  0.032224450	2.483600E+01
63	  0.032424849	-1.580000E+00	  0.032424849	1.247020E+02	  0.032424849	5.767000E+00	  0.032424849	2.591900E+01
64	  0.032625251	-1.615000E+00	  0.032625251	1.226770E+02	  0.032625251	6.007000E+00	  0.032625251	2.702500E+01
65	  0.032825653	-1.653000E+00	  0.032825653	1.206410E+02	  0.032825653	6.265000E+00	  0.032825653	2.815600E+01
66	  0.033026051	-1.685000E+00	  0.033026051	1.185960E+02	  0.033026051	6.520000E+00	  0.033026051	2.931500E+01
67	  0.033226453	-1.723000E+00	  0.033226453	1.165440E+02	  0.033226453	6.809000E+00	  0.033226453	3.049700E+01
68	  0.033426855	-1.760000E+00	  0.033426855	1.145060E+02	  0.033426855	7.107000E+00	  0.033426855	3.169500E+01
69	  0.033627257	-1.797000E+00	  0.033627257	1.124520E+02	  0.033627257	7.426000E+00	  0.033627257	3.292600E+01
70	  0.033827655	-1.836000E+00	  0.033827655	1.104160E+02	  0.033827655	7.768000E+00	  0.033827655	3.417100E+01
71	  0.034028057	-1.874000E+00	  0.034028057	1.083590E+02	  0.034028057	8.124000E+00	  0.034028057	3.545700E+01
72	  0.034228459	-1.915000E+00	  0.034228459	1.063020E+02	  0.034228459	8.516000E+00	  0.034228459	3.677000E+01
73	  0.034428857	-1.957000E+00	  0.034428857	1.042450E+02	  0.034428857	8.936000E+00	  0.034428857	3.811200E+01
74	  0.034629259	-1.996000E+00	  0.034629259	1.021470E+02	  0.034629259	9.375000E+00	  0.034629259	3.951600E+01
75	  0.034829661	-2.038000E+00	  0.034829661	1.000900E+02	  0.034829661	9.844000E+00	  0.034829661	4.092400E+01
76	  0.035030060	-2.084000E+00	  0.035030060	9.799300E+01	  0.035030060	1.037400E+01	  0.035030060	4.239200E+01
77	  0.035230462	-2.127000E+00	  0.035230462	9.592500E+01	  0.035230462	1.091300E+01	  0.035230462	4.388000E+01
78	  0.035430863	-2.174000E+00	  0.035430863	9.383700E+01	  0.035430863	1.151600E+01	  0.035430863	4.541700E+01
79	  0.035631265	-2.221000E+00	  0.035631265	9.175400E+01	  0.035631265	1.215500E+01	  0.035631265	4.699200E+01
80	  0.035831664	-2.269000E+00	  0.035831664	8.966100E+01	  0.035831664	1.284900E+01	  0.035831664	4.861700E+01
81	  0.036032066	-2.314000E+00	  0.036032066	8.757900E+01	  0.036032066	1.357200E+01	  0.036032066	5.028200E+01
82	  0.036232468	-2.361000E+00	  0.036232468	8.550200E+01	  0.036232468	1.435500E+01	  0.036232468	5.198900E+01
83	  0.036432866	-2.412000E+00	  0.036432866	8.339800E+01	  0.036432866	1.522500E+01	  0.036432866	5.376200E+01
84	  0.036633268	-2.462000E+00	  0.036633268	8.132000E+01	  0.036633268	1.614700E+01	  0.036633268	5.556500E+01
85	  0.036833670	-2.514000E+00	  0.036833670	7.921400E+01	  0.036833670	1.716200E+01	  0.036833670	5.744300E+01
86	  0.037034072	-2.566000E+00	  0.037034072	7.711600E+01	  0.037034072	1.826000E+01	  0.037034072	5.936700E+01
87	  0.037234470	-2.618000E+00	  0.037234470	7.500900E+01	  0.037234470	1.943800E+01	  0.037234470	6.136200E+01
88	  0.037434869	-2.669000E+00	  0.037434869	7.291000E+01	  0.037434869	2.071100E+01	  0.037434869	6.340600E+01
89	  0.037635271	-2.726000E+00	  0.037635271	7.078000E+01	  0.037635271	2.214300E+01	  0.037635271	6.552900E+01
90	  0.037835669	-2.790000E+00	  0.037835669	6.865900E+01	  0.037835669	2.374400E+01	  0.037835669	6.767800E+01
91	  0.038036071	-2.853000E+00	  0.038036071	6.660200E+01	  0.038036071	2.544000E+01	  0.038036071	6.980800E+01
92	  0.038236473	-2.907000E+00	  0.038236473	6.452200E+01	  0.038236473	2.722400E+01	  0.038236473	7.205700E+01
93	  0.038436871	-2.962000E+00	  0.038436871	6.243100E+01	  0.038436871	2.917600E+01	  0.038436871	7.437600E+01
94	  0.038637273	-3.016000E+00	  0.038637273	6.035000E+01	  0.038637273	3.128800E+01	  0.038637273	7.674200E+01
95	  0.038837675	-3.068000E+00	  0.038837675	5.826100E+01	  0.038837675	3.358400E+01	  0.038837675	7.918200E+01
96	  0.039038073	-3.122000E+00	  0.039038073	5.616800E+01	  0.039038073	3.610600E+01	  0.039038073	8.167100E+01
97	  0.039238475	-3.173000E+00	  0.039238475	5.408400E+01	  0.039238475	3.883800E+01	  0.039238475	8.420500E+01
98	  0.039438877	-3.228000E+00	  0.039438877	5.202800E+01	  0.039438877	4.182800E+01	  0.039438877	8.670300E+01
99	  0.039639279	-3.280000E+00	  0.039639279	4.996100E+01	  0.039639279	4.509100E+01	  0.039639279	8.925400E+01
100	  0.039839678	-3.333000E+00	  0.039839678	4.787300E+01	  0.039839678	4.869400E+01	  0.039839678	9.184300E+01
101	  0.040040080	-3.383000E+00	  0.040040080	4.579300E+01	  0.040040080	5.262200E+01	  0.040040080	9.441700E+01
102	  0.040240481	-3.433000E+00	  0.040240481	4.371700E+01	  0.040240481	5.691000E+01	  0.040240481	9.695900E+01
103	  0.040440880	-3.485000E+00	  0.040440880	4.166600E+01	  0.040440880	6.159200E+01	  0.040440880	9.934800E+01
104	  0.040641282	-3.534000E+00	  0.040641282	3.962900E+01	  0.040641282	6.665300E+01	  0.040641282	1.016420E+02
105	  0.040841684	-3.584000E+00	  0.040841684	3.760400E+01	  0.040841684	7.216100E+01	  0.040841684	1.037340E+02
106	  0.041042086	-3.635000E+00	  0.041042086	3.558300E+01	  0.041042086	7.817200E+01	  0.041042086	1.055550E+02
107	  0.041242484	-3.684000E+00	  0.041242484	3.356100E+01	  0.041242484	8.468300E+01	  0.041242484	1.071210E+02
108	  0.041442886	-3.735000E+00	  0.041442886	3.153600E+01	  0.041442886	9.176800E+01	  0.041442886	1.082470E+02
109	  0.041643288	-3.779000E+00	  0.041643288	2.949900E+01	  0.041643288	9.941600E+01	  0.041643288	1.090360E+02
110	  0.041843686	-3.829000E+00	  0.041843686	2.747600E+01	  0.041843686	1.076010E+02	  0.041843686	1.090350E+02
111	  0.042044088	-3.875000E+00	  0.042044088	2.547400E+01	  0.042044088	1.161990E+02	  0.042044088	1.083720E+02
112	  0.042244490	-3.923000E+00	  0.042244490	2.346500E+01	  0.042244490	1.252850E+02	  0.042244490	1.067600E+02
113	  0.042444889	-3.971000E+00	  0.042444889	2.149300E+01	  0.042444889	1.345380E+02	  0.042444889	1.041420E+02
114	  0.042645290	-4.020000E+00	  0.042645290	1.949700E+01	  0.042645290	1.441070E+02	  0.042645290	1.002940E+02
115	  0.042845692	-4.069000E+00	  0.042845692	1.753300E+01	  0.042845692	1.535180E+02	  0.042845692	9.519200E+01
116	  0.043046094	-4.115000E+00	  0.043046094	1.555100E+01	  0.043046094	1.628470E+02	  0.043046094	8.877800E+01
117	  0.043246493	-4.162000E+00	  0.043246493	1.357000E+01	  0.043246493	1.716840E+02	  0.043246493	8.092000E+01
118	  0.043446895	-4.205000E+00	  0.043446895	1.160800E+01	  0.043446895	1.797770E+02	  0.043446895	7.186800E+01
119	  0.043647297	-4.249000E+00	  0.043647297	9.643000E+00	  0.043647297	1.868260E+02	  0.043647297	6.148600E+01
120	  0.043847695	-4.293000E+00	  0.043847695	7.704000E+00	  0.043847695	1.924590E+02	  0.043847695	5.012500E+01
121	  0.044048097	-4.338000E+00	  0.044048097	5.744000E+00	  0.044048097	1.965890E+02	  0.044048097	3.780000E+01
122	  0.044248499	-4.381000E+00	  0.044248499	3.811000E+00	  0.044248499	1.990310E+02	  0.044248499	2.514800E+01
123	  0.044448901	-4.425000E+00	  0.044448901	1.906000E+00	  0.044448901	1.996530E+02	  0.044448901	1.248700E+01
124	  0.044649299	-4.467000E+00	  0.044649299	-1.900000E-02	  0.044649299	1.986980E+02	  0.044649299	-1.250000E-01
125	  0.044849701	-4.507000E+00	  0.044849701	-1.925000E+00	  0.044849701	1.961920E+02	  0.044849701	-1.214700E+01
126	  0.045050103	-4.546000E+00	  0.045050103	-3.833000E+00	  0.045050103	1.923200E+02	  0.045050103	-2.347700E+01
127	  0.045250501	-4.582000E+00	  0.045250501	-5.723000E+00	  0.045250501	1.873460E+02	  0.045250501	-3.381700E+01
128	  0.045450903	-4.620000E+00	  0.045450903	-7.614000E+00	  0.045450903	1.813610E+02	  0.045450903	-4.311300E+01
129	  0.045651305	-4.658000E+00	  0.045651305	-9.507000E+00	  0.045651305	1.746050E+02	  0.045651305	-5.127600E+01
130	  0.045851704	-4.692000E+00	  0.045851704	-1.137300E+01	  0.045851704	1.675790E+02	  0.045851704	-5.829600E+01
131	  0.046052102	-4.725000E+00	  0.046052102	-1.323000E+01	  0.046052102	1.602740E+02	  0.046052102	-6.421100E+01
132	  0.046252504	-4.762000E+00	  0.046252504	-1.505200E+01	  0.046252504	1.528970E+02	  0.046252504	-6.891700E+01
133	  0.046452906	-4.798000E+00	  0.046452906	-1.685900E+01	  0.046452906	1.456110E+02	  0.046452906	-7.269400E+01
134	  0.046653304	-4.831000E+00	  0.046653304	-1.868200E+01	  0.046653304	1.384390E+02	  0.046653304	-7.575900E+01
135	  0.046853706	-4.863000E+00	  0.046853706	-2.050500E+01	  0.046853706	1.314700E+02	  0.046853706	-7.810800E+01
136	  0.047054108	-4.896000E+00	  0.047054108	-2.229700E+01	  0.047054108	1.248400E+02	  0.047054108	-7.972400E+01
137	  0.047254506	-4.927000E+00	  0.047254506	-2.411600E+01	  0.047254506	1.184330E+02	  0.047254506	-8.089500E+01
138	  0.047454908	-4.954000E+00	  0.047454908	-2.590600E+01	  0.047454908	1.124390E+02	  0.047454908	-8.163100E+01
139	  0.047655310	-4.984000E+00	  0.047655310	-2.767500E+01	  0.047655310	1.068070E+02	  0.047655310	-8.187600E+01
140	  0.047855709	-5.013000E+00	  0.047855709	-2.941800E+01	  0.047855709	1.015620E+02	  0.047855709	-8.180600E+01
141	  0.048056111	-5.046000E+00	  0.048056111	-3.117000E+01	  0.048056111	9.659300E+01	  0.048056111	-8.139700E+01
142	  0.048256513	-5.072000E+00	  0.048256513	-3.289600E+01	  0.048256513	9.199000E+01	  0.048256513	-8.088300E+01
143	  0.048456915	-5.101000E+00	  0.048456915	-3.462800E+01	  0.048456915	8.765000E+01	  0.048456915	-8.010800E+01
144	  0.048657313	-5.128000E+00	  0.048657313	-3.634600E+01	  0.048657313	8.360500E+01	  0.048657313	-7.923900E+01
145	  0.048857715	-5.152000E+00	  0.048857715	-3.808100E+01	  0.048857715	7.976600E+01	  0.048857715	-7.826600E+01
146	  0.049058117	-5.176000E+00	  0.049058117	-3.980300E+01	  0.049058117	7.619300E+01	  0.049058117	-7.718300E+01
147	  0.049258515	-5.202000E+00	  0.049258515	-4.149300E+01	  0.049258515	7.290900E+01	  0.049258515	-7.601400E+01
148	  0.049458917	-5.225000E+00	  0.049458917	-4.318500E+01	  0.049458917	6.980900E+01	  0.049458917	-7.482300E+01
149	  0.049659319	-5.255000E+00	  0.049659319	-4.486500E+01	  0.049659319	6.695100E+01	  0.049659319	-7.349800E+01
150	  0.049859721	-5.274000E+00	  0.049859721	-4.656600E+01	  0.049859721	6.419100E+01	  0.049859721	-7.224300E+01
151	  0.050060119	-5.301000E+00	  0.050060119	-4.821200E+01	  0.050060119	6.171600E+01	  0.050060119	-7.091300E+01
152	  0.050260521	-5.321000E+00	  0.050260521	-4.989200E+01	  0.050260521	5.931000E+01	  0.050260521	-6.961000E+01
153	  0.050460923	-5.341000E+00	  0.050460923	-5.155400E+01	  0.050460923	5.707300E+01	  0.050460923	-6.829900E+01
154	  0.050661322	-5.357000E+00	  0.050661322	-5.320700E+01	  0.050661322	5.495800E+01	  0.050661322	-6.702300E+01
155	  0.050861724	-5.374000E+00	  0.050861724	-5.485700E+01	  0.050861724	5.297600E+01	  0.050861724	-6.572800E+01
156	  0.051062126	-5.392000E+00	  0.051062126	-5.649100E+01	  0.051062126	5.112700E+01	  0.051062126	-6.444000E+01
157	  0.051262524	-5.410000E+00	  0.051262524	-5.810600E+01	  0.051262524	4.940300E+01	  0.051262524	-6.316700E+01
158	  0.051462926	-5.428000E+00	  0.051462926	-5.969600E+01	  0.051462926	4.780000E+01	  0.051462926	-6.191700E+01
159	  0.051663328	-5.446000E+00	  0.051663328	-6.130200E+01	  0.051663328	4.626600E+01	  0.051663328	-6.066600E+01
160	  0.051863730	-5.461000E+00	  0.051863730	-6.287800E+01	  0.051863730	4.483300E+01	  0.051863730	-5.946000E+01
161	  0.052064128	-5.473000E+00	  0.052064128	-6.448900E+01	  0.052064128	4.342400E+01	  0.052064128	-5.826200E+01
162	  0.052264530	-5.482000E+00	  0.052264530	-6.605400E+01	  0.052264530	4.211900E+01	  0.052264530	-5.711800E+01
163	  0.052464932	-5.497000E+00	  0.052464932	-6.760600E+01	  0.052464932	4.091500E+01	  0.052464932	-5.596300E+01
164	  0.052665330	-5.507000E+00	  0.052665330	-6.914700E+01	  0.052665330	3.976100E+01	  0.052665330	-5.484600E+01
165	  0.052865732	-5.518000E+00	  0.052865732	-7.068100E+01	  0.052865732	3.866800E+01	  0.052865732	-5.374900E+01
166	  0.053066134	-5.533000E+00	  0.053066134	-7.219100E+01	  0.053066134	3.766500E+01	  0.053066134	-5.265700E+01
167	  0.053266536	-5.546000E+00	  0.053266536	-7.370900E+01	  0.053266536	3.669800E+01	  0.053266536	-5.158100E+01
168	  0.053466935	-5.556000E+00	  0.053466935	-7.523300E+01	  0.053466935	3.575600E+01	  0.053466935	-5.053000E+01
169	  0.053667337	-5.569000E+00	  0.053667337	-7.670800E+01	  0.053667337	3.490200E+01	  0.053667337	-4.951200E+01
170	  0.053867739	-5.580000E+00	  0.053867739	-7.819600E+01	  0.053867739	3.407300E+01	  0.053867739	-4.850300E+01
171	  0.054068137	-5.588000E+00	  0.054068137	-7.969100E+01	  0.054068137	3.326400E+01	  0.054068137	-4.751500E+01
172	  0.054268539	-5.599000E+00	  0.054268539	-8.113700E+01	  0.054268539	3.252700E+01	  0.054268539	-4.656100E+01
173	  0.054468941	-5.612000E+00	  0.054468941	-8.260900E+01	  0.054468941	3.181700E+01	  0.054468941	-4.559600E+01
174	  0.054669335	-5.625000E+00	  0.054669335	-8.405900E+01	  0.054669335	3.115100E+01	  0.054669335	-4.465600E+01
175	  0.054869737	-5.637000E+00	  0.054869737	-8.550200E+01	  0.054869737	3.051400E+01	  0.054869737	-4.373500E+01
176	  0.055070139	-5.649000E+00	  0.055070139	-8.691900E+01	  0.055070139	2.991600E+01	  0.055070139	-4.284300E+01
177	  0.055270538	-5.659000E+00	  0.055270538	-8.833900E+01	  0.055270538	2.933400E+01	  0.055270538	-4.196500E+01
178	  0.055470940	-5.670000E+00	  0.055470940	-8.974800E+01	  0.055470940	2.878300E+01	  0.055470940	-4.110400E+01
179	  0.055671342	-5.679000E+00	  0.055671342	-9.119400E+01	  0.055671342	2.823300E+01	  0.055671342	-4.023600E+01
180	  0.055871744	-5.688000E+00	  0.055871744	-9.261000E+01	  0.055871744	2.771600E+01	  0.055871744	-3.939700E+01
181	  0.056072142	-5.698000E+00	  0.056072142	-9.402500E+01	  0.056072142	2.722300E+01	  0.056072142	-3.856700E+01
182	  0.056272544	-5.706000E+00	  0.056272544	-9.541900E+01	  0.056272544	2.675200E+01	  0.056272544	-3.776300E+01
183	  0.056472946	-5.718000E+00	  0.056472946	-9.679400E+01	  0.056472946	2.632100E+01	  0.056472946	-3.696900E+01
184	  0.056673344	-5.724000E+00	  0.056673344	-9.818800E+01	  0.056673344	2.587900E+01	  0.056673344	-3.618700E+01
185	  0.056873746	-5.736000E+00	  0.056873746	-9.954100E+01	  0.056873746	2.548500E+01	  0.056873746	-3.542600E+01
186	  0.057074148	-5.744000E+00	  0.057074148	-1.009120E+02	  0.057074148	2.509200E+01	  0.057074148	-3.466900E+01
187	  0.057274550	-5.750000E+00	  0.057274550	-1.022880E+02	  0.057274550	2.470300E+01	  0.057274550	-3.392300E+01
188	  0.057474948	-5.756000E+00	  0.057474948	-1.036580E+02	  0.057474948	2.433100E+01	  0.057474948	-3.318800E+01
189	  0.057675350	-5.761000E+00	  0.057675350	-1.050110E+02	  0.057675350	2.397200E+01	  0.057675350	-3.247300E+01
190	  0.057875752	-5.767000E+00	  0.057875752	-1.063550E+02	  0.057875752	2.363200E+01	  0.057875752	-3.176700E+01
191	  0.058076151	-5.776000E+00	  0.058076151	-1.076920E+02	  0.058076151	2.331900E+01	  0.058076151	-3.106700E+01
192	  0.058276553	-5.781000E+00	  0.058276553	-1.090070E+02	  0.058276553	2.300900E+01	  0.058276553	-3.039100E+01
193	  0.058476955	-5.782000E+00	  0.058476955	-1.103030E+02	  0.058476955	2.270200E+01	  0.058476955	-2.973700E+01
194	  0.058677353	-5.787000E+00	  0.058677353	-1.116180E+02	  0.058677353	2.241600E+01	  0.058677353	-2.907400E+01
195	  0.058877755	-5.791000E+00	  0.058877755	-1.129290E+02	  0.058877755	2.213600E+01	  0.058877755	-2.842000E+01
196	  0.059078157	-5.795000E+00	  0.059078157	-1.142000E+02	  0.059078157	2.187100E+01	  0.059078157	-2.779300E+01
197	  0.059278559	-5.793000E+00	  0.059278559	-1.154780E+02	  0.059278559	2.160200E+01	  0.059278559	-2.717400E+01
198	  0.059478957	-5.794000E+00	  0.059478957	-1.167580E+02	  0.059478957	2.134600E+01	  0.059478957	-2.655600E+01
199	  0.059679359	-5.800000E+00	  0.059679359	-1.180280E+02	  0.059679359	2.111800E+01	  0.059679359	-2.594200E+01
200	  0.059879761	-5.805000E+00	  0.059879761	-1.192590E+02	  0.059879761	2.090300E+01	  0.059879761	-2.535200E+01
201	  0.060080159	-5.810000E+00	  0.060080159	-1.205170E+02	  0.060080159	2.068700E+01	  0.060080159	-2.475500E+01
202	  0.060280561	-5.813000E+00	  0.060280561	-1.217480E+02	  0.060280561	2.048100E+01	  0.060280561	-2.417600E+01
203	  0.060480963	-5.820000E+00	  0.060480963	-1.229800E+02	  0.060480963	2.029400E+01	  0.060480963	-2.359700E+01
204	  0.060681365	-5.823000E+00	  0.060681365	-1.241960E+02	  0.060681365	2.010200E+01	  0.060681365	-2.303400E+01
205	  0.060881764	-5.825000E+00	  0.060881764	-1.253990E+02	  0.060881764	1.991600E+01	  0.060881764	-2.248300E+01
206	  0.061082166	-5.829000E+00	  0.061082166	-1.266070E+02	  0.061082166	1.974300E+01	  0.061082166	-2.193100E+01
207	  0.061282568	-5.834000E+00	  0.061282568	-1.278180E+02	  0.061282568	1.957700E+01	  0.061282568	-2.138000E+01
208	  0.061482966	-5.840000E+00	  0.061482966	-1.290330E+02	  0.061482966	1.942000E+01	  0.061482966	-2.083000E+01
209	  0.061683368	-5.843000E+00	  0.061683368	-1.302070E+02	  0.061683368	1.926700E+01	  0.061683368	-2.030500E+01
210	  0.061883770	-5.847000E+00	  0.061883770	-1.314040E+02	  0.061883770	1.911900E+01	  0.061883770	-1.977200E+01
211	  0.062084168	-5.854000E+00	  0.062084168	-1.325840E+02	  0.062084168	1.898700E+01	  0.062084168	-1.924800E+01
212	  0.062284570	-5.862000E+00	  0.062284570	-1.337610E+02	  0.062284570	1.886100E+01	  0.062284570	-1.872700E+01
213	  0.062484972	-5.855000E+00	  0.062484972	-1.349070E+02	  0.062484972	1.870100E+01	  0.062484972	-1.823500E+01
214	  0.062685370	-5.859000E+00	  0.062685370	-1.360790E+02	  0.062685370	1.857700E+01	  0.062685370	-1.772500E+01
215	  0.062885776	-5.862000E+00	  0.062885776	-1.372420E+02	  0.062885776	1.845400E+01	  0.062885776	-1.722300E+01
216	  0.063086174	-5.867000E+00	  0.063086174	-1.384250E+02	  0.063086174	1.833900E+01	  0.063086174	-1.671400E+01
217	  0.063286573	-5.868000E+00	  0.063286573	-1.395870E+02	  0.063286573	1.821800E+01	  0.063286573	-1.621900E+01
218	  0.063486971	-5.875000E+00	  0.063486971	-1.407340E+02	  0.063486971	1.812200E+01	  0.063486971	-1.572900E+01
219	  0.063687377	-5.874000E+00	  0.063687377	-1.418760E+02	  0.063687377	1.800700E+01	  0.063687377	-1.524900E+01
220	  0.063887775	-5.875000E+00	  0.063887775	-1.430150E+02	  0.063887775	1.790400E+01	  0.063887775	-1.477000E+01
221	  0.064088173	-5.877000E+00	  0.064088173	-1.441820E+02	  0.064088173	1.780500E+01	  0.064088173	-1.428200E+01
222	  0.064288579	-5.881000E+00	  0.064288579	-1.453140E+02	  0.064288579	1.771600E+01	  0.064288579	-1.380900E+01
223	  0.064488977	-5.881000E+00	  0.064488977	-1.464540E+02	  0.064488977	1.762100E+01	  0.064488977	-1.333700E+01
224	  0.064689375	-5.884000E+00	  0.064689375	-1.475840E+02	  0.064689375	1.753900E+01	  0.064689375	-1.286900E+01
225	  0.064889781	-5.888000E+00	  0.064889781	-1.487160E+02	  0.064889781	1.746000E+01	  0.064889781	-1.240300E+01
226	  0.065090179	-5.890000E+00	  0.065090179	-1.498180E+02	  0.065090179	1.738500E+01	  0.065090179	-1.195100E+01
227	  0.065290578	-5.892000E+00	  0.065290578	-1.509200E+02	  0.065290578	1.731100E+01	  0.065290578	-1.150000E+01
228	  0.065490983	-5.888000E+00	  0.065490983	-1.520460E+02	  0.065490983	1.722500E+01	  0.065490983	-1.104400E+01
229	  0.065691382	-5.888000E+00	  0.065691382	-1.531510E+02	  0.065691382	1.715500E+01	  0.065691382	-1.059600E+01
230	  0.065891780	-5.892000E+00	  0.065891780	-1.542410E+02	  0.065891780	1.709600E+01	  0.065891780	-1.015500E+01
231	  0.066092186	-5.891000E+00	  0.066092186	-1.553050E+02	  0.066092186	1.703000E+01	  0.066092186	-9.726000E+00
232	  0.066292584	-5.891000E+00	  0.066292584	-1.563900E+02	  0.066292584	1.697000E+01	  0.066292584	-9.290000E+00
233	  0.066492982	-5.892000E+00	  0.066492982	-1.574800E+02	  0.066492982	1.691400E+01	  0.066492982	-8.853000E+00
234	  0.066693388	-5.897000E+00	  0.066693388	-1.585360E+02	  0.066693388	1.687200E+01	  0.066693388	-8.430000E+00
235	  0.066893786	-5.897000E+00	  0.066893786	-1.595870E+02	  0.066893786	1.682200E+01	  0.066893786	-8.011000E+00
236	  0.067094192	-5.900000E+00	  0.067094192	-1.606470E+02	  0.067094192	1.678200E+01	  0.067094192	-7.589000E+00
237	  0.067294590	-5.905000E+00	  0.067294590	-1.616980E+02	  0.067294590	1.674800E+01	  0.067294590	-7.170000E+00
238	  0.067494988	-5.904000E+00	  0.067494988	-1.627640E+02	  0.067494988	1.670400E+01	  0.067494988	-6.748000E+00
239	  0.067695394	-5.906000E+00	  0.067695394	-1.638290E+02	  0.067695394	1.666700E+01	  0.067695394	-6.327000E+00
240	  0.067895792	-5.912000E+00	  0.067895792	-1.648300E+02	  0.067895792	1.664800E+01	  0.067895792	-5.931000E+00
241	  0.068096191	-5.915000E+00	  0.068096191	-1.659020E+02	  0.068096191	1.662100E+01	  0.068096191	-5.508000E+00
242	  0.068296596	-5.919000E+00	  0.068296596	-1.669490E+02	  0.068296596	1.659800E+01	  0.068296596	-5.096000E+00
243	  0.068496995	-5.927000E+00	  0.068496995	-1.679630E+02	  0.068496995	1.658900E+01	  0.068496995	-4.696000E+00
244	  0.068697393	-5.930000E+00	  0.068697393	-1.690030E+02	  0.068697393	1.657200E+01	  0.068697393	-4.288000E+00
245	  0.068897791	-5.930000E+00	  0.068897791	-1.700400E+02	  0.068897791	1.654600E+01	  0.068897791	-3.882000E+00
246	  0.069098189	-5.931000E+00	  0.069098189	-1.710410E+02	  0.069098189	1.652900E+01	  0.069098189	-3.491000E+00
247	  0.069298595	-5.940000E+00	  0.069298595	-1.720900E+02	  0.069298595	1.653200E+01	  0.069298595	-3.080000E+00
248	  0.069498993	-5.940000E+00	  0.069498993	-1.731230E+02	  0.069498993	1.651400E+01	  0.069498993	-2.677000E+00
249	  0.069699399	-5.946000E+00	  0.069699399	-1.741590E+02	  0.069699399	1.651600E+01	  0.069699399	-2.272000E+00
250	  0.069899797	-5.952000E+00	  0.069899797	-1.751660E+02	  0.069899797	1.651900E+01	  0.069899797	-1.880000E+00
251	  0.070100196	-5.954000E+00	  0.070100196	-1.761620E+02	  0.070100196	1.651200E+01	  0.070100196	-1.492000E+00
252	  0.070300601	-5.961000E+00	  0.070300601	-1.771980E+02	  0.070300601	1.652300E+01	  0.070300601	-1.089000E+00
253	  0.070501000	-5.964000E+00	  0.070501000	-1.781780E+02	  0.070501000	1.652700E+01	  0.070501000	-7.080000E-01
254	  0.070701398	-5.963000E+00	  0.070701398	-1.791760E+02	  0.070701398	1.652000E+01	  0.070701398	-3.200000E-01
255	  0.070901804	-5.969000E+00	  0.070901804	1.798340E+02	  0.070901804	1.653400E+01	  0.070901804	6.400000E-02
256	  0.071102202	-5.972000E+00	  0.071102202	1.788230E+02	  0.071102202	1.654500E+01	  0.071102202	4.570000E-01
257	  0.071302600	-5.974000E+00	  0.071302600	1.778170E+02	  0.071302600	1.655400E+01	  0.071302600	8.470000E-01
258	  0.071503006	-5.981000E+00	  0.071503006	1.768330E+02	  0.071503006	1.657800E+01	  0.071503006	1.230000E+00
259	  0.071703404	-5.985000E+00	  0.071703404	1.758350E+02	  0.071703404	1.659600E+01	  0.071703404	1.617000E+00
260	  0.071903802	-5.991000E+00	  0.071903802	1.748550E+02	  0.071903802	1.662300E+01	  0.071903802	1.998000E+00
261	  0.072104208	-5.999000E+00	  0.072104208	1.738790E+02	  0.072104208	1.665500E+01	  0.072104208	2.377000E+00
262	  0.072304606	-6.003000E+00	  0.072304606	1.729190E+02	  0.072304606	1.667800E+01	  0.072304606	2.750000E+00
263	  0.072505005	-6.004000E+00	  0.072505005	1.719660E+02	  0.072505005	1.669700E+01	  0.072505005	3.121000E+00
264	  0.072705410	-6.013000E+00	  0.072705410	1.710220E+02	  0.072705410	1.673900E+01	  0.072705410	3.487000E+00
265	  0.072905809	-6.016000E+00	  0.072905809	1.700510E+02	  0.072905809	1.676900E+01	  0.072905809	3.865000E+00
266	  0.073106214	-6.021000E+00	  0.073106214	1.690900E+02	  0.073106214	1.680400E+01	  0.073106214	4.239000E+00
267	  0.073306613	-6.029000E+00	  0.073306613	1.681580E+02	  0.073306613	1.684900E+01	  0.073306613	4.601000E+00
268	  0.073507011	-6.041000E+00	  0.073507011	1.671960E+02	  0.073507011	1.690500E+01	  0.073507011	4.975000E+00
269	  0.073707417	-6.050000E+00	  0.073707417	1.662460E+02	  0.073707417	1.695800E+01	  0.073707417	5.345000E+00
270	  0.073907815	-6.056000E+00	  0.073907815	1.653360E+02	  0.073907815	1.700500E+01	  0.073907815	5.699000E+00
271	  0.074108213	-6.061000E+00	  0.074108213	1.643970E+02	  0.074108213	1.705100E+01	  0.074108213	6.066000E+00
272	  0.074308619	-6.068000E+00	  0.074308619	1.634760E+02	  0.074308619	1.710100E+01	  0.074308619	6.426000E+00
273	  0.074509017	-6.076000E+00	  0.074509017	1.625260E+02	  0.074509017	1.716000E+01	  0.074509017	6.797000E+00
274	  0.074709415	-6.087000E+00	  0.074709415	1.615840E+02	  0.074709415	1.722700E+01	  0.074709415	7.164000E+00
275	  0.074909821	-6.091000E+00	  0.074909821	1.606780E+02	  0.074909821	1.728000E+01	  0.074909821	7.520000E+00
276	  0.075110219	-6.104000E+00	  0.075110219	1.597420E+02	  0.075110219	1.735600E+01	  0.075110219	7.885000E+00
277	  0.075310618	-6.113000E+00	  0.075310618	1.588150E+02	  0.075310618	1.742600E+01	  0.075310618	8.248000E+00
278	  0.075511023	-6.118000E+00	  0.075511023	1.579020E+02	  0.075511023	1.748600E+01	  0.075511023	8.607000E+00
279	  0.075711422	-6.128000E+00	  0.075711422	1.570070E+02	  0.075711422	1.755900E+01	  0.075711422	8.959000E+00
280	  0.075911827	-6.139000E+00	  0.075911827	1.560920E+02	  0.075911827	1.764000E+01	  0.075911827	9.318000E+00
281	  0.076112226	-6.143000E+00	  0.076112226	1.551590E+02	  0.076112226	1.770400E+01	  0.076112226	9.687000E+00
282	  0.076312624	-6.155000E+00	  0.076312624	1.542570E+02	  0.076312624	1.779000E+01	  0.076312624	1.004200E+01
283	  0.076513030	-6.167000E+00	  0.076513030	1.533540E+02	  0.076513030	1.787900E+01	  0.076513030	1.039700E+01
284	  0.076713428	-6.174000E+00	  0.076713428	1.524430E+02	  0.076713428	1.795800E+01	  0.076713428	1.075800E+01
285	  0.076913826	-6.183000E+00	  0.076913826	1.515220E+02	  0.076913826	1.804600E+01	  0.076913826	1.112300E+01
286	  0.077114232	-6.194000E+00	  0.077114232	1.506240E+02	  0.077114232	1.814000E+01	  0.077114232	1.147800E+01
287	  0.077314630	-6.208000E+00	  0.077314630	1.497220E+02	  0.077314630	1.824300E+01	  0.077314630	1.183400E+01
288	  0.077515028	-6.214000E+00	  0.077515028	1.488590E+02	  0.077515028	1.832500E+01	  0.077515028	1.217900E+01
289	  0.077715434	-6.222000E+00	  0.077715434	1.479500E+02	  0.077715434	1.841900E+01	  0.077715434	1.254200E+01
290	  0.077915832	-6.231000E+00	  0.077915832	1.470520E+02	  0.077915832	1.851600E+01	  0.077915832	1.290100E+01
291	  0.078116231	-6.241000E+00	  0.078116231	1.461640E+02	  0.078116231	1.861900E+01	  0.078116231	1.325600E+01
292	  0.078316636	-6.253000E+00	  0.078316636	1.452860E+02	  0.078316636	1.872800E+01	  0.078316636	1.360700E+01
293	  0.078517035	-6.261000E+00	  0.078517035	1.443930E+02	  0.078517035	1.883000E+01	  0.078517035	1.396600E+01
294	  0.078717433	-6.274000E+00	  0.078717433	1.435140E+02	  0.078717433	1.894700E+01	  0.078717433	1.431700E+01
295	  0.078917839	-6.284000E+00	  0.078917839	1.426680E+02	  0.078917839	1.905500E+01	  0.078917839	1.465800E+01
296	  0.079118237	-6.292000E+00	  0.079118237	1.418050E+02	  0.079118237	1.916300E+01	  0.079118237	1.500800E+01
297	  0.079318643	-6.305000E+00	  0.079318643	1.409460E+02	  0.079318643	1.928400E+01	  0.079318643	1.535300E+01
298	  0.079519041	-6.319000E+00	  0.079519041	1.401120E+02	  0.079519041	1.941200E+01	  0.079519041	1.568700E+01
299	  0.079719439	-6.329000E+00	  0.079719439	1.392800E+02	  0.079719439	1.952800E+01	  0.079719439	1.602500E+01
300	  0.079919845	-6.342000E+00	  0.079919845	1.384100E+02	  0.079919845	1.966000E+01	  0.079919845	1.637600E+01
301	  0.080120243	-6.354000E+00	  0.080120243	1.375590E+02	  0.080120243	1.979000E+01	  0.080120243	1.672100E+01
302	  0.080320641	-6.367000E+00	  0.080320641	1.366810E+02	  0.080320641	1.992700E+01	  0.080320641	1.707800E+01
303	  0.080521047	-6.384000E+00	  0.080521047	1.358750E+02	  0.080521047	2.007100E+01	  0.080521047	1.740200E+01
304	  0.080721445	-6.395000E+00	  0.080721445	1.350210E+02	  0.080721445	2.020700E+01	  0.080721445	1.775200E+01
305	  0.080921844	-6.407000E+00	  0.080921844	1.342000E+02	  0.080921844	2.034400E+01	  0.080921844	1.808700E+01
306	  0.081122249	-6.427000E+00	  0.081122249	1.333740E+02	  0.081122249	2.051000E+01	  0.081122249	1.841700E+01
307	  0.081322648	-6.442000E+00	  0.081322648	1.325260E+02	  0.081322648	2.066500E+01	  0.081322648	1.876200E+01
308	  0.081523046	-6.458000E+00	  0.081523046	1.316970E+02	  0.081523046	2.082100E+01	  0.081523046	1.910000E+01
309	  0.081723452	-6.472000E+00	  0.081723452	1.308330E+02	  0.081723452	2.098200E+01	  0.081723452	1.945400E+01
310	  0.081923850	-6.490000E+00	  0.081923850	1.300280E+02	  0.081923850	2.115000E+01	  0.081923850	1.977900E+01
311	  0.082124248	-6.504000E+00	  0.082124248	1.292100E+02	  0.082124248	2.131000E+01	  0.082124248	2.011600E+01
312	  0.082324654	-6.517000E+00	  0.082324654	1.283520E+02	  0.082324654	2.147500E+01	  0.082324654	2.047000E+01
313	  0.082525052	-6.537000E+00	  0.082525052	1.275420E+02	  0.082525052	2.165800E+01	  0.082525052	2.079800E+01
314	  0.082725458	-6.554000E+00	  0.082725458	1.267640E+02	  0.082725458	2.183100E+01	  0.082725458	2.111500E+01
315	  0.082925856	-6.571000E+00	  0.082925856	1.259470E+02	  0.082925856	2.201300E+01	  0.082925856	2.144800E+01
316	  0.083126254	-6.591000E+00	  0.083126254	1.251020E+02	  0.083126254	2.221000E+01	  0.083126254	2.179200E+01
317	  0.083326660	-6.608000E+00	  0.083326660	1.243230E+02	  0.083326660	2.239100E+01	  0.083326660	2.211100E+01
318	  0.083527058	-6.622000E+00	  0.083527058	1.234870E+02	  0.083527058	2.257900E+01	  0.083527058	2.245800E+01
319	  0.083727457	-6.646000E+00	  0.083727457	1.226990E+02	  0.083727457	2.279000E+01	  0.083727457	2.277300E+01
320	  0.083927862	-6.662000E+00	  0.083927862	1.219060E+02	  0.083927862	2.298000E+01	  0.083927862	2.310000E+01
321	  0.084128261	-6.684000E+00	  0.084128261	1.210790E+02	  0.084128261	2.319900E+01	  0.084128261	2.343500E+01
322	  0.084328659	-6.703000E+00	  0.084328659	1.203150E+02	  0.084328659	2.340100E+01	  0.084328659	2.374600E+01
323	  0.084529065	-6.724000E+00	  0.084529065	1.195370E+02	  0.084529065	2.361300E+01	  0.084529065	2.406100E+01
324	  0.084729463	-6.749000E+00	  0.084729463	1.187310E+02	  0.084729463	2.384800E+01	  0.084729463	2.438300E+01
325	  0.084929854	-6.764000E+00	  0.084929854	1.179440E+02	  0.084929854	2.405300E+01	  0.084929854	2.471000E+01
326	  0.085130259	-6.784000E+00	  0.085130259	1.171210E+02	  0.085130259	2.428600E+01	  0.085130259	2.504600E+01
327	  0.085330658	-6.808000E+00	  0.085330658	1.163220E+02	  0.085330658	2.452600E+01	  0.085330658	2.536700E+01
328	  0.085531056	-6.829000E+00	  0.085531056	1.155610E+02	  0.085531056	2.475500E+01	  0.085531056	2.567400E+01
329	  0.085731462	-6.849000E+00	  0.085731462	1.147880E+02	  0.085731462	2.498800E+01	  0.085731462	2.598800E+01
330	  0.085931860	-6.870000E+00	  0.085931860	1.140050E+02	  0.085931860	2.522900E+01	  0.085931860	2.630500E+01
331	  0.086132258	-6.894000E+00	  0.086132258	1.132550E+02	  0.086132258	2.547400E+01	  0.086132258	2.660300E+01
332	  0.086332664	-6.916000E+00	  0.086332664	1.125040E+02	  0.086332664	2.571800E+01	  0.086332664	2.690500E+01
333	  0.086533062	-6.940000E+00	  0.086533062	1.117410E+02	  0.086533062	2.597700E+01	  0.086533062	2.720600E+01
334	  0.086733460	-6.963000E+00	  0.086733460	1.109750E+02	  0.086733460	2.623500E+01	  0.086733460	2.751200E+01
335	  0.086933866	-6.985000E+00	  0.086933866	1.102260E+02	  0.086933866	2.649200E+01	  0.086933866	2.781100E+01
336	  0.087134264	-7.012000E+00	  0.087134264	1.094930E+02	  0.087134264	2.676000E+01	  0.087134264	2.809500E+01
337	  0.087334670	-7.034000E+00	  0.087334670	1.087360E+02	  0.087334670	2.702700E+01	  0.087334670	2.839600E+01
338	  0.087535068	-7.061000E+00	  0.087535068	1.080130E+02	  0.087535068	2.730200E+01	  0.087535068	2.867300E+01
339	  0.087735467	-7.084000E+00	  0.087735467	1.072780E+02	  0.087735467	2.757300E+01	  0.087735467	2.896200E+01
340	  0.087935872	-7.116000E+00	  0.087935872	1.065430E+02	  0.087935872	2.787600E+01	  0.087935872	2.923200E+01
341	  0.088136271	-7.141000E+00	  0.088136271	1.058270E+02	  0.088136271	2.815600E+01	  0.088136271	2.950800E+01
342	  0.088336669	-7.164000E+00	  0.088336669	1.050830E+02	  0.088336669	2.844300E+01	  0.088336669	2.979700E+01
343	  0.088537075	-7.189000E+00	  0.088537075	1.043690E+02	  0.088537075	2.873100E+01	  0.088537075	3.006900E+01
344	  0.088737473	-7.213000E+00	  0.088737473	1.036670E+02	  0.088737473	2.901300E+01	  0.088737473	3.033900E+01
345	  0.088937871	-7.231000E+00	  0.088937871	1.029350E+02	  0.088937871	2.929400E+01	  0.088937871	3.063100E+01
346	  0.089138277	-7.265000E+00	  0.089138277	1.022270E+02	  0.089138277	2.961800E+01	  0.089138277	3.087900E+01
347	  0.089338675	-7.285000E+00	  0.089338675	1.015450E+02	  0.089338675	2.989900E+01	  0.089338675	3.114200E+01
348	  0.089539073	-7.314000E+00	  0.089539073	1.008640E+02	  0.089539073	3.020700E+01	  0.089539073	3.138600E+01
349	  0.089739479	-7.339000E+00	  0.089739479	1.001810E+02	  0.089739479	3.051000E+01	  0.089739479	3.163700E+01
350	  0.089939877	-7.366000E+00	  0.089939877	9.950600E+01	  0.089939877	3.081800E+01	  0.089939877	3.187900E+01
351	  0.090140276	-7.387000E+00	  0.090140276	9.881400E+01	  0.090140276	3.112200E+01	  0.090140276	3.213900E+01
352	  0.090340681	-7.413000E+00	  0.090340681	9.815200E+01	  0.090340681	3.142900E+01	  0.090340681	3.237700E+01
353	  0.090541080	-7.440000E+00	  0.090541080	9.746100E+01	  0.090541080	3.175900E+01	  0.090541080	3.262000E+01
354	  0.090741485	-7.466000E+00	  0.090741485	9.681100E+01	  0.090741485	3.207000E+01	  0.090741485	3.284900E+01
355	  0.090941884	-7.494000E+00	  0.090941884	9.614600E+01	  0.090941884	3.239900E+01	  0.090941884	3.307600E+01
356	  0.091142282	-7.519000E+00	  0.091142282	9.550000E+01	  0.091142282	3.271600E+01	  0.091142282	3.330100E+01
357	  0.091342688	-7.550000E+00	  0.091342688	9.484200E+01	  0.091342688	3.306000E+01	  0.091342688	3.351300E+01
358	  0.091543086	-7.575000E+00	  0.091543086	9.415300E+01	  0.091543086	3.340200E+01	  0.091543086	3.375100E+01
359	  0.091743484	-7.604000E+00	  0.091743484	9.354900E+01	  0.091743484	3.372500E+01	  0.091743484	3.394100E+01
360	  0.091943890	-7.630000E+00	  0.091943890	9.289000E+01	  0.091943890	3.406400E+01	  0.091943890	3.416200E+01
361	  0.092144288	-7.657000E+00	  0.092144288	9.221100E+01	  0.092144288	3.442300E+01	  0.092144288	3.438400E+01
362	  0.092344686	-7.680000E+00	  0.092344686	9.155000E+01	  0.092344686	3.476400E+01	  0.092344686	3.460800E+01
363	  0.092545092	-7.713000E+00	  0.092545092	9.090800E+01	  0.092545092	3.512900E+01	  0.092545092	3.479400E+01
364	  0.092745490	-7.739000E+00	  0.092745490	9.028200E+01	  0.092745490	3.547200E+01	  0.092745490	3.499100E+01
365	  0.092945889	-7.773000E+00	  0.092945889	8.965500E+01	  0.092945889	3.584200E+01	  0.092945889	3.516300E+01
366	  0.093146294	-7.803000E+00	  0.093146294	8.903000E+01	  0.093146294	3.620400E+01	  0.093146294	3.534100E+01
367	  0.093346693	-7.824000E+00	  0.093346693	8.840500E+01	  0.093346693	3.654400E+01	  0.093346693	3.554500E+01
368	  0.093547091	-7.858000E+00	  0.093547091	8.779000E+01	  0.093547091	3.692000E+01	  0.093547091	3.570100E+01
369	  0.093747497	-7.885000E+00	  0.093747497	8.716900E+01	  0.093747497	3.728200E+01	  0.093747497	3.588000E+01
370	  0.093947895	-7.915000E+00	  0.093947895	8.654800E+01	  0.093947895	3.765700E+01	  0.093947895	3.604600E+01
371	  0.094148301	-7.945000E+00	  0.094148301	8.592200E+01	  0.094148301	3.803700E+01	  0.094148301	3.621100E+01
372	  0.094348699	-7.978000E+00	  0.094348699	8.533000E+01	  0.094348699	3.841300E+01	  0.094348699	3.634900E+01
373	  0.094549097	-8.009000E+00	  0.094549097	8.470700E+01	  0.094549097	3.880300E+01	  0.094549097	3.650200E+01
374	  0.094749503	-8.039000E+00	  0.094749503	8.411100E+01	  0.094749503	3.917900E+01	  0.094749503	3.664600E+01
375	  0.094949901	-8.068000E+00	  0.094949901	8.352600E+01	  0.094949901	3.955000E+01	  0.094949901	3.678400E+01
376	  0.095150299	-8.097000E+00	  0.095150299	8.291900E+01	  0.095150299	3.993800E+01	  0.095150299	3.692600E+01
377	  0.095350705	-8.133000E+00	  0.095350705	8.233100E+01	  0.095350705	4.033700E+01	  0.095350705	3.703500E+01
378	  0.095551103	-8.163000E+00	  0.095551103	8.170900E+01	  0.095551103	4.074000E+01	  0.095551103	3.717300E+01
379	  0.095751502	-8.190000E+00	  0.095751502	8.114700E+01	  0.095751502	4.110700E+01	  0.095751502	3.729600E+01
380	  0.095951907	-8.222000E+00	  0.095951907	8.055900E+01	  0.095951907	4.150600E+01	  0.095951907	3.740600E+01
381	  0.096152306	-8.253000E+00	  0.096152306	8.002000E+01	  0.096152306	4.187700E+01	  0.096152306	3.749800E+01
382	  0.096352704	-8.282000E+00	  0.096352704	7.943000E+01	  0.096352704	4.227200E+01	  0.096352704	3.761400E+01
383	  0.096553110	-8.316000E+00	  0.096553110	7.886600E+01	  0.096553110	4.267000E+01	  0.096553110	3.769600E+01
384	  0.096753508	-8.344000E+00	  0.096753508	7.832100E+01	  0.096753508	4.304600E+01	  0.096753508	3.779100E+01
385	  0.096953906	-8.378000E+00	  0.096953906	7.778400E+01	  0.096953906	4.343300E+01	  0.096953906	3.785500E+01
386	  0.097154312	-8.406000E+00	  0.097154312	7.723100E+01	  0.097154312	4.381700E+01	  0.097154312	3.794600E+01
387	  0.097354710	-8.435000E+00	  0.097354710	7.672100E+01	  0.097354710	4.418200E+01	  0.097354710	3.801300E+01
388	  0.097555116	-8.467000E+00	  0.097555116	7.621100E+01	  0.097555116	4.455600E+01	  0.097555116	3.806300E+01
389	  0.097755514	-8.496000E+00	  0.097755514	7.567800E+01	  0.097755514	4.493800E+01	  0.097755514	3.813000E+01
390	  0.097955912	-8.531000E+00	  0.097955912	7.516800E+01	  0.097955912	4.532100E+01	  0.097955912	3.816400E+01
391	  0.098156318	-8.559000E+00	  0.098156318	7.465800E+01	  0.098156318	4.569100E+01	  0.098156318	3.822100E+01
392	  0.098356716	-8.590000E+00	  0.098356716	7.417000E+01	  0.098356716	4.605500E+01	  0.098356716	3.825500E+01
393	  0.098557115	-8.615000E+00	  0.098557115	7.369200E+01	  0.098557115	4.640500E+01	  0.098557115	3.830400E+01
394	  0.098757520	-8.647000E+00	  0.098757520	7.320300E+01	  0.098757520	4.677600E+01	  0.098757520	3.832400E+01
395	  0.098957919	-8.679000E+00	  0.098957919	7.272400E+01	  0.098957919	4.714200E+01	  0.098957919	3.833900E+01
396	  0.099158317	-8.707000E+00	  0.099158317	7.224900E+01	  0.099158317	4.749800E+01	  0.099158317	3.836800E+01
397	  0.099358723	-8.734000E+00	  0.099358723	7.176700E+01	  0.099358723	4.785800E+01	  0.099358723	3.839900E+01
398	  0.099559121	-8.764000E+00	  0.099559121	7.132700E+01	  0.099559121	4.820000E+01	  0.099559121	3.839800E+01
399	  0.099759519	-8.792000E+00	  0.099759519	7.085900E+01	  0.099759519	4.855600E+01	  0.099759519	3.841100E+01
400	  0.099959925	-8.813000E+00	  0.099959925	7.043700E+01	  0.099959925	4.887100E+01	  0.099959925	3.843800E+01
401	  0.100160323	-8.839000E+00	  0.100160323	6.996000E+01	  0.100160323	4.923200E+01	  0.100160323	3.845500E+01
402	  0.100360721	-8.869000E+00	  0.100360721	6.956900E+01	  0.100360721	4.954400E+01	  0.100360721	3.842900E+01
403	  0.100561127	-8.894000E+00	  0.100561127	6.910500E+01	  0.100561127	4.989600E+01	  0.100561127	3.844400E+01
404	  0.100761525	-8.919000E+00	  0.100761525	6.865200E+01	  0.100761525	5.024200E+01	  0.100761525	3.844900E+01
405	  0.100961931	-8.941000E+00	  0.100961931	6.823600E+01	  0.100961931	5.056100E+01	  0.100961931	3.845500E+01
406	  0.101162329	-8.964000E+00	  0.101162329	6.779500E+01	  0.101162329	5.089900E+01	  0.101162329	3.845700E+01
407	  0.101362728	-8.980000E+00	  0.101362728	6.736500E+01	  0.101362728	5.121800E+01	  0.101362728	3.849000E+01
408	  0.101563133	-9.014000E+00	  0.101563133	6.695900E+01	  0.101563133	5.155100E+01	  0.101563133	3.843000E+01
409	  0.101763532	-9.030000E+00	  0.101763532	6.658400E+01	  0.101763532	5.183500E+01	  0.101763532	3.844300E+01
410	  0.101963930	-9.052000E+00	  0.101963930	6.615600E+01	  0.101963930	5.216700E+01	  0.101963930	3.843400E+01
411	  0.102164328	-9.069000E+00	  0.102164328	6.567700E+01	  0.102164328	5.252700E+01	  0.102164328	3.846200E+01
412	  0.102364726	-9.089000E+00	  0.102364726	6.522700E+01	  0.102364726	5.287300E+01	  0.102364726	3.846100E+01
413	  0.102565125	-9.108000E+00	  0.102565125	6.481800E+01	  0.102565125	5.319000E+01	  0.102565125	3.845600E+01
414	  0.102765530	-9.121000E+00	  0.102765530	6.447200E+01	  0.102765530	5.345400E+01	  0.102765530	3.846300E+01
415	  0.102965929	-9.131000E+00	  0.102965929	6.400400E+01	  0.102965929	5.380500E+01	  0.102965929	3.850300E+01
416	  0.103166327	-9.145000E+00	  0.103166327	6.358800E+01	  0.103166327	5.412400E+01	  0.103166327	3.851500E+01
417	  0.103366733	-9.149000E+00	  0.103366733	6.318700E+01	  0.103366733	5.442200E+01	  0.103366733	3.856900E+01
418	  0.103567131	-9.166000E+00	  0.103567131	6.278800E+01	  0.103567131	5.473400E+01	  0.103567131	3.855800E+01
419	  0.103767529	-9.171000E+00	  0.103767529	6.234200E+01	  0.103767529	5.506900E+01	  0.103767529	3.861000E+01
420	  0.103967935	-9.178000E+00	  0.103967935	6.193300E+01	  0.103967935	5.538200E+01	  0.103967935	3.864200E+01
421	  0.104168333	-9.193000E+00	  0.104168333	6.148600E+01	  0.104168333	5.573300E+01	  0.104168333	3.863800E+01
422	  0.104368731	-9.192000E+00	  0.104368731	6.111800E+01	  0.104368731	5.600900E+01	  0.104368731	3.869900E+01
423	  0.104569137	-9.199000E+00	  0.104569137	6.071300E+01	  0.104569137	5.632300E+01	  0.104569137	3.872500E+01
424	  0.104769535	-9.196000E+00	  0.104769535	6.031300E+01	  0.104769535	5.662600E+01	  0.104769535	3.879600E+01
425	  0.104969934	-9.205000E+00	  0.104969934	5.987700E+01	  0.104969934	5.696900E+01	  0.104969934	3.881100E+01
426	  0.105170339	-9.196000E+00	  0.105170339	5.943700E+01	  0.105170339	5.730300E+01	  0.105170339	3.891300E+01
427	  0.105370738	-9.211000E+00	  0.105370738	5.908000E+01	  0.105370738	5.759400E+01	  0.105370738	3.887800E+01
428	  0.105571143	-9.213000E+00	  0.105571143	5.861800E+01	  0.105571143	5.795800E+01	  0.105571143	3.892300E+01
429	  0.105771542	-9.215000E+00	  0.105771542	5.818000E+01	  0.105771542	5.830500E+01	  0.105771542	3.896300E+01
430	  0.105971940	-9.215000E+00	  0.105971940	5.774000E+01	  0.105971940	5.865500E+01	  0.105971940	3.901100E+01
431	  0.106172346	-9.212000E+00	  0.106172346	5.724900E+01	  0.106172346	5.904700E+01	  0.106172346	3.907300E+01
432	  0.106372744	-9.213000E+00	  0.106372744	5.686600E+01	  0.106372744	5.935700E+01	  0.106372744	3.910100E+01
433	  0.106573142	-9.215000E+00	  0.106573142	5.642600E+01	  0.106573142	5.971600E+01	  0.106573142	3.913100E+01
434	  0.106773548	-9.204000E+00	  0.106773548	5.592600E+01	  0.106773548	6.012000E+01	  0.106773548	3.922500E+01
435	  0.106973946	-9.199000E+00	  0.106973946	5.547700E+01	  0.106973946	6.048900E+01	  0.106973946	3.928400E+01
436	  0.107174344	-9.202000E+00	  0.107174344	5.498000E+01	  0.107174344	6.090400E+01	  0.107174344	3.929900E+01
437	  0.107374750	-9.193000E+00	  0.107374750	5.445100E+01	  0.107374750	6.134400E+01	  0.107374750	3.938000E+01
438	  0.107575148	-9.192000E+00	  0.107575148	5.402300E+01	  0.107575148	6.170600E+01	  0.107575148	3.940700E+01
439	  0.107775547	-9.177000E+00	  0.107775547	5.348900E+01	  0.107775547	6.215800E+01	  0.107775547	3.950900E+01
440	  0.107975952	-9.170000E+00	  0.107975952	5.298300E+01	  0.107975952	6.259200E+01	  0.107975952	3.956600E+01
441	  0.108176351	-9.173000E+00	  0.108176351	5.251800E+01	  0.108176351	6.299500E+01	  0.108176351	3.956000E+01
442	  0.108376749	-9.162000E+00	  0.108376749	5.193400E+01	  0.108376749	6.350500E+01	  0.108376749	3.962600E+01
443	  0.108577155	-9.159000E+00	  0.108577155	5.145200E+01	  0.108577155	6.393100E+01	  0.108577155	3.964500E+01
444	  0.108777553	-9.151000E+00	  0.108777553	5.087900E+01	  0.108777553	6.444000E+01	  0.108777553	3.968800E+01
445	  0.108977959	-9.141000E+00	  0.108977959	5.027600E+01	  0.108977959	6.498200E+01	  0.108977959	3.973500E+01
446	  0.109178357	-9.139000E+00	  0.109178357	4.973200E+01	  0.109178357	6.547500E+01	  0.109178357	3.973000E+01
447	  0.109378755	-9.125000E+00	  0.109378755	4.917400E+01	  0.109378755	6.598800E+01	  0.109378755	3.979300E+01
448	  0.109579161	-9.113000E+00	  0.109579161	4.862200E+01	  0.109579161	6.650000E+01	  0.109579161	3.983600E+01
449	  0.109779559	-9.103000E+00	  0.109779559	4.799200E+01	  0.109779559	6.709000E+01	  0.109779559	3.985800E+01
450	  0.109979957	-9.092000E+00	  0.109979957	4.740300E+01	  0.109979957	6.764800E+01	  0.109979957	3.988000E+01
451	  0.110180363	-9.088000E+00	  0.110180363	4.682400E+01	  0.110180363	6.819700E+01	  0.110180363	3.984900E+01
452	  0.110380761	-9.078000E+00	  0.110380761	4.617000E+01	  0.110380761	6.882800E+01	  0.110380761	3.984600E+01
453	  0.110581160	-9.066000E+00	  0.110581160	4.554400E+01	  0.110581160	6.943900E+01	  0.110581160	3.984200E+01
454	  0.110781565	-9.065000E+00	  0.110781565	4.494300E+01	  0.110781565	7.002200E+01	  0.110781565	3.976700E+01
455	  0.110981964	-9.046000E+00	  0.110981964	4.433800E+01	  0.110981964	7.063200E+01	  0.110981964	3.980000E+01
456	  0.111182362	-9.039000E+00	  0.111182362	4.371400E+01	  0.111182362	7.125400E+01	  0.111182362	3.974400E+01
457	  0.111382768	-9.028000E+00	  0.111382768	4.306900E+01	  0.111382768	7.190800E+01	  0.111382768	3.969500E+01
458	  0.111583166	-9.020000E+00	  0.111583166	4.242100E+01	  0.111583166	7.256700E+01	  0.111583166	3.962100E+01
459	  0.111783572	-9.021000E+00	  0.111783572	4.176600E+01	  0.111783572	7.322400E+01	  0.111783572	3.947100E+01
460	  0.111983970	-9.008000E+00	  0.111983970	4.111800E+01	  0.111983970	7.390000E+01	  0.111983970	3.940400E+01
461	  0.112184368	-9.010000E+00	  0.112184368	4.037500E+01	  0.112184368	7.465300E+01	  0.112184368	3.919800E+01
462	  0.112384774	-9.006000E+00	  0.112384774	3.971800E+01	  0.112384774	7.533400E+01	  0.112384774	3.904500E+01
463	  0.112585172	-9.005000E+00	  0.112585172	3.902300E+01	  0.112585172	7.605200E+01	  0.112585172	3.884500E+01
464	  0.112785570	-9.000000E+00	  0.112785570	3.838500E+01	  0.112785570	7.672200E+01	  0.112785570	3.867400E+01
465	  0.112985976	-8.992000E+00	  0.112985976	3.762200E+01	  0.112985976	7.753200E+01	  0.112985976	3.846600E+01
466	  0.113186374	-8.993000E+00	  0.113186374	3.696000E+01	  0.113186374	7.821900E+01	  0.113186374	3.821400E+01
467	  0.113386773	-9.001000E+00	  0.113386773	3.618000E+01	  0.113386773	7.901300E+01	  0.113386773	3.785900E+01
468	  0.113587178	-9.001000E+00	  0.113587178	3.549400E+01	  0.113587178	7.973100E+01	  0.113587178	3.757600E+01
469	  0.113787577	-9.005000E+00	  0.113787577	3.466900E+01	  0.113787577	8.058000E+01	  0.113787577	3.717900E+01
470	  0.113987975	-9.013000E+00	  0.113987975	3.387000E+01	  0.113987975	8.139300E+01	  0.113987975	3.675400E+01
471	  0.114188381	-9.016000E+00	  0.114188381	3.312400E+01	  0.114188381	8.216000E+01	  0.114188381	3.635900E+01
472	  0.114388779	-9.025000E+00	  0.114388779	3.229800E+01	  0.114388779	8.299000E+01	  0.114388779	3.586500E+01
473	  0.114589177	-9.026000E+00	  0.114589177	3.152100E+01	  0.114589177	8.379300E+01	  0.114589177	3.542700E+01
474	  0.114789583	-9.039000E+00	  0.114789583	3.068700E+01	  0.114789583	8.460200E+01	  0.114789583	3.484700E+01
475	  0.114989981	-9.049000E+00	  0.114989981	2.981600E+01	  0.114989981	8.545400E+01	  0.114989981	3.424000E+01
476	  0.115190387	-9.063000E+00	  0.115190387	2.896300E+01	  0.115190387	8.626400E+01	  0.115190387	3.359800E+01
477	  0.115390785	-9.076000E+00	  0.115390785	2.807000E+01	  0.115390785	8.710400E+01	  0.115390785	3.290200E+01
478	  0.115591183	-9.087000E+00	  0.115591183	2.722400E+01	  0.115591183	8.789000E+01	  0.115591183	3.222100E+01
479	  0.115791589	-9.104000E+00	  0.115791589	2.630600E+01	  0.115791589	8.871100E+01	  0.115791589	3.142800E+01
480	  0.115991987	-9.118000E+00	  0.115991987	2.539600E+01	  0.115991987	8.951400E+01	  0.115991987	3.062500E+01
481	  0.116192386	-9.132000E+00	  0.116192386	2.447000E+01	  0.116192386	9.031500E+01	  0.116192386	2.978100E+01
482	  0.116392791	-9.151000E+00	  0.116392791	2.350100E+01	  0.116392791	9.110700E+01	  0.116392791	2.884100E+01
483	  0.116593190	-9.171000E+00	  0.116593190	2.259400E+01	  0.116593190	9.181400E+01	  0.116593190	2.792200E+01
484	  0.116793588	-9.195000E+00	  0.116793588	2.155300E+01	  0.116793588	9.258700E+01	  0.116793588	2.682700E+01
485	  0.116993994	-9.214000E+00	  0.116993994	2.057500E+01	  0.116993994	9.330300E+01	  0.116993994	2.579100E+01
486	  0.117194392	-9.238000E+00	  0.117194392	1.958400E+01	  0.117194392	9.396600E+01	  0.117194392	2.468800E+01
487	  0.117394790	-9.262000E+00	  0.117394790	1.858200E+01	  0.117394790	9.460300E+01	  0.117394790	2.354800E+01
488	  0.117595196	-9.293000E+00	  0.117595196	1.755200E+01	  0.117595196	9.517200E+01	  0.117595196	2.231900E+01
489	  0.117795594	-9.319000E+00	  0.117795594	1.653000E+01	  0.117795594	9.572200E+01	  0.117795594	2.109600E+01
490	  0.117995992	-9.346000E+00	  0.117995992	1.546600E+01	  0.117995992	9.625600E+01	  0.117995992	1.980400E+01
491	  0.118196398	-9.387000E+00	  0.118196398	1.440400E+01	  0.118196398	9.663700E+01	  0.118196398	1.843700E+01
492	  0.118396796	-9.421000E+00	  0.118396796	1.335000E+01	  0.118396796	9.701500E+01	  0.118396796	1.709600E+01
493	  0.118597202	-9.462000E+00	  0.118597202	1.220800E+01	  0.118597202	9.733400E+01	  0.118597202	1.561700E+01
494	  0.118797600	-9.501000E+00	  0.118797600	1.112300E+01	  0.118797600	9.757700E+01	  0.118797600	1.420100E+01
