! Anritsu VNA Master:             	Model: MS2036C/10/77
! SN:             	1601066
! /bd0/18may09/254.ns.m5.txt
! Existing Calibration Information:
! TYPE:             	Current Settings	Active Cal Settings
! TIME:             	05/09/2018 12:48:12 PM	05/09/2018 12:35:56 PM
! INTERNAL TEMP:    	58.0 C	56.8 C
! # POINTS:         	494	494
! START FREQ:       	20.000 MHz	20.000 MHz
! STOP FREQ:        	118.797 594 MHz	118.797 594 MHz
! SOURCE POWER:     	High	High
! IFBW:             	50 Hz	50 Hz
! AVG FACTOR:       	  1 	  1 
! REF PLANE 1:      	0 mm	0 mm
! REF PLANE 2:      	0 mm	0 mm
! CAL TYPE:         	Full S22	Full S22
! CAL METHOD:       	SOLT	SOLT
! CAL LINE TYPE:    	Coax	Coax
! DUT PORT 1:       	K-Conn(M)	K-Conn(M)
! DUT PORT 2:       	K-Conn(M)	K-Conn(M)
! CAL STATUS:       	OK: Accuracy High	--
! PROP-V:       	0.700
! CABLE LOSS:       	0.000 dB/m
! REF IMPEDANCE:       	50.0
! Trace Specific Parameters:	TR1	TR2	TR3	TR4
! TRACE.#.Y (GRAPH TYPE)	LOG MAG	PHASE	REAL IMPEDANCE	IMAGINARY IMPEDANCE
! TRACE.#.X 	FREQ.GHZ	FREQ.GHZ	FREQ.GHZ	FREQ.GHZ
! S-PARAMETER	S22	S22	S22	S22
! SMOOTH/APERTURE %	0	0	0	0
! WINDOW	NSL	NSL	NSL	NSL
! GATING	OFF	OFF	OFF	OFF
! FGTD	OFF	OFF	OFF	OFF
Marker Information per Trace:	TR1	TR2	TR3	TR4
!MK1	--	"MK1 TR2:  20.000 MHz,PH:-126.46°"	--	--
!MK2	--	--	"MK2 TR3:  70.100 200 MHz,Z:(16.528 ohm, -1.809 ohm)"	--
!MK3	--	--	--	--
!MK4	--	--	--	--
!MK5	--	--	--	--
!MK6	--	--	--	--
!MK7	--	--	--	--
!MK8	--	--	--	--
PNT	TR1.FREQ.GHZ	TR1.LOG MAG.dB	TR2.FREQ.GHZ	TR2.PHASE.deg	TR3.FREQ.GHZ	TR3.REAL IMPEDANCE.ohm	TR4.FREQ.GHZ	TR4.IMAGINARY IMPEDANCE.ohm
1	  0.020000000	-6.310000E-01	  0.020000000	-1.264570E+02	  0.020000000	2.280000E+00	  0.020000000	-2.518300E+01
2	  0.020200402	-6.370000E-01	  0.020200402	-1.279150E+02	  0.020200402	2.271000E+00	  0.020200402	-2.439100E+01
3	  0.020400802	-6.410000E-01	  0.020400802	-1.293810E+02	  0.020400802	2.257000E+00	  0.020400802	-2.360500E+01
4	  0.020601204	-6.460000E-01	  0.020601204	-1.308920E+02	  0.020601204	2.246000E+00	  0.020601204	-2.280400E+01
5	  0.020801604	-6.480000E-01	  0.020801604	-1.323980E+02	  0.020801604	2.229000E+00	  0.020801604	-2.201600E+01
6	  0.021002004	-6.500000E-01	  0.021002004	-1.339500E+02	  0.021002004	2.210000E+00	  0.021002004	-2.121400E+01
7	  0.021202406	-6.540000E-01	  0.021202406	-1.354900E+02	  0.021202406	2.198000E+00	  0.021202406	-2.042600E+01
8	  0.021402806	-6.580000E-01	  0.021402806	-1.370450E+02	  0.021402806	2.188000E+00	  0.021402806	-1.963900E+01
9	  0.021603208	-6.600000E-01	  0.021603208	-1.385840E+02	  0.021603208	2.172000E+00	  0.021603208	-1.886900E+01
10	  0.021803608	-6.670000E-01	  0.021803608	-1.401440E+02	  0.021803608	2.170000E+00	  0.021803608	-1.809600E+01
11	  0.022004008	-6.730000E-01	  0.022004008	-1.416930E+02	  0.022004008	2.172000E+00	  0.022004008	-1.733600E+01
12	  0.022204408	-6.780000E-01	  0.022204408	-1.432960E+02	  0.022204408	2.166000E+00	  0.022204408	-1.655800E+01
13	  0.022404809	-6.830000E-01	  0.022404809	-1.449140E+02	  0.022404809	2.161000E+00	  0.022404809	-1.577800E+01
14	  0.022605211	-6.860000E-01	  0.022605211	-1.465350E+02	  0.022605211	2.151000E+00	  0.022605211	-1.500600E+01
15	  0.022805611	-6.920000E-01	  0.022805611	-1.481690E+02	  0.022805611	2.154000E+00	  0.022805611	-1.423200E+01
16	  0.023006011	-6.990000E-01	  0.023006011	-1.497830E+02	  0.023006011	2.159000E+00	  0.023006011	-1.347500E+01
17	  0.023206413	-7.050000E-01	  0.023206413	-1.513920E+02	  0.023206413	2.160000E+00	  0.023206413	-1.272600E+01
18	  0.023406813	-7.090000E-01	  0.023406813	-1.530160E+02	  0.023406813	2.158000E+00	  0.023406813	-1.197400E+01
19	  0.023607215	-7.160000E-01	  0.023607215	-1.546420E+02	  0.023607215	2.165000E+00	  0.023607215	-1.122800E+01
20	  0.023807615	-7.250000E-01	  0.023807615	-1.562720E+02	  0.023807615	2.177000E+00	  0.023807615	-1.048400E+01
21	  0.024008015	-7.360000E-01	  0.024008015	-1.579280E+02	  0.024008015	2.198000E+00	  0.024008015	-9.733000E+00
22	  0.024208417	-7.440000E-01	  0.024208417	-1.595960E+02	  0.024208417	2.210000E+00	  0.024208417	-8.980000E+00
23	  0.024408817	-7.490000E-01	  0.024408817	-1.612600E+02	  0.024408817	2.213000E+00	  0.024408817	-8.234000E+00
24	  0.024609219	-7.560000E-01	  0.024609219	-1.629260E+02	  0.024609219	2.223000E+00	  0.024609219	-7.490000E+00
25	  0.024809619	-7.650000E-01	  0.024809619	-1.645930E+02	  0.024809619	2.242000E+00	  0.024809619	-6.749000E+00
26	  0.025010020	-7.760000E-01	  0.025010020	-1.662730E+02	  0.025010020	2.264000E+00	  0.025010020	-6.006000E+00
27	  0.025210422	-7.840000E-01	  0.025210422	-1.679620E+02	  0.025210422	2.280000E+00	  0.025210422	-5.260000E+00
28	  0.025410822	-7.930000E-01	  0.025410822	-1.696530E+02	  0.025410822	2.302000E+00	  0.025410822	-4.517000E+00
29	  0.025611224	-8.060000E-01	  0.025611224	-1.713460E+02	  0.025611224	2.333000E+00	  0.025611224	-3.774000E+00
30	  0.025811624	-8.170000E-01	  0.025811624	-1.730670E+02	  0.025811624	2.359000E+00	  0.025811624	-3.021000E+00
31	  0.026012026	-8.270000E-01	  0.026012026	-1.748030E+02	  0.026012026	2.385000E+00	  0.026012026	-2.263000E+00
32	  0.026212426	-8.380000E-01	  0.026212426	-1.765430E+02	  0.026212426	2.413000E+00	  0.026212426	-1.505000E+00
33	  0.026412826	-8.500000E-01	  0.026412826	-1.782950E+02	  0.026412826	2.447000E+00	  0.026412826	-7.410000E-01
34	  0.026613226	-8.650000E-01	  0.026613226	1.799380E+02	  0.026613226	2.487000E+00	  0.026613226	2.600000E-02
35	  0.026813626	-8.800000E-01	  0.026813626	1.781680E+02	  0.026813626	2.532000E+00	  0.026813626	7.970000E-01
36	  0.027014028	-8.960000E-01	  0.027014028	1.763790E+02	  0.027014028	2.581000E+00	  0.027014028	1.576000E+00
37	  0.027214428	-9.120000E-01	  0.027214428	1.746010E+02	  0.027214428	2.630000E+00	  0.027214428	2.350000E+00
38	  0.027414829	-9.300000E-01	  0.027414829	1.727950E+02	  0.027414829	2.685000E+00	  0.027414829	3.138000E+00
39	  0.027615231	-9.480000E-01	  0.027615231	1.709810E+02	  0.027615231	2.743000E+00	  0.027615231	3.931000E+00
40	  0.027815631	-9.650000E-01	  0.027815631	1.691620E+02	  0.027815631	2.801000E+00	  0.027815631	4.727000E+00
41	  0.028016033	-9.830000E-01	  0.028016033	1.673240E+02	  0.028016033	2.863000E+00	  0.028016033	5.535000E+00
42	  0.028216433	-1.004000E+00	  0.028216433	1.654730E+02	  0.028216433	2.934000E+00	  0.028216433	6.350000E+00
43	  0.028416833	-1.022000E+00	  0.028416833	1.636060E+02	  0.028416833	3.000000E+00	  0.028416833	7.176000E+00
44	  0.028617235	-1.045000E+00	  0.028617235	1.617420E+02	  0.028617235	3.081000E+00	  0.028617235	8.004000E+00
45	  0.028817635	-1.065000E+00	  0.028817635	1.598660E+02	  0.028817635	3.159000E+00	  0.028817635	8.841000E+00
46	  0.029018037	-1.088000E+00	  0.029018037	1.580080E+02	  0.029018037	3.245000E+00	  0.029018037	9.675000E+00
47	  0.029218437	-1.112000E+00	  0.029218437	1.561200E+02	  0.029218437	3.340000E+00	  0.029218437	1.052700E+01
48	  0.029418837	-1.136000E+00	  0.029418837	1.542180E+02	  0.029418837	3.436000E+00	  0.029418837	1.139100E+01
49	  0.029619239	-1.161000E+00	  0.029619239	1.523080E+02	  0.029619239	3.539000E+00	  0.029619239	1.226500E+01
50	  0.029819639	-1.187000E+00	  0.029819639	1.504020E+02	  0.029819639	3.650000E+00	  0.029819639	1.314300E+01
51	  0.030020041	-1.214000E+00	  0.030020041	1.484830E+02	  0.030020041	3.765000E+00	  0.030020041	1.403400E+01
52	  0.030220442	-1.239000E+00	  0.030220442	1.465720E+02	  0.030220442	3.881000E+00	  0.030220442	1.493000E+01
53	  0.030420844	-1.266000E+00	  0.030420844	1.446650E+02	  0.030420844	4.005000E+00	  0.030420844	1.583200E+01
54	  0.030621244	-1.295000E+00	  0.030621244	1.427620E+02	  0.030621244	4.142000E+00	  0.030621244	1.674100E+01
55	  0.030821642	-1.324000E+00	  0.030821642	1.408540E+02	  0.030821642	4.282000E+00	  0.030821642	1.766100E+01
56	  0.031022044	-1.355000E+00	  0.031022044	1.389200E+02	  0.031022044	4.437000E+00	  0.031022044	1.860400E+01
57	  0.031222444	-1.382000E+00	  0.031222444	1.370050E+02	  0.031222444	4.580000E+00	  0.031222444	1.954900E+01
58	  0.031422846	-1.414000E+00	  0.031422846	1.350440E+02	  0.031422846	4.753000E+00	  0.031422846	2.052800E+01
59	  0.031623244	-1.447000E+00	  0.031623244	1.330750E+02	  0.031623244	4.934000E+00	  0.031623244	2.152300E+01
60	  0.031823646	-1.479000E+00	  0.031823646	1.311050E+02	  0.031823646	5.119000E+00	  0.031823646	2.253200E+01
61	  0.032024048	-1.514000E+00	  0.032024048	1.291410E+02	  0.032024048	5.321000E+00	  0.032024048	2.355300E+01
62	  0.032224450	-1.549000E+00	  0.032224450	1.271600E+02	  0.032224450	5.536000E+00	  0.032224450	2.459600E+01
63	  0.032424849	-1.585000E+00	  0.032424849	1.251760E+02	  0.032424849	5.761000E+00	  0.032424849	2.565800E+01
64	  0.032625251	-1.622000E+00	  0.032625251	1.231820E+02	  0.032625251	6.002000E+00	  0.032625251	2.674200E+01
65	  0.032825653	-1.658000E+00	  0.032825653	1.211540E+02	  0.032825653	6.256000E+00	  0.032825653	2.786400E+01
66	  0.033026051	-1.697000E+00	  0.033026051	1.191390E+02	  0.033026051	6.529000E+00	  0.033026051	2.899600E+01
67	  0.033226453	-1.732000E+00	  0.033226453	1.170770E+02	  0.033226453	6.805000E+00	  0.033226453	3.017900E+01
68	  0.033426855	-1.767000E+00	  0.033426855	1.150620E+02	  0.033426855	7.091000E+00	  0.033426855	3.135700E+01
69	  0.033627257	-1.812000E+00	  0.033627257	1.130170E+02	  0.033627257	7.436000E+00	  0.033627257	3.257100E+01
70	  0.033827655	-1.848000E+00	  0.033827655	1.109790E+02	  0.033827655	7.763000E+00	  0.033827655	3.381100E+01
71	  0.034028057	-1.888000E+00	  0.034028057	1.089250E+02	  0.034028057	8.129000E+00	  0.034028057	3.508400E+01
72	  0.034228459	-1.931000E+00	  0.034228459	1.068520E+02	  0.034228459	8.526000E+00	  0.034228459	3.639700E+01
73	  0.034428857	-1.972000E+00	  0.034428857	1.047720E+02	  0.034428857	8.940000E+00	  0.034428857	3.774500E+01
74	  0.034629259	-2.015000E+00	  0.034629259	1.026730E+02	  0.034629259	9.390000E+00	  0.034629259	3.913700E+01
75	  0.034829661	-2.059000E+00	  0.034829661	1.005880E+02	  0.034829661	9.871000E+00	  0.034829661	4.055200E+01
76	  0.035030060	-2.103000E+00	  0.035030060	9.848400E+01	  0.035030060	1.039000E+01	  0.035030060	4.201500E+01
77	  0.035230462	-2.152000E+00	  0.035230462	9.639700E+01	  0.035230462	1.095700E+01	  0.035230462	4.349900E+01
78	  0.035430863	-2.199000E+00	  0.035430863	9.429900E+01	  0.035430863	1.155800E+01	  0.035430863	4.503100E+01
79	  0.035631265	-2.244000E+00	  0.035631265	9.219700E+01	  0.035631265	1.218900E+01	  0.035631265	4.661000E+01
80	  0.035831664	-2.294000E+00	  0.035831664	9.009300E+01	  0.035831664	1.289000E+01	  0.035831664	4.822800E+01
81	  0.036032066	-2.341000E+00	  0.036032066	8.798100E+01	  0.036032066	1.362600E+01	  0.036032066	4.990200E+01
82	  0.036232468	-2.388000E+00	  0.036232468	8.589400E+01	  0.036232468	1.440800E+01	  0.036232468	5.160200E+01
83	  0.036432866	-2.437000E+00	  0.036432866	8.378900E+01	  0.036432866	1.526400E+01	  0.036432866	5.336300E+01
84	  0.036633268	-2.487000E+00	  0.036633268	8.168900E+01	  0.036633268	1.618600E+01	  0.036633268	5.517200E+01
85	  0.036833670	-2.536000E+00	  0.036833670	7.959400E+01	  0.036833670	1.717500E+01	  0.036833670	5.702800E+01
86	  0.037034072	-2.589000E+00	  0.037034072	7.749100E+01	  0.037034072	1.826900E+01	  0.037034072	5.893800E+01
87	  0.037234470	-2.640000E+00	  0.037234470	7.539100E+01	  0.037234470	1.943000E+01	  0.037234470	6.090900E+01
88	  0.037434869	-2.693000E+00	  0.037434869	7.330800E+01	  0.037434869	2.069200E+01	  0.037434869	6.291500E+01
89	  0.037635271	-2.745000E+00	  0.037635271	7.119300E+01	  0.037635271	2.206900E+01	  0.037635271	6.501500E+01
90	  0.037835669	-2.810000E+00	  0.037835669	6.909600E+01	  0.037835669	2.365600E+01	  0.037835669	6.710800E+01
91	  0.038036071	-2.870000E+00	  0.038036071	6.705600E+01	  0.038036071	2.529200E+01	  0.038036071	6.920900E+01
92	  0.038236473	-2.927000E+00	  0.038236473	6.499700E+01	  0.038236473	2.705300E+01	  0.038236473	7.139900E+01
93	  0.038436871	-2.980000E+00	  0.038436871	6.291900E+01	  0.038436871	2.896000E+01	  0.038436871	7.367800E+01
94	  0.038637273	-3.035000E+00	  0.038637273	6.086000E+01	  0.038637273	3.102300E+01	  0.038637273	7.598500E+01
95	  0.038837675	-3.086000E+00	  0.038837675	5.879800E+01	  0.038837675	3.324300E+01	  0.038837675	7.836500E+01
96	  0.039038073	-3.139000E+00	  0.039038073	5.672600E+01	  0.039038073	3.569300E+01	  0.039038073	8.079600E+01
97	  0.039238475	-3.191000E+00	  0.039238475	5.468100E+01	  0.039238475	3.833300E+01	  0.039238475	8.323300E+01
98	  0.039438877	-3.246000E+00	  0.039438877	5.260200E+01	  0.039438877	4.128400E+01	  0.039438877	8.572800E+01
99	  0.039639279	-3.299000E+00	  0.039639279	5.055800E+01	  0.039639279	4.444500E+01	  0.039639279	8.821000E+01
100	  0.039839678	-3.355000E+00	  0.039839678	4.848200E+01	  0.039839678	4.797300E+01	  0.039839678	9.071500E+01
101	  0.040040080	-3.405000E+00	  0.040040080	4.640600E+01	  0.040040080	5.179000E+01	  0.040040080	9.325400E+01
102	  0.040240481	-3.457000E+00	  0.040240481	4.434900E+01	  0.040240481	5.595400E+01	  0.040240481	9.570300E+01
103	  0.040440880	-3.509000E+00	  0.040440880	4.228600E+01	  0.040440880	6.051700E+01	  0.040440880	9.810100E+01
104	  0.040641282	-3.560000E+00	  0.040641282	4.023200E+01	  0.040641282	6.549400E+01	  0.040641282	1.003650E+02
105	  0.040841684	-3.611000E+00	  0.040841684	3.820400E+01	  0.040841684	7.086800E+01	  0.040841684	1.024350E+02
106	  0.041042086	-3.660000E+00	  0.041042086	3.617100E+01	  0.041042086	7.671800E+01	  0.041042086	1.043220E+02
107	  0.041242484	-3.712000E+00	  0.041242484	3.415000E+01	  0.041242484	8.306900E+01	  0.041242484	1.058460E+02
108	  0.041442886	-3.761000E+00	  0.041442886	3.212100E+01	  0.041442886	8.994900E+01	  0.041442886	1.070610E+02
109	  0.041643288	-3.808000E+00	  0.041643288	3.007600E+01	  0.041643288	9.741900E+01	  0.041643288	1.078550E+02
110	  0.041843686	-3.857000E+00	  0.041843686	2.804000E+01	  0.041843686	1.054160E+02	  0.041843686	1.080110E+02
111	  0.042044088	-3.902000E+00	  0.042044088	2.604700E+01	  0.042044088	1.137460E+02	  0.042044088	1.075090E+02
112	  0.042244490	-3.948000E+00	  0.042244490	2.402500E+01	  0.042244490	1.226580E+02	  0.042244490	1.061550E+02
113	  0.042444889	-3.993000E+00	  0.042444889	2.204500E+01	  0.042444889	1.317590E+02	  0.042444889	1.038620E+02
114	  0.042645290	-4.045000E+00	  0.042645290	2.005900E+01	  0.042645290	1.410820E+02	  0.042645290	1.002470E+02
115	  0.042845692	-4.087000E+00	  0.042845692	1.808500E+01	  0.042845692	1.504850E+02	  0.042845692	9.569900E+01
116	  0.043046094	-4.133000E+00	  0.043046094	1.611700E+01	  0.043046094	1.596910E+02	  0.043046094	8.972800E+01
117	  0.043246493	-4.178000E+00	  0.043246493	1.414500E+01	  0.043246493	1.685380E+02	  0.043246493	8.240400E+01
118	  0.043446895	-4.219000E+00	  0.043446895	1.220400E+01	  0.043446895	1.767030E+02	  0.043446895	7.396100E+01
119	  0.043647297	-4.261000E+00	  0.043647297	1.025100E+01	  0.043647297	1.839770E+02	  0.043647297	6.412900E+01
120	  0.043847695	-4.302000E+00	  0.043847695	8.330000E+00	  0.043847695	1.899740E+02	  0.043847695	5.335500E+01
121	  0.044048097	-4.347000E+00	  0.044048097	6.422000E+00	  0.044048097	1.944200E+02	  0.044048097	4.168900E+01
122	  0.044248499	-4.387000E+00	  0.044248499	4.524000E+00	  0.044248499	1.974300E+02	  0.044248499	2.955700E+01
123	  0.044448901	-4.427000E+00	  0.044448901	2.641000E+00	  0.044448901	1.988110E+02	  0.044448901	1.721600E+01
124	  0.044649299	-4.470000E+00	  0.044649299	7.510000E-01	  0.044649299	1.984280E+02	  0.044649299	4.841000E+00
125	  0.044849701	-4.510000E+00	  0.044849701	-1.120000E+00	  0.044849701	1.966210E+02	  0.044849701	-7.079000E+00
126	  0.045050103	-4.550000E+00	  0.045050103	-2.990000E+00	  0.045050103	1.933600E+02	  0.045050103	-1.840400E+01
127	  0.045250501	-4.590000E+00	  0.045250501	-4.849000E+00	  0.045250501	1.888820E+02	  0.045250501	-2.885100E+01
128	  0.045450903	-4.630000E+00	  0.045450903	-6.708000E+00	  0.045450903	1.833660E+02	  0.045450903	-3.833500E+01
129	  0.045651305	-4.671000E+00	  0.045651305	-8.562000E+00	  0.045651305	1.770640E+02	  0.045651305	-4.672900E+01
130	  0.045851704	-4.709000E+00	  0.045851704	-1.040300E+01	  0.045851704	1.703510E+02	  0.045851704	-5.405300E+01
131	  0.046052102	-4.745000E+00	  0.046052102	-1.223800E+01	  0.046052102	1.632990E+02	  0.046052102	-6.030800E+01
132	  0.046252504	-4.783000E+00	  0.046252504	-1.407800E+01	  0.046252504	1.560150E+02	  0.046252504	-6.554700E+01
133	  0.046452906	-4.816000E+00	  0.046452906	-1.589300E+01	  0.046452906	1.488530E+02	  0.046452906	-6.987000E+01
134	  0.046653304	-4.853000E+00	  0.046653304	-1.773700E+01	  0.046653304	1.415820E+02	  0.046653304	-7.331500E+01
135	  0.046853706	-4.888000E+00	  0.046853706	-1.956900E+01	  0.046853706	1.345510E+02	  0.046853706	-7.600500E+01
136	  0.047054108	-4.924000E+00	  0.047054108	-2.140500E+01	  0.047054108	1.277110E+02	  0.047054108	-7.796400E+01
137	  0.047254506	-4.956000E+00	  0.047254506	-2.323200E+01	  0.047254506	1.212120E+02	  0.047254506	-7.940500E+01
138	  0.047454908	-4.989000E+00	  0.047454908	-2.505700E+01	  0.047454908	1.150130E+02	  0.047454908	-8.030800E+01
139	  0.047655310	-5.021000E+00	  0.047655310	-2.685900E+01	  0.047655310	1.091990E+02	  0.047655310	-8.076100E+01
140	  0.047855709	-5.054000E+00	  0.047855709	-2.867000E+01	  0.047855709	1.036750E+02	  0.047855709	-8.083700E+01
141	  0.048056111	-5.086000E+00	  0.048056111	-3.045400E+01	  0.048056111	9.854800E+01	  0.048056111	-8.061400E+01
142	  0.048256513	-5.114000E+00	  0.048256513	-3.223900E+01	  0.048256513	9.372400E+01	  0.048256513	-8.020000E+01
143	  0.048456915	-5.143000E+00	  0.048456915	-3.401800E+01	  0.048456915	8.920300E+01	  0.048456915	-7.955200E+01
144	  0.048657313	-5.168000E+00	  0.048657313	-3.578600E+01	  0.048657313	8.498500E+01	  0.048657313	-7.877500E+01
145	  0.048857715	-5.189000E+00	  0.048857715	-3.756500E+01	  0.048857715	8.098800E+01	  0.048857715	-7.792800E+01
146	  0.049058117	-5.213000E+00	  0.049058117	-3.933800E+01	  0.049058117	7.725900E+01	  0.049058117	-7.689800E+01
147	  0.049258515	-5.234000E+00	  0.049258515	-4.109000E+01	  0.049258515	7.379700E+01	  0.049258515	-7.581300E+01
148	  0.049458917	-5.257000E+00	  0.049458917	-4.281100E+01	  0.049458917	7.061100E+01	  0.049458917	-7.464000E+01
149	  0.049659319	-5.278000E+00	  0.049659319	-4.454900E+01	  0.049659319	6.758700E+01	  0.049659319	-7.341500E+01
150	  0.049859721	-5.297000E+00	  0.049859721	-4.623000E+01	  0.049859721	6.483400E+01	  0.049859721	-7.220000E+01
151	  0.050060119	-5.317000E+00	  0.050060119	-4.790400E+01	  0.050060119	6.226000E+01	  0.050060119	-7.094300E+01
152	  0.050260521	-5.331000E+00	  0.050260521	-4.959300E+01	  0.050260521	5.978800E+01	  0.050260521	-6.971000E+01
153	  0.050460923	-5.345000E+00	  0.050460923	-5.128600E+01	  0.050460923	5.745900E+01	  0.050460923	-6.844200E+01
154	  0.050661322	-5.361000E+00	  0.050661322	-5.291300E+01	  0.050661322	5.535400E+01	  0.050661322	-6.719600E+01
155	  0.050861724	-5.373000E+00	  0.050861724	-5.455200E+01	  0.050861724	5.334000E+01	  0.050861724	-6.595500E+01
156	  0.051062126	-5.388000E+00	  0.051062126	-5.617700E+01	  0.051062126	5.147100E+01	  0.051062126	-6.469300E+01
157	  0.051262524	-5.403000E+00	  0.051262524	-5.774300E+01	  0.051262524	4.976600E+01	  0.051262524	-6.347700E+01
158	  0.051462926	-5.416000E+00	  0.051462926	-5.932100E+01	  0.051462926	4.813400E+01	  0.051462926	-6.226400E+01
159	  0.051663328	-5.429000E+00	  0.051663328	-6.088400E+01	  0.051663328	4.660100E+01	  0.051663328	-6.107100E+01
160	  0.051863730	-5.443000E+00	  0.051863730	-6.242200E+01	  0.051863730	4.517500E+01	  0.051863730	-5.989400E+01
161	  0.052064128	-5.453000E+00	  0.052064128	-6.397800E+01	  0.052064128	4.378800E+01	  0.052064128	-5.873800E+01
162	  0.052264530	-5.462000E+00	  0.052264530	-6.549200E+01	  0.052264530	4.250500E+01	  0.052264530	-5.762000E+01
163	  0.052464932	-5.474000E+00	  0.052464932	-6.701100E+01	  0.052464932	4.129200E+01	  0.052464932	-5.649400E+01
164	  0.052665330	-5.486000E+00	  0.052665330	-6.850900E+01	  0.052665330	4.015500E+01	  0.052665330	-5.539400E+01
165	  0.052865732	-5.495000E+00	  0.052865732	-6.998500E+01	  0.052865732	3.907400E+01	  0.052865732	-5.433600E+01
166	  0.053066134	-5.510000E+00	  0.053066134	-7.147900E+01	  0.053066134	3.806400E+01	  0.053066134	-5.324100E+01
167	  0.053266536	-5.524000E+00	  0.053266536	-7.292300E+01	  0.053266536	3.712400E+01	  0.053266536	-5.220600E+01
168	  0.053466935	-5.540000E+00	  0.053466935	-7.439100E+01	  0.053466935	3.622400E+01	  0.053466935	-5.115600E+01
169	  0.053667337	-5.552000E+00	  0.053667337	-7.586900E+01	  0.053667337	3.534300E+01	  0.053667337	-5.012700E+01
170	  0.053867739	-5.564000E+00	  0.053867739	-7.732500E+01	  0.053867739	3.451400E+01	  0.053867739	-4.912800E+01
171	  0.054068137	-5.577000E+00	  0.054068137	-7.878700E+01	  0.054068137	3.371900E+01	  0.054068137	-4.813700E+01
172	  0.054268539	-5.592000E+00	  0.054268539	-8.024900E+01	  0.054268539	3.297200E+01	  0.054268539	-4.714900E+01
173	  0.054468941	-5.604000E+00	  0.054468941	-8.168000E+01	  0.054468941	3.226400E+01	  0.054468941	-4.620100E+01
174	  0.054669335	-5.621000E+00	  0.054669335	-8.313100E+01	  0.054669335	3.159200E+01	  0.054669335	-4.524100E+01
175	  0.054869737	-5.635000E+00	  0.054869737	-8.455600E+01	  0.054869737	3.095300E+01	  0.054869737	-4.431800E+01
176	  0.055070139	-5.650000E+00	  0.055070139	-8.602300E+01	  0.055070139	3.032700E+01	  0.055070139	-4.337900E+01
177	  0.055270538	-5.664000E+00	  0.055270538	-8.745400E+01	  0.055270538	2.973900E+01	  0.055270538	-4.247800E+01
178	  0.055470940	-5.678000E+00	  0.055470940	-8.888200E+01	  0.055470940	2.917700E+01	  0.055470940	-4.159100E+01
179	  0.055671342	-5.688000E+00	  0.055671342	-9.033800E+01	  0.055671342	2.861100E+01	  0.055671342	-4.071100E+01
180	  0.055871744	-5.699000E+00	  0.055871744	-9.179200E+01	  0.055871744	2.807000E+01	  0.055871744	-3.984100E+01
181	  0.056072142	-5.709000E+00	  0.056072142	-9.321900E+01	  0.056072142	2.756500E+01	  0.056072142	-3.899700E+01
182	  0.056272544	-5.719000E+00	  0.056272544	-9.463500E+01	  0.056272544	2.708100E+01	  0.056272544	-3.817100E+01
183	  0.056472946	-5.729000E+00	  0.056472946	-9.605900E+01	  0.056472946	2.661200E+01	  0.056472946	-3.735200E+01
184	  0.056673344	-5.738000E+00	  0.056673344	-9.747300E+01	  0.056673344	2.616700E+01	  0.056673344	-3.654900E+01
185	  0.056873746	-5.748000E+00	  0.056873746	-9.886000E+01	  0.056873746	2.574700E+01	  0.056873746	-3.576900E+01
186	  0.057074148	-5.755000E+00	  0.057074148	-1.002590E+02	  0.057074148	2.533200E+01	  0.057074148	-3.499700E+01
187	  0.057274550	-5.762000E+00	  0.057274550	-1.016620E+02	  0.057274550	2.493000E+01	  0.057274550	-3.423200E+01
188	  0.057474948	-5.764000E+00	  0.057474948	-1.030510E+02	  0.057474948	2.453000E+01	  0.057474948	-3.349400E+01
189	  0.057675350	-5.770000E+00	  0.057675350	-1.044210E+02	  0.057675350	2.416400E+01	  0.057675350	-3.276400E+01
190	  0.057875752	-5.774000E+00	  0.057875752	-1.057910E+02	  0.057875752	2.380700E+01	  0.057875752	-3.204500E+01
191	  0.058076151	-5.777000E+00	  0.058076151	-1.071510E+02	  0.058076151	2.346000E+01	  0.058076151	-3.134200E+01
192	  0.058276553	-5.783000E+00	  0.058276553	-1.084930E+02	  0.058276553	2.314400E+01	  0.058276553	-3.064700E+01
193	  0.058476955	-5.784000E+00	  0.058476955	-1.098030E+02	  0.058476955	2.282900E+01	  0.058476955	-2.998400E+01
194	  0.058677353	-5.787000E+00	  0.058677353	-1.111200E+02	  0.058677353	2.252900E+01	  0.058677353	-2.932100E+01
195	  0.058877755	-5.788000E+00	  0.058877755	-1.124440E+02	  0.058877755	2.223300E+01	  0.058877755	-2.866300E+01
196	  0.059078157	-5.790000E+00	  0.059078157	-1.137280E+02	  0.059078157	2.195800E+01	  0.059078157	-2.803000E+01
197	  0.059278559	-5.787000E+00	  0.059278559	-1.150180E+02	  0.059278559	2.167500E+01	  0.059278559	-2.740600E+01
198	  0.059478957	-5.789000E+00	  0.059478957	-1.162790E+02	  0.059478957	2.142500E+01	  0.059478957	-2.679300E+01
199	  0.059679359	-5.795000E+00	  0.059679359	-1.175480E+02	  0.059679359	2.119600E+01	  0.059679359	-2.617700E+01
200	  0.059879761	-5.796000E+00	  0.059879761	-1.187820E+02	  0.059879761	2.096200E+01	  0.059879761	-2.558900E+01
201	  0.060080159	-5.797000E+00	  0.060080159	-1.200210E+02	  0.060080159	2.073900E+01	  0.060080159	-2.500200E+01
202	  0.060280561	-5.802000E+00	  0.060280561	-1.212360E+02	  0.060280561	2.053800E+01	  0.060280561	-2.442700E+01
203	  0.060480963	-5.804000E+00	  0.060480963	-1.224420E+02	  0.060480963	2.033300E+01	  0.060480963	-2.386400E+01
204	  0.060681365	-5.808000E+00	  0.060681365	-1.236580E+02	  0.060681365	2.014400E+01	  0.060681365	-2.329800E+01
205	  0.060881764	-5.809000E+00	  0.060881764	-1.248180E+02	  0.060881764	1.996100E+01	  0.060881764	-2.276400E+01
206	  0.061082166	-5.815000E+00	  0.061082166	-1.260430E+02	  0.061082166	1.978900E+01	  0.061082166	-2.220000E+01
207	  0.061282568	-5.818000E+00	  0.061282568	-1.272230E+02	  0.061282568	1.961800E+01	  0.061282568	-2.166400E+01
208	  0.061482966	-5.824000E+00	  0.061482966	-1.284020E+02	  0.061482966	1.946400E+01	  0.061482966	-2.112800E+01
209	  0.061683368	-5.830000E+00	  0.061683368	-1.295640E+02	  0.061683368	1.931700E+01	  0.061683368	-2.060300E+01
210	  0.061883770	-5.833000E+00	  0.061883770	-1.307230E+02	  0.061883770	1.916800E+01	  0.061883770	-2.008600E+01
211	  0.062084168	-5.839000E+00	  0.062084168	-1.318950E+02	  0.062084168	1.903100E+01	  0.062084168	-1.956300E+01
212	  0.062284570	-5.846000E+00	  0.062284570	-1.330460E+02	  0.062284570	1.890500E+01	  0.062284570	-1.905200E+01
213	  0.062484972	-5.844000E+00	  0.062484972	-1.341680E+02	  0.062484972	1.875900E+01	  0.062484972	-1.856500E+01
214	  0.062685370	-5.851000E+00	  0.062685370	-1.353630E+02	  0.062685370	1.863700E+01	  0.062685370	-1.804100E+01
215	  0.062885776	-5.853000E+00	  0.062885776	-1.365090E+02	  0.062885776	1.851000E+01	  0.062885776	-1.754500E+01
216	  0.063086174	-5.862000E+00	  0.063086174	-1.376400E+02	  0.063086174	1.840900E+01	  0.063086174	-1.705300E+01
217	  0.063286573	-5.864000E+00	  0.063286573	-1.388170E+02	  0.063286573	1.829000E+01	  0.063286573	-1.654900E+01
218	  0.063486971	-5.869000E+00	  0.063486971	-1.399520E+02	  0.063486971	1.818600E+01	  0.063486971	-1.606300E+01
219	  0.063687377	-5.869000E+00	  0.063687377	-1.410740E+02	  0.063687377	1.807100E+01	  0.063687377	-1.559000E+01
220	  0.063887775	-5.873000E+00	  0.063887775	-1.422170E+02	  0.063887775	1.797300E+01	  0.063887775	-1.510600E+01
221	  0.064088173	-5.875000E+00	  0.064088173	-1.433810E+02	  0.064088173	1.787000E+01	  0.064088173	-1.461700E+01
222	  0.064288579	-5.879000E+00	  0.064288579	-1.445240E+02	  0.064288579	1.777900E+01	  0.064288579	-1.413800E+01
223	  0.064488977	-5.884000E+00	  0.064488977	-1.456620E+02	  0.064488977	1.769300E+01	  0.064488977	-1.366300E+01
224	  0.064689375	-5.886000E+00	  0.064689375	-1.467770E+02	  0.064689375	1.760800E+01	  0.064689375	-1.320100E+01
225	  0.064889781	-5.889000E+00	  0.064889781	-1.479240E+02	  0.064889781	1.752500E+01	  0.064889781	-1.272700E+01
226	  0.065090179	-5.889000E+00	  0.065090179	-1.490220E+02	  0.065090179	1.744100E+01	  0.065090179	-1.227600E+01
227	  0.065290578	-5.896000E+00	  0.065290578	-1.501460E+02	  0.065290578	1.737700E+01	  0.065290578	-1.181400E+01
228	  0.065490983	-5.894000E+00	  0.065490983	-1.512230E+02	  0.065490983	1.729700E+01	  0.065490983	-1.137600E+01
229	  0.065691382	-5.894000E+00	  0.065691382	-1.523460E+02	  0.065691382	1.722000E+01	  0.065691382	-1.092000E+01
230	  0.065891780	-5.896000E+00	  0.065891780	-1.534540E+02	  0.065891780	1.715400E+01	  0.065891780	-1.047100E+01
231	  0.066092186	-5.898000E+00	  0.066092186	-1.545710E+02	  0.066092186	1.709300E+01	  0.066092186	-1.001900E+01
232	  0.066292584	-5.899000E+00	  0.066292584	-1.556370E+02	  0.066292584	1.703300E+01	  0.066292584	-9.590000E+00
233	  0.066492982	-5.902000E+00	  0.066492982	-1.567250E+02	  0.066492982	1.698100E+01	  0.066492982	-9.152000E+00
234	  0.066693388	-5.905000E+00	  0.066693388	-1.578170E+02	  0.066693388	1.693100E+01	  0.066693388	-8.714000E+00
235	  0.066893786	-5.908000E+00	  0.066893786	-1.588650E+02	  0.066893786	1.688500E+01	  0.066893786	-8.295000E+00
236	  0.067094192	-5.908000E+00	  0.067094192	-1.599340E+02	  0.067094192	1.683500E+01	  0.067094192	-7.869000E+00
237	  0.067294590	-5.911000E+00	  0.067294590	-1.609930E+02	  0.067294590	1.679400E+01	  0.067294590	-7.448000E+00
238	  0.067494988	-5.918000E+00	  0.067494988	-1.620360E+02	  0.067494988	1.676900E+01	  0.067494988	-7.033000E+00
239	  0.067695394	-5.917000E+00	  0.067695394	-1.630810E+02	  0.067695394	1.672400E+01	  0.067695394	-6.620000E+00
240	  0.067895792	-5.915000E+00	  0.067895792	-1.641410E+02	  0.067895792	1.668100E+01	  0.067895792	-6.202000E+00
241	  0.068096191	-5.923000E+00	  0.068096191	-1.651780E+02	  0.068096191	1.666600E+01	  0.068096191	-5.791000E+00
242	  0.068296596	-5.926000E+00	  0.068296596	-1.662100E+02	  0.068296596	1.663800E+01	  0.068296596	-5.385000E+00
243	  0.068496995	-5.929000E+00	  0.068496995	-1.672410E+02	  0.068496995	1.661500E+01	  0.068496995	-4.979000E+00
244	  0.068697393	-5.932000E+00	  0.068697393	-1.682760E+02	  0.068697393	1.659600E+01	  0.068697393	-4.572000E+00
245	  0.068897791	-5.933000E+00	  0.068897791	-1.692870E+02	  0.068897791	1.657200E+01	  0.068897791	-4.176000E+00
246	  0.069098189	-5.933000E+00	  0.069098189	-1.703180E+02	  0.069098189	1.654900E+01	  0.069098189	-3.773000E+00
247	  0.069298595	-5.935000E+00	  0.069298595	-1.713080E+02	  0.069298595	1.653400E+01	  0.069298595	-3.386000E+00
248	  0.069498993	-5.944000E+00	  0.069498993	-1.723300E+02	  0.069498993	1.653800E+01	  0.069498993	-2.986000E+00
249	  0.069699399	-5.944000E+00	  0.069699399	-1.733810E+02	  0.069699399	1.651900E+01	  0.069699399	-2.576000E+00
250	  0.069899797	-5.951000E+00	  0.069899797	-1.743600E+02	  0.069899797	1.652500E+01	  0.069899797	-2.194000E+00
251	  0.070100196	-5.956000E+00	  0.070100196	-1.753490E+02	  0.070100196	1.652700E+01	  0.070100196	-1.808000E+00
252	  0.070300601	-5.959000E+00	  0.070300601	-1.763440E+02	  0.070300601	1.652500E+01	  0.070300601	-1.421000E+00
253	  0.070501000	-5.964000E+00	  0.070501000	-1.773490E+02	  0.070501000	1.653100E+01	  0.070501000	-1.030000E+00
254	  0.070701398	-5.964000E+00	  0.070701398	-1.783250E+02	  0.070701398	1.652600E+01	  0.070701398	-6.500000E-01
255	  0.070901804	-5.970000E+00	  0.070901804	-1.792970E+02	  0.070901804	1.653800E+01	  0.070901804	-2.720000E-01
256	  0.071102202	-5.975000E+00	  0.071102202	1.797150E+02	  0.071102202	1.655000E+01	  0.071102202	1.100000E-01
257	  0.071302600	-5.979000E+00	  0.071302600	1.787080E+02	  0.071302600	1.656200E+01	  0.071302600	5.010000E-01
258	  0.071503006	-5.986000E+00	  0.071503006	1.777170E+02	  0.071503006	1.658400E+01	  0.071503006	8.860000E-01
259	  0.071703404	-5.997000E+00	  0.071703404	1.767660E+02	  0.071703404	1.661800E+01	  0.071703404	1.255000E+00
260	  0.071903802	-6.001000E+00	  0.071903802	1.757910E+02	  0.071903802	1.663800E+01	  0.071903802	1.634000E+00
261	  0.072104208	-6.002000E+00	  0.072104208	1.748090E+02	  0.072104208	1.665100E+01	  0.072104208	2.015000E+00
262	  0.072304606	-6.011000E+00	  0.072304606	1.738340E+02	  0.072304606	1.668600E+01	  0.072304606	2.393000E+00
263	  0.072505005	-6.021000E+00	  0.072505005	1.728790E+02	  0.072505005	1.672600E+01	  0.072505005	2.764000E+00
264	  0.072705410	-6.027000E+00	  0.072705410	1.719270E+02	  0.072705410	1.675800E+01	  0.072705410	3.133000E+00
265	  0.072905809	-6.034000E+00	  0.072905809	1.709360E+02	  0.072905809	1.679400E+01	  0.072905809	3.518000E+00
266	  0.073106214	-6.042000E+00	  0.073106214	1.699840E+02	  0.073106214	1.683500E+01	  0.073106214	3.887000E+00
267	  0.073306613	-6.052000E+00	  0.073306613	1.690230E+02	  0.073306613	1.688400E+01	  0.073306613	4.260000E+00
268	  0.073507011	-6.061000E+00	  0.073507011	1.680680E+02	  0.073507011	1.693300E+01	  0.073507011	4.631000E+00
269	  0.073707417	-6.067000E+00	  0.073707417	1.671160E+02	  0.073707417	1.697600E+01	  0.073707417	5.001000E+00
270	  0.073907815	-6.074000E+00	  0.073907815	1.661630E+02	  0.073907815	1.702300E+01	  0.073907815	5.372000E+00
271	  0.074108213	-6.081000E+00	  0.074108213	1.652140E+02	  0.074108213	1.707200E+01	  0.074108213	5.742000E+00
272	  0.074308619	-6.092000E+00	  0.074308619	1.642700E+02	  0.074308619	1.713400E+01	  0.074308619	6.109000E+00
273	  0.074509017	-6.097000E+00	  0.074509017	1.633110E+02	  0.074509017	1.718300E+01	  0.074509017	6.483000E+00
274	  0.074709415	-6.103000E+00	  0.074709415	1.623530E+02	  0.074709415	1.723800E+01	  0.074709415	6.857000E+00
275	  0.074909821	-6.113000E+00	  0.074909821	1.614210E+02	  0.074909821	1.730400E+01	  0.074909821	7.221000E+00
276	  0.075110219	-6.122000E+00	  0.075110219	1.604870E+02	  0.075110219	1.736800E+01	  0.075110219	7.586000E+00
277	  0.075310618	-6.132000E+00	  0.075310618	1.595730E+02	  0.075310618	1.743600E+01	  0.075310618	7.943000E+00
278	  0.075511023	-6.134000E+00	  0.075511023	1.586450E+02	  0.075511023	1.748800E+01	  0.075511023	8.308000E+00
279	  0.075711422	-6.140000E+00	  0.075711422	1.577490E+02	  0.075711422	1.755000E+01	  0.075711422	8.660000E+00
280	  0.075911827	-6.148000E+00	  0.075911827	1.568120E+02	  0.075911827	1.762200E+01	  0.075911827	9.029000E+00
281	  0.076112226	-6.154000E+00	  0.076112226	1.559210E+02	  0.076112226	1.768800E+01	  0.076112226	9.380000E+00
282	  0.076312624	-6.161000E+00	  0.076312624	1.549830E+02	  0.076312624	1.776300E+01	  0.076312624	9.750000E+00
283	  0.076513030	-6.171000E+00	  0.076513030	1.541060E+02	  0.076513030	1.784100E+01	  0.076513030	1.009500E+01
284	  0.076713428	-6.178000E+00	  0.076713428	1.531780E+02	  0.076713428	1.792200E+01	  0.076713428	1.046200E+01
285	  0.076913826	-6.185000E+00	  0.076913826	1.523110E+02	  0.076913826	1.799700E+01	  0.076913826	1.080600E+01
286	  0.077114232	-6.192000E+00	  0.077114232	1.514210E+02	  0.077114232	1.807700E+01	  0.077114232	1.115900E+01
287	  0.077314630	-6.197000E+00	  0.077314630	1.505440E+02	  0.077314630	1.815300E+01	  0.077314630	1.150900E+01
288	  0.077515028	-6.206000E+00	  0.077515028	1.496860E+02	  0.077515028	1.824100E+01	  0.077515028	1.185000E+01
289	  0.077715434	-6.216000E+00	  0.077715434	1.488130E+02	  0.077715434	1.833500E+01	  0.077715434	1.219600E+01
290	  0.077915832	-6.223000E+00	  0.077915832	1.479600E+02	  0.077915832	1.842000E+01	  0.077915832	1.253800E+01
291	  0.078116231	-6.231000E+00	  0.078116231	1.470970E+02	  0.078116231	1.851200E+01	  0.078116231	1.288300E+01
292	  0.078316636	-6.239000E+00	  0.078316636	1.462300E+02	  0.078316636	1.860800E+01	  0.078316636	1.323000E+01
293	  0.078517035	-6.249000E+00	  0.078517035	1.453760E+02	  0.078517035	1.870900E+01	  0.078517035	1.357200E+01
294	  0.078717433	-6.261000E+00	  0.078717433	1.445170E+02	  0.078717433	1.881800E+01	  0.078717433	1.391500E+01
295	  0.078917839	-6.276000E+00	  0.078917839	1.436730E+02	  0.078917839	1.893700E+01	  0.078917839	1.425100E+01
296	  0.079118237	-6.287000E+00	  0.079118237	1.428470E+02	  0.079118237	1.904600E+01	  0.079118237	1.458300E+01
297	  0.079318643	-6.299000E+00	  0.079318643	1.420050E+02	  0.079318643	1.916200E+01	  0.079318643	1.492100E+01
298	  0.079519041	-6.311000E+00	  0.079519041	1.412040E+02	  0.079519041	1.927500E+01	  0.079519041	1.524200E+01
299	  0.079719439	-6.324000E+00	  0.079719439	1.403360E+02	  0.079719439	1.940000E+01	  0.079719439	1.559200E+01
300	  0.079919845	-6.339000E+00	  0.079919845	1.395170E+02	  0.079919845	1.952800E+01	  0.079919845	1.592000E+01
301	  0.080120243	-6.356000E+00	  0.080120243	1.386560E+02	  0.080120243	1.967000E+01	  0.080120243	1.626400E+01
302	  0.080320641	-6.370000E+00	  0.080320641	1.378370E+02	  0.080320641	1.980100E+01	  0.080320641	1.659400E+01
303	  0.080521047	-6.387000E+00	  0.080521047	1.369880E+02	  0.080521047	1.994600E+01	  0.080521047	1.693500E+01
304	  0.080721445	-6.404000E+00	  0.080721445	1.361780E+02	  0.080721445	2.009100E+01	  0.080721445	1.725900E+01
305	  0.080921844	-6.422000E+00	  0.080921844	1.353660E+02	  0.080921844	2.024000E+01	  0.080921844	1.758400E+01
306	  0.081122249	-6.439000E+00	  0.081122249	1.345170E+02	  0.081122249	2.039400E+01	  0.081122249	1.792600E+01
307	  0.081322648	-6.456000E+00	  0.081322648	1.337180E+02	  0.081322648	2.054300E+01	  0.081322648	1.824800E+01
308	  0.081523046	-6.475000E+00	  0.081523046	1.328460E+02	  0.081523046	2.071200E+01	  0.081523046	1.859800E+01
309	  0.081723452	-6.493000E+00	  0.081723452	1.320170E+02	  0.081723452	2.087500E+01	  0.081723452	1.893200E+01
310	  0.081923850	-6.506000E+00	  0.081923850	1.311900E+02	  0.081923850	2.102700E+01	  0.081923850	1.927100E+01
311	  0.082124248	-6.526000E+00	  0.082124248	1.303500E+02	  0.082124248	2.120400E+01	  0.082124248	1.960800E+01
312	  0.082324654	-6.542000E+00	  0.082324654	1.295560E+02	  0.082324654	2.136400E+01	  0.082324654	1.993100E+01
313	  0.082525052	-6.561000E+00	  0.082525052	1.287210E+02	  0.082525052	2.154500E+01	  0.082525052	2.026800E+01
314	  0.082725458	-6.583000E+00	  0.082725458	1.278940E+02	  0.082725458	2.173300E+01	  0.082725458	2.059900E+01
315	  0.082925856	-6.599000E+00	  0.082925856	1.270790E+02	  0.082925856	2.191000E+01	  0.082925856	2.093100E+01
316	  0.083126254	-6.623000E+00	  0.083126254	1.262630E+02	  0.083126254	2.210800E+01	  0.083126254	2.125600E+01
317	  0.083326660	-6.641000E+00	  0.083326660	1.254250E+02	  0.083326660	2.229900E+01	  0.083326660	2.159700E+01
318	  0.083527058	-6.656000E+00	  0.083527058	1.245930E+02	  0.083527058	2.248300E+01	  0.083527058	2.193900E+01
319	  0.083727457	-6.678000E+00	  0.083727457	1.238010E+02	  0.083727457	2.268300E+01	  0.083727457	2.225700E+01
320	  0.083927862	-6.696000E+00	  0.083927862	1.229850E+02	  0.083927862	2.288100E+01	  0.083927862	2.258900E+01
321	  0.084128261	-6.717000E+00	  0.084128261	1.221750E+02	  0.084128261	2.309000E+01	  0.084128261	2.291500E+01
322	  0.084328659	-6.737000E+00	  0.084328659	1.213700E+02	  0.084328659	2.329700E+01	  0.084328659	2.324100E+01
323	  0.084529065	-6.762000E+00	  0.084529065	1.205850E+02	  0.084529065	2.352000E+01	  0.084529065	2.355200E+01
324	  0.084729463	-6.784000E+00	  0.084729463	1.197960E+02	  0.084729463	2.373500E+01	  0.084729463	2.386900E+01
325	  0.084929854	-6.799000E+00	  0.084929854	1.189740E+02	  0.084929854	2.394500E+01	  0.084929854	2.420900E+01
326	  0.085130259	-6.820000E+00	  0.085130259	1.181740E+02	  0.085130259	2.416800E+01	  0.085130259	2.453200E+01
327	  0.085330658	-6.843000E+00	  0.085330658	1.173770E+02	  0.085330658	2.440200E+01	  0.085330658	2.485100E+01
328	  0.085531056	-6.860000E+00	  0.085531056	1.165830E+02	  0.085531056	2.462200E+01	  0.085531056	2.517600E+01
329	  0.085731462	-6.884000E+00	  0.085731462	1.157810E+02	  0.085731462	2.486800E+01	  0.085731462	2.549500E+01
330	  0.085931860	-6.906000E+00	  0.085931860	1.150210E+02	  0.085931860	2.510200E+01	  0.085931860	2.579900E+01
331	  0.086132258	-6.929000E+00	  0.086132258	1.142590E+02	  0.086132258	2.534200E+01	  0.086132258	2.610300E+01
332	  0.086332664	-6.952000E+00	  0.086332664	1.134920E+02	  0.086332664	2.559000E+01	  0.086332664	2.640700E+01
333	  0.086533062	-6.974000E+00	  0.086533062	1.127580E+02	  0.086533062	2.582900E+01	  0.086533062	2.669800E+01
334	  0.086733460	-6.996000E+00	  0.086733460	1.119890E+02	  0.086733460	2.607900E+01	  0.086733460	2.700500E+01
335	  0.086933866	-7.017000E+00	  0.086933866	1.112150E+02	  0.086933866	2.633400E+01	  0.086933866	2.731500E+01
336	  0.087134264	-7.037000E+00	  0.087134264	1.104690E+02	  0.087134264	2.658200E+01	  0.087134264	2.761400E+01
337	  0.087334670	-7.063000E+00	  0.087334670	1.097350E+02	  0.087334670	2.684800E+01	  0.087334670	2.789700E+01
338	  0.087535068	-7.085000E+00	  0.087535068	1.089920E+02	  0.087535068	2.710900E+01	  0.087535068	2.819200E+01
339	  0.087735467	-7.110000E+00	  0.087735467	1.082780E+02	  0.087735467	2.737500E+01	  0.087735467	2.846600E+01
340	  0.087935872	-7.134000E+00	  0.087935872	1.075630E+02	  0.087935872	2.764400E+01	  0.087935872	2.874100E+01
341	  0.088136271	-7.160000E+00	  0.088136271	1.068290E+02	  0.088136271	2.792500E+01	  0.088136271	2.902200E+01
342	  0.088336669	-7.178000E+00	  0.088336669	1.061240E+02	  0.088336669	2.818000E+01	  0.088336669	2.930300E+01
343	  0.088537075	-7.205000E+00	  0.088537075	1.054280E+02	  0.088537075	2.846000E+01	  0.088537075	2.956400E+01
344	  0.088737473	-7.224000E+00	  0.088737473	1.047140E+02	  0.088737473	2.873000E+01	  0.088737473	2.984500E+01
345	  0.088937871	-7.248000E+00	  0.088937871	1.040090E+02	  0.088937871	2.901400E+01	  0.088937871	3.011300E+01
346	  0.089138277	-7.269000E+00	  0.089138277	1.033230E+02	  0.089138277	2.928500E+01	  0.089138277	3.037900E+01
347	  0.089338675	-7.296000E+00	  0.089338675	1.026420E+02	  0.089338675	2.957900E+01	  0.089338675	3.062700E+01
348	  0.089539073	-7.321000E+00	  0.089539073	1.019910E+02	  0.089539073	2.986000E+01	  0.089539073	3.086500E+01
349	  0.089739479	-7.351000E+00	  0.089739479	1.013510E+02	  0.089739479	3.015600E+01	  0.089739479	3.108800E+01
350	  0.089939877	-7.372000E+00	  0.089939877	1.006570E+02	  0.089939877	3.044900E+01	  0.089939877	3.135000E+01
351	  0.090140276	-7.398000E+00	  0.090140276	9.999600E+01	  0.090140276	3.074600E+01	  0.090140276	3.158800E+01
352	  0.090340681	-7.424000E+00	  0.090340681	9.936200E+01	  0.090340681	3.104100E+01	  0.090340681	3.181100E+01
353	  0.090541080	-7.449000E+00	  0.090541080	9.867800E+01	  0.090541080	3.135000E+01	  0.090541080	3.205900E+01
354	  0.090741485	-7.478000E+00	  0.090741485	9.803400E+01	  0.090741485	3.166300E+01	  0.090741485	3.227600E+01
355	  0.090941884	-7.500000E+00	  0.090941884	9.738500E+01	  0.090941884	3.196200E+01	  0.090941884	3.251100E+01
356	  0.091142282	-7.533000E+00	  0.091142282	9.675500E+01	  0.091142282	3.228800E+01	  0.091142282	3.271000E+01
357	  0.091342688	-7.562000E+00	  0.091342688	9.610800E+01	  0.091342688	3.261300E+01	  0.091342688	3.292300E+01
358	  0.091543086	-7.595000E+00	  0.091543086	9.545200E+01	  0.091543086	3.295700E+01	  0.091543086	3.312900E+01
359	  0.091743484	-7.620000E+00	  0.091743484	9.478800E+01	  0.091743484	3.328300E+01	  0.091743484	3.335800E+01
360	  0.091943890	-7.651000E+00	  0.091943890	9.416700E+01	  0.091943890	3.361600E+01	  0.091943890	3.354700E+01
361	  0.092144288	-7.677000E+00	  0.092144288	9.348700E+01	  0.092144288	3.396000E+01	  0.092144288	3.377600E+01
362	  0.092344686	-7.710000E+00	  0.092344686	9.285200E+01	  0.092344686	3.431000E+01	  0.092344686	3.396400E+01
363	  0.092545092	-7.735000E+00	  0.092545092	9.220300E+01	  0.092545092	3.464800E+01	  0.092545092	3.417500E+01
364	  0.092745490	-7.762000E+00	  0.092745490	9.156300E+01	  0.092745490	3.499200E+01	  0.092745490	3.437500E+01
365	  0.092945889	-7.799000E+00	  0.092945889	9.092100E+01	  0.092945889	3.536600E+01	  0.092945889	3.454800E+01
366	  0.093146294	-7.825000E+00	  0.093146294	9.028900E+01	  0.093146294	3.571200E+01	  0.093146294	3.474300E+01
367	  0.093346693	-7.857000E+00	  0.093346693	8.963200E+01	  0.093346693	3.608800E+01	  0.093346693	3.492900E+01
368	  0.093547091	-7.885000E+00	  0.093547091	8.903800E+01	  0.093547091	3.642800E+01	  0.093547091	3.509800E+01
369	  0.093747497	-7.921000E+00	  0.093747497	8.840600E+01	  0.093747497	3.681300E+01	  0.093747497	3.525300E+01
370	  0.093947895	-7.943000E+00	  0.093947895	8.774000E+01	  0.093947895	3.717700E+01	  0.093947895	3.546500E+01
371	  0.094148301	-7.980000E+00	  0.094148301	8.712000E+01	  0.094148301	3.756500E+01	  0.094148301	3.560800E+01
372	  0.094348699	-8.006000E+00	  0.094348699	8.650700E+01	  0.094348699	3.792200E+01	  0.094348699	3.578000E+01
373	  0.094549097	-8.039000E+00	  0.094549097	8.592600E+01	  0.094549097	3.828900E+01	  0.094549097	3.591100E+01
374	  0.094749503	-8.068000E+00	  0.094749503	8.529800E+01	  0.094749503	3.867000E+01	  0.094749503	3.607200E+01
375	  0.094949901	-8.102000E+00	  0.094949901	8.469600E+01	  0.094949901	3.905400E+01	  0.094949901	3.620500E+01
376	  0.095150299	-8.132000E+00	  0.095150299	8.415600E+01	  0.095150299	3.940100E+01	  0.095150299	3.632000E+01
377	  0.095350705	-8.162000E+00	  0.095350705	8.353000E+01	  0.095350705	3.979400E+01	  0.095350705	3.646800E+01
378	  0.095551103	-8.191000E+00	  0.095551103	8.293900E+01	  0.095551103	4.017100E+01	  0.095551103	3.660000E+01
379	  0.095751502	-8.220000E+00	  0.095751502	8.233100E+01	  0.095751502	4.055900E+01	  0.095751502	3.673700E+01
380	  0.095951907	-8.247000E+00	  0.095951907	8.179100E+01	  0.095951907	4.090900E+01	  0.095951907	3.685000E+01
381	  0.096152306	-8.278000E+00	  0.096152306	8.120500E+01	  0.096152306	4.129800E+01	  0.096152306	3.696200E+01
382	  0.096352704	-8.311000E+00	  0.096352704	8.068600E+01	  0.096352704	4.165800E+01	  0.096352704	3.704100E+01
383	  0.096553110	-8.338000E+00	  0.096553110	8.009600E+01	  0.096553110	4.204300E+01	  0.096553110	3.716300E+01
384	  0.096753508	-8.367000E+00	  0.096753508	7.957900E+01	  0.096753508	4.239600E+01	  0.096753508	3.724900E+01
385	  0.096953906	-8.399000E+00	  0.096953906	7.906900E+01	  0.096953906	4.275500E+01	  0.096953906	3.731700E+01
386	  0.097154312	-8.433000E+00	  0.097154312	7.853000E+01	  0.097154312	4.313700E+01	  0.097154312	3.738500E+01
387	  0.097354710	-8.461000E+00	  0.097354710	7.799700E+01	  0.097354710	4.350600E+01	  0.097354710	3.746700E+01
388	  0.097555116	-8.491000E+00	  0.097555116	7.748100E+01	  0.097555116	4.387000E+01	  0.097555116	3.753300E+01
389	  0.097755514	-8.527000E+00	  0.097755514	7.699000E+01	  0.097755514	4.423300E+01	  0.097755514	3.756800E+01
390	  0.097955912	-8.557000E+00	  0.097955912	7.647000E+01	  0.097955912	4.460400E+01	  0.097955912	3.762900E+01
391	  0.098156318	-8.588000E+00	  0.098156318	7.598200E+01	  0.098156318	4.495900E+01	  0.098156318	3.767000E+01
392	  0.098356716	-8.621000E+00	  0.098356716	7.551300E+01	  0.098356716	4.530900E+01	  0.098356716	3.769600E+01
393	  0.098557115	-8.655000E+00	  0.098557115	7.497300E+01	  0.098557115	4.570500E+01	  0.098557115	3.773600E+01
394	  0.098757520	-8.681000E+00	  0.098757520	7.449400E+01	  0.098757520	4.605000E+01	  0.098757520	3.778200E+01
395	  0.098957919	-8.713000E+00	  0.098957919	7.397300E+01	  0.098957919	4.643300E+01	  0.098957919	3.781800E+01
396	  0.099158317	-8.743000E+00	  0.099158317	7.344400E+01	  0.099158317	4.682100E+01	  0.099158317	3.785600E+01
397	  0.099358723	-8.773000E+00	  0.099358723	7.302700E+01	  0.099358723	4.713800E+01	  0.099358723	3.786100E+01
398	  0.099559121	-8.805000E+00	  0.099559121	7.251100E+01	  0.099559121	4.752400E+01	  0.099559121	3.788000E+01
399	  0.099759519	-8.834000E+00	  0.099759519	7.201600E+01	  0.099759519	4.789100E+01	  0.099759519	3.790500E+01
400	  0.099959925	-8.855000E+00	  0.099959925	7.153900E+01	  0.099959925	4.823400E+01	  0.099959925	3.795200E+01
401	  0.100160323	-8.884000E+00	  0.100160323	7.105700E+01	  0.100160323	4.859700E+01	  0.100160323	3.796300E+01
402	  0.100360721	-8.904000E+00	  0.100360721	7.055800E+01	  0.100360721	4.895600E+01	  0.100360721	3.801200E+01
403	  0.100561127	-8.931000E+00	  0.100561127	7.005400E+01	  0.100561127	4.933200E+01	  0.100561127	3.803200E+01
404	  0.100761525	-8.948000E+00	  0.100761525	6.962100E+01	  0.100761525	4.964700E+01	  0.100761525	3.807000E+01
405	  0.100961931	-8.977000E+00	  0.100961931	6.909700E+01	  0.100961931	5.004200E+01	  0.100961931	3.808000E+01
406	  0.101162329	-8.989000E+00	  0.101162329	6.871300E+01	  0.101162329	5.031900E+01	  0.101162329	3.812000E+01
407	  0.101362728	-9.013000E+00	  0.101362728	6.826800E+01	  0.101362728	5.065500E+01	  0.101362728	3.812700E+01
408	  0.101563133	-9.021000E+00	  0.101563133	6.782800E+01	  0.101563133	5.096600E+01	  0.101563133	3.819500E+01
409	  0.101763532	-9.047000E+00	  0.101763532	6.744000E+01	  0.101763532	5.127200E+01	  0.101763532	3.816700E+01
410	  0.101963930	-9.057000E+00	  0.101963930	6.705500E+01	  0.101963930	5.155100E+01	  0.101963930	3.821100E+01
411	  0.102164328	-9.081000E+00	  0.102164328	6.654100E+01	  0.102164328	5.194000E+01	  0.102164328	3.821700E+01
412	  0.102364726	-9.079000E+00	  0.102364726	6.613800E+01	  0.102364726	5.221800E+01	  0.102364726	3.831500E+01
413	  0.102565125	-9.091000E+00	  0.102565125	6.580200E+01	  0.102565125	5.247000E+01	  0.102565125	3.833000E+01
414	  0.102765530	-9.097000E+00	  0.102765530	6.536600E+01	  0.102765530	5.278500E+01	  0.102765530	3.839600E+01
415	  0.102965929	-9.103000E+00	  0.102965929	6.499700E+01	  0.102965929	5.305600E+01	  0.102965929	3.844200E+01
416	  0.103166327	-9.116000E+00	  0.103166327	6.466200E+01	  0.103166327	5.331300E+01	  0.103166327	3.844700E+01
417	  0.103366733	-9.118000E+00	  0.103366733	6.433500E+01	  0.103366733	5.355000E+01	  0.103366733	3.850100E+01
418	  0.103567131	-9.128000E+00	  0.103567131	6.392900E+01	  0.103567131	5.385500E+01	  0.103567131	3.853400E+01
419	  0.103767529	-9.143000E+00	  0.103767529	6.356800E+01	  0.103767529	5.413500E+01	  0.103767529	3.853100E+01
420	  0.103967935	-9.152000E+00	  0.103967935	6.323500E+01	  0.103967935	5.439000E+01	  0.103967935	3.854600E+01
421	  0.104168333	-9.146000E+00	  0.104168333	6.290300E+01	  0.104168333	5.462700E+01	  0.104168333	3.863200E+01
422	  0.104368731	-9.155000E+00	  0.104368731	6.255400E+01	  0.104368731	5.489500E+01	  0.104368731	3.864900E+01
423	  0.104569137	-9.155000E+00	  0.104569137	6.223800E+01	  0.104569137	5.512800E+01	  0.104569137	3.870700E+01
424	  0.104769535	-9.169000E+00	  0.104769535	6.192900E+01	  0.104769535	5.537500E+01	  0.104769535	3.868600E+01
425	  0.104969934	-9.168000E+00	  0.104969934	6.152400E+01	  0.104969934	5.567700E+01	  0.104969934	3.875900E+01
426	  0.105170339	-9.173000E+00	  0.105170339	6.117400E+01	  0.105170339	5.594800E+01	  0.105170339	3.878400E+01
427	  0.105370738	-9.190000E+00	  0.105370738	6.080900E+01	  0.105370738	5.624100E+01	  0.105370738	3.875800E+01
428	  0.105571143	-9.188000E+00	  0.105571143	6.045200E+01	  0.105571143	5.651200E+01	  0.105571143	3.881600E+01
429	  0.105771542	-9.204000E+00	  0.105771542	5.999500E+01	  0.105771542	5.687800E+01	  0.105771542	3.879800E+01
430	  0.105971940	-9.212000E+00	  0.105971940	5.962200E+01	  0.105971940	5.717200E+01	  0.105971940	3.880700E+01
431	  0.106172346	-9.214000E+00	  0.106172346	5.923500E+01	  0.106172346	5.747400E+01	  0.106172346	3.884600E+01
432	  0.106372744	-9.223000E+00	  0.106372744	5.875800E+01	  0.106372744	5.785500E+01	  0.106372744	3.885600E+01
433	  0.106573142	-9.225000E+00	  0.106573142	5.832800E+01	  0.106573142	5.819500E+01	  0.106573142	3.889400E+01
434	  0.106773548	-9.227000E+00	  0.106773548	5.782100E+01	  0.106773548	5.859800E+01	  0.106773548	3.893700E+01
435	  0.106973946	-9.234000E+00	  0.106973946	5.733600E+01	  0.106973946	5.899100E+01	  0.106973946	3.894800E+01
436	  0.107174344	-9.246000E+00	  0.107174344	5.685000E+01	  0.107174344	5.938900E+01	  0.107174344	3.892900E+01
437	  0.107374750	-9.240000E+00	  0.107374750	5.632800E+01	  0.107374750	5.980900E+01	  0.107374750	3.900200E+01
438	  0.107575148	-9.247000E+00	  0.107575148	5.573600E+01	  0.107575148	6.029600E+01	  0.107575148	3.900900E+01
439	  0.107775547	-9.242000E+00	  0.107775547	5.521200E+01	  0.107775547	6.072600E+01	  0.107775547	3.907000E+01
440	  0.107975952	-9.242000E+00	  0.107975952	5.464300E+01	  0.107975952	6.119900E+01	  0.107975952	3.909600E+01
441	  0.108176351	-9.234000E+00	  0.108176351	5.406900E+01	  0.108176351	6.167800E+01	  0.108176351	3.916900E+01
442	  0.108376749	-9.232000E+00	  0.108376749	5.349200E+01	  0.108376749	6.216700E+01	  0.108376749	3.920200E+01
443	  0.108577155	-9.217000E+00	  0.108577155	5.288700E+01	  0.108577155	6.268200E+01	  0.108577155	3.930000E+01
444	  0.108777553	-9.222000E+00	  0.108777553	5.229200E+01	  0.108777553	6.319700E+01	  0.108777553	3.927800E+01
445	  0.108977959	-9.211000E+00	  0.108977959	5.165800E+01	  0.108977959	6.374800E+01	  0.108977959	3.934600E+01
446	  0.109178357	-9.197000E+00	  0.109178357	5.103400E+01	  0.109178357	6.429800E+01	  0.109178357	3.942400E+01
447	  0.109378755	-9.183000E+00	  0.109378755	5.041800E+01	  0.109378755	6.484800E+01	  0.109378755	3.949200E+01
448	  0.109579161	-9.179000E+00	  0.109579161	4.979900E+01	  0.109579161	6.540400E+01	  0.109579161	3.949700E+01
449	  0.109779559	-9.158000E+00	  0.109779559	4.918300E+01	  0.109779559	6.596900E+01	  0.109779559	3.959600E+01
450	  0.109979957	-9.148000E+00	  0.109979957	4.858100E+01	  0.109979957	6.652500E+01	  0.109979957	3.962300E+01
451	  0.110180363	-9.119000E+00	  0.110180363	4.797700E+01	  0.110180363	6.709600E+01	  0.110180363	3.975600E+01
452	  0.110380761	-9.114000E+00	  0.110380761	4.733500E+01	  0.110380761	6.769900E+01	  0.110380761	3.973600E+01
453	  0.110581160	-9.092000E+00	  0.110581160	4.673300E+01	  0.110581160	6.828100E+01	  0.110581160	3.981400E+01
454	  0.110781565	-9.075000E+00	  0.110781565	4.608700E+01	  0.110781565	6.890900E+01	  0.110781565	3.985200E+01
455	  0.110981964	-9.057000E+00	  0.110981964	4.546400E+01	  0.110981964	6.952400E+01	  0.110981964	3.989300E+01
456	  0.111182362	-9.052000E+00	  0.111182362	4.491100E+01	  0.111182362	7.006600E+01	  0.111182362	3.985000E+01
457	  0.111382768	-9.035000E+00	  0.111382768	4.427900E+01	  0.111382768	7.070100E+01	  0.111382768	3.986100E+01
458	  0.111583166	-9.023000E+00	  0.111583166	4.363900E+01	  0.111583166	7.134700E+01	  0.111583166	3.983300E+01
459	  0.111783572	-9.013000E+00	  0.111783572	4.305700E+01	  0.111783572	7.193800E+01	  0.111783572	3.979100E+01
460	  0.111983970	-9.008000E+00	  0.111983970	4.244400E+01	  0.111983970	7.255900E+01	  0.111983970	3.970100E+01
461	  0.112184368	-9.000000E+00	  0.112184368	4.180000E+01	  0.112184368	7.322000E+01	  0.112184368	3.961600E+01
462	  0.112384774	-8.995000E+00	  0.112384774	4.115900E+01	  0.112384774	7.387900E+01	  0.112384774	3.950000E+01
463	  0.112585172	-9.000000E+00	  0.112585172	4.052000E+01	  0.112585172	7.452400E+01	  0.112585172	3.930700E+01
464	  0.112785570	-8.995000E+00	  0.112785570	3.984800E+01	  0.112785570	7.522100E+01	  0.112785570	3.915400E+01
465	  0.112985976	-8.994000E+00	  0.112985976	3.920400E+01	  0.112985976	7.588700E+01	  0.112985976	3.897000E+01
466	  0.113186374	-8.995000E+00	  0.113186374	3.849400E+01	  0.113186374	7.661900E+01	  0.113186374	3.873900E+01
467	  0.113386773	-9.010000E+00	  0.113386773	3.779400E+01	  0.113386773	7.731100E+01	  0.113386773	3.840100E+01
468	  0.113587178	-9.014000E+00	  0.113587178	3.706600E+01	  0.113587178	7.805700E+01	  0.113587178	3.811300E+01
469	  0.113787577	-9.023000E+00	  0.113787577	3.627800E+01	  0.113787577	7.885300E+01	  0.113787577	3.774700E+01
470	  0.113987975	-9.032000E+00	  0.113987975	3.550300E+01	  0.113987975	7.963400E+01	  0.113987975	3.736500E+01
471	  0.114188381	-9.050000E+00	  0.114188381	3.470700E+01	  0.114188381	8.040700E+01	  0.114188381	3.689100E+01
472	  0.114388779	-9.054000E+00	  0.114388779	3.389800E+01	  0.114388779	8.123000E+01	  0.114388779	3.648100E+01
473	  0.114589177	-9.068000E+00	  0.114589177	3.303200E+01	  0.114589177	8.208000E+01	  0.114589177	3.595800E+01
474	  0.114789583	-9.077000E+00	  0.114789583	3.218500E+01	  0.114789583	8.291900E+01	  0.114789583	3.544600E+01
475	  0.114989981	-9.094000E+00	  0.114989981	3.129100E+01	  0.114989981	8.377000E+01	  0.114989981	3.483200E+01
476	  0.115190387	-9.100000E+00	  0.115190387	3.039700E+01	  0.115190387	8.465600E+01	  0.115190387	3.426400E+01
477	  0.115390785	-9.114000E+00	  0.115390785	2.944500E+01	  0.115390785	8.555500E+01	  0.115390785	3.356900E+01
478	  0.115591183	-9.128000E+00	  0.115591183	2.855500E+01	  0.115591183	8.638100E+01	  0.115591183	3.289000E+01
479	  0.115791589	-9.148000E+00	  0.115791589	2.755700E+01	  0.115791589	8.727300E+01	  0.115791589	3.206700E+01
480	  0.115991987	-9.153000E+00	  0.115991987	2.661400E+01	  0.115991987	8.816500E+01	  0.115991987	3.134500E+01
481	  0.116192386	-9.170000E+00	  0.116192386	2.565900E+01	  0.116192386	8.899300E+01	  0.116192386	3.050800E+01
482	  0.116392791	-9.181000E+00	  0.116392791	2.466500E+01	  0.116392791	8.987000E+01	  0.116392791	2.964400E+01
483	  0.116593190	-9.194000E+00	  0.116593190	2.366500E+01	  0.116593190	9.071300E+01	  0.116593190	2.872200E+01
484	  0.116793588	-9.210000E+00	  0.116793588	2.265600E+01	  0.116793588	9.152700E+01	  0.116793588	2.774600E+01
485	  0.116993994	-9.229000E+00	  0.116993994	2.167800E+01	  0.116993994	9.226800E+01	  0.116993994	2.674800E+01
486	  0.117194392	-9.243000E+00	  0.117194392	2.069900E+01	  0.117194392	9.301600E+01	  0.117194392	2.575100E+01
487	  0.117394790	-9.261000E+00	  0.117394790	1.965800E+01	  0.117394790	9.375600E+01	  0.117394790	2.464000E+01
488	  0.117595196	-9.280000E+00	  0.117595196	1.866300E+01	  0.117595196	9.441600E+01	  0.117595196	2.353800E+01
489	  0.117795594	-9.301000E+00	  0.117795594	1.770600E+01	  0.117795594	9.500200E+01	  0.117795594	2.244100E+01
490	  0.117995992	-9.324000E+00	  0.117995992	1.667500E+01	  0.117995992	9.558400E+01	  0.117995992	2.122900E+01
491	  0.118196398	-9.355000E+00	  0.118196398	1.566800E+01	  0.118196398	9.605700E+01	  0.118196398	1.998800E+01
492	  0.118396796	-9.392000E+00	  0.118396796	1.463200E+01	  0.118396796	9.646000E+01	  0.118396796	1.867600E+01
493	  0.118597202	-9.419000E+00	  0.118597202	1.352900E+01	  0.118597202	9.692600E+01	  0.118597202	1.731100E+01
494	  0.118797600	-9.462000E+00	  0.118797600	1.255600E+01	  0.118797600	9.714900E+01	  0.118797600	1.602400E+01
