! Anritsu VNA Master:             	Model: MS2036C/10/77
! SN:             	1601066
! /bd0/18may09/254.ns.m9.txt
! Existing Calibration Information:
! TYPE:             	Current Settings	Active Cal Settings
! TIME:             	05/09/2018 01:02:46 PM	05/09/2018 12:54:36 PM
! INTERNAL TEMP:    	58.5 C	58.3 C
! # POINTS:         	494	494
! START FREQ:       	20.000 MHz	20.000 MHz
! STOP FREQ:        	118.797 594 MHz	118.797 594 MHz
! SOURCE POWER:     	High	High
! IFBW:             	50 Hz	50 Hz
! AVG FACTOR:       	  1 	  1 
! REF PLANE 1:      	0 mm	0 mm
! REF PLANE 2:      	0 mm	0 mm
! CAL TYPE:         	Full S22	Full S22
! CAL METHOD:       	SOLT	SOLT
! CAL LINE TYPE:    	Coax	Coax
! DUT PORT 1:       	K-Conn(M)	K-Conn(M)
! DUT PORT 2:       	K-Conn(M)	K-Conn(M)
! CAL STATUS:       	OK: Accuracy High	--
! PROP-V:       	0.700
! CABLE LOSS:       	0.000 dB/m
! REF IMPEDANCE:       	50.0
! Trace Specific Parameters:	TR1	TR2	TR3	TR4
! TRACE.#.Y (GRAPH TYPE)	LOG MAG	PHASE	REAL IMPEDANCE	IMAGINARY IMPEDANCE
! TRACE.#.X 	FREQ.GHZ	FREQ.GHZ	FREQ.GHZ	FREQ.GHZ
! S-PARAMETER	S22	S22	S22	S22
! SMOOTH/APERTURE %	0	0	0	0
! WINDOW	NSL	NSL	NSL	NSL
! GATING	OFF	OFF	OFF	OFF
! FGTD	OFF	OFF	OFF	OFF
Marker Information per Trace:	TR1	TR2	TR3	TR4
!MK1	--	"MK1 TR2:  20.000 MHz,PH:-126.74°"	--	--
!MK2	--	--	"MK2 TR3:  70.100 200 MHz,Z:(16.459 ohm, -1.468 ohm)"	--
!MK3	--	--	--	--
!MK4	--	--	--	--
!MK5	--	--	--	--
!MK6	--	--	--	--
!MK7	--	--	--	--
!MK8	--	--	--	--
PNT	TR1.FREQ.GHZ	TR1.LOG MAG.dB	TR2.FREQ.GHZ	TR2.PHASE.deg	TR3.FREQ.GHZ	TR3.REAL IMPEDANCE.ohm	TR4.FREQ.GHZ	TR4.IMAGINARY IMPEDANCE.ohm
1	  0.020000000	-6.300000E-01	  0.020000000	-1.267410E+02	  0.020000000	2.268000E+00	  0.020000000	-2.502900E+01
2	  0.020200402	-6.350000E-01	  0.020200402	-1.282080E+02	  0.020200402	2.259000E+00	  0.020200402	-2.423300E+01
3	  0.020400802	-6.400000E-01	  0.020400802	-1.296980E+02	  0.020400802	2.246000E+00	  0.020400802	-2.343600E+01
4	  0.020601204	-6.440000E-01	  0.020601204	-1.312050E+02	  0.020601204	2.235000E+00	  0.020601204	-2.264000E+01
5	  0.020801604	-6.480000E-01	  0.020801604	-1.327440E+02	  0.020801604	2.221000E+00	  0.020801604	-2.183600E+01
6	  0.021002004	-6.490000E-01	  0.021002004	-1.342950E+02	  0.021002004	2.198000E+00	  0.021002004	-2.103700E+01
7	  0.021202406	-6.540000E-01	  0.021202406	-1.358530E+02	  0.021202406	2.191000E+00	  0.021202406	-2.024200E+01
8	  0.021402806	-6.570000E-01	  0.021402806	-1.373970E+02	  0.021402806	2.177000E+00	  0.021402806	-1.946300E+01
9	  0.021603208	-6.600000E-01	  0.021603208	-1.389450E+02	  0.021603208	2.167000E+00	  0.021603208	-1.869000E+01
10	  0.021803608	-6.640000E-01	  0.021803608	-1.405050E+02	  0.021803608	2.158000E+00	  0.021803608	-1.791900E+01
11	  0.022004008	-6.700000E-01	  0.022004008	-1.420490E+02	  0.022004008	2.156000E+00	  0.022004008	-1.716300E+01
12	  0.022204408	-6.770000E-01	  0.022204408	-1.436310E+02	  0.022204408	2.160000E+00	  0.022204408	-1.639600E+01
13	  0.022404809	-6.850000E-01	  0.022404809	-1.452220E+02	  0.022404809	2.166000E+00	  0.022404809	-1.563100E+01
14	  0.022605211	-6.890000E-01	  0.022605211	-1.468250E+02	  0.022605211	2.158000E+00	  0.022605211	-1.486800E+01
15	  0.022805611	-6.910000E-01	  0.022805611	-1.484470E+02	  0.022805611	2.149000E+00	  0.022805611	-1.410200E+01
16	  0.023006011	-6.960000E-01	  0.023006011	-1.500500E+02	  0.023006011	2.146000E+00	  0.023006011	-1.335000E+01
17	  0.023206413	-7.020000E-01	  0.023206413	-1.516460E+02	  0.023206413	2.149000E+00	  0.023206413	-1.260800E+01
18	  0.023406813	-7.090000E-01	  0.023406813	-1.532450E+02	  0.023406813	2.156000E+00	  0.023406813	-1.186900E+01
19	  0.023607215	-7.190000E-01	  0.023607215	-1.548480E+02	  0.023607215	2.171000E+00	  0.023607215	-1.113300E+01
20	  0.023807615	-7.270000E-01	  0.023807615	-1.564700E+02	  0.023807615	2.182000E+00	  0.023807615	-1.039400E+01
21	  0.024008015	-7.340000E-01	  0.024008015	-1.581200E+02	  0.024008015	2.192000E+00	  0.024008015	-9.646000E+00
22	  0.024208417	-7.440000E-01	  0.024208417	-1.597630E+02	  0.024208417	2.208000E+00	  0.024208417	-8.906000E+00
23	  0.024408817	-7.500000E-01	  0.024408817	-1.614320E+02	  0.024408817	2.216000E+00	  0.024408817	-8.157000E+00
24	  0.024609219	-7.560000E-01	  0.024609219	-1.630980E+02	  0.024609219	2.225000E+00	  0.024609219	-7.414000E+00
25	  0.024809619	-7.660000E-01	  0.024809619	-1.647650E+02	  0.024809619	2.244000E+00	  0.024809619	-6.673000E+00
26	  0.025010020	-7.750000E-01	  0.025010020	-1.664390E+02	  0.025010020	2.261000E+00	  0.025010020	-5.932000E+00
27	  0.025210422	-7.850000E-01	  0.025210422	-1.681250E+02	  0.025210422	2.285000E+00	  0.025210422	-5.189000E+00
28	  0.025410822	-7.950000E-01	  0.025410822	-1.698230E+02	  0.025410822	2.306000E+00	  0.025410822	-4.442000E+00
29	  0.025611224	-8.070000E-01	  0.025611224	-1.715440E+02	  0.025611224	2.334000E+00	  0.025611224	-3.688000E+00
30	  0.025811624	-8.170000E-01	  0.025811624	-1.732610E+02	  0.025811624	2.358000E+00	  0.025811624	-2.937000E+00
31	  0.026012026	-8.270000E-01	  0.026012026	-1.750150E+02	  0.026012026	2.385000E+00	  0.026012026	-2.171000E+00
32	  0.026212426	-8.390000E-01	  0.026212426	-1.767630E+02	  0.026212426	2.414000E+00	  0.026212426	-1.409000E+00
33	  0.026412826	-8.520000E-01	  0.026412826	-1.785310E+02	  0.026412826	2.451000E+00	  0.026412826	-6.390000E-01
34	  0.026613226	-8.660000E-01	  0.026613226	1.796960E+02	  0.026613226	2.490000E+00	  0.026613226	1.320000E-01
35	  0.026813626	-8.790000E-01	  0.026813626	1.779150E+02	  0.026813626	2.531000E+00	  0.026813626	9.070000E-01
36	  0.027014028	-8.960000E-01	  0.027014028	1.761230E+02	  0.027014028	2.582000E+00	  0.027014028	1.687000E+00
37	  0.027214428	-9.110000E-01	  0.027214428	1.743230E+02	  0.027214428	2.628000E+00	  0.027214428	2.472000E+00
38	  0.027414829	-9.280000E-01	  0.027414829	1.725140E+02	  0.027414829	2.681000E+00	  0.027414829	3.261000E+00
39	  0.027615231	-9.440000E-01	  0.027615231	1.706930E+02	  0.027615231	2.733000E+00	  0.027615231	4.057000E+00
40	  0.027815631	-9.630000E-01	  0.027815631	1.688730E+02	  0.027815631	2.795000E+00	  0.027815631	4.855000E+00
41	  0.028016033	-9.800000E-01	  0.028016033	1.670240E+02	  0.028016033	2.856000E+00	  0.028016033	5.667000E+00
42	  0.028216433	-9.990000E-01	  0.028216433	1.651700E+02	  0.028216433	2.922000E+00	  0.028216433	6.485000E+00
43	  0.028416833	-1.020000E+00	  0.028416833	1.633130E+02	  0.028416833	2.995000E+00	  0.028416833	7.306000E+00
44	  0.028617235	-1.039000E+00	  0.028617235	1.614500E+02	  0.028617235	3.069000E+00	  0.028617235	8.135000E+00
45	  0.028817635	-1.060000E+00	  0.028817635	1.595840E+02	  0.028817635	3.148000E+00	  0.028817635	8.968000E+00
46	  0.029018037	-1.082000E+00	  0.029018037	1.577210E+02	  0.029018037	3.233000E+00	  0.029018037	9.805000E+00
47	  0.029218437	-1.106000E+00	  0.029218437	1.558420E+02	  0.029218437	3.326000E+00	  0.029218437	1.065400E+01
48	  0.029418837	-1.131000E+00	  0.029418837	1.539440E+02	  0.029418837	3.424000E+00	  0.029418837	1.151700E+01
49	  0.029619239	-1.156000E+00	  0.029619239	1.520370E+02	  0.029619239	3.527000E+00	  0.029619239	1.239000E+01
50	  0.029819639	-1.182000E+00	  0.029819639	1.501260E+02	  0.029819639	3.637000E+00	  0.029819639	1.327200E+01
51	  0.030020041	-1.208000E+00	  0.030020041	1.482150E+02	  0.030020041	3.752000E+00	  0.030020041	1.416100E+01
52	  0.030220442	-1.233000E+00	  0.030220442	1.462920E+02	  0.030220442	3.868000E+00	  0.030220442	1.506400E+01
53	  0.030420844	-1.260000E+00	  0.030420844	1.443830E+02	  0.030420844	3.994000E+00	  0.030420844	1.596800E+01
54	  0.030621244	-1.289000E+00	  0.030621244	1.424660E+02	  0.030621244	4.130000E+00	  0.030621244	1.688400E+01
55	  0.030821642	-1.320000E+00	  0.030821642	1.405430E+02	  0.030821642	4.278000E+00	  0.030821642	1.781300E+01
56	  0.031022044	-1.351000E+00	  0.031022044	1.385980E+02	  0.031022044	4.433000E+00	  0.031022044	1.876400E+01
57	  0.031222444	-1.375000E+00	  0.031222444	1.366580E+02	  0.031222444	4.569000E+00	  0.031222444	1.972400E+01
58	  0.031422846	-1.407000E+00	  0.031422846	1.346800E+02	  0.031422846	4.742000E+00	  0.031422846	2.071400E+01
59	  0.031623244	-1.441000E+00	  0.031623244	1.326900E+02	  0.031623244	4.928000E+00	  0.031623244	2.172200E+01
60	  0.031823646	-1.474000E+00	  0.031823646	1.307060E+02	  0.031823646	5.117000E+00	  0.031823646	2.274200E+01
61	  0.032024048	-1.508000E+00	  0.032024048	1.287130E+02	  0.032024048	5.320000E+00	  0.032024048	2.378000E+01
62	  0.032224450	-1.546000E+00	  0.032224450	1.267300E+02	  0.032224450	5.544000E+00	  0.032224450	2.482900E+01
63	  0.032424849	-1.580000E+00	  0.032424849	1.247120E+02	  0.032424849	5.767000E+00	  0.032424849	2.591300E+01
64	  0.032625251	-1.616000E+00	  0.032625251	1.226840E+02	  0.032625251	6.009000E+00	  0.032625251	2.702100E+01
65	  0.032825653	-1.654000E+00	  0.032825653	1.206510E+02	  0.032825653	6.268000E+00	  0.032825653	2.815000E+01
66	  0.033026051	-1.687000E+00	  0.033026051	1.186150E+02	  0.033026051	6.526000E+00	  0.033026051	2.930300E+01
67	  0.033226453	-1.724000E+00	  0.033226453	1.165670E+02	  0.033226453	6.812000E+00	  0.033226453	3.048300E+01
68	  0.033426855	-1.762000E+00	  0.033426855	1.145180E+02	  0.033426855	7.115000E+00	  0.033426855	3.168700E+01
69	  0.033627257	-1.797000E+00	  0.033627257	1.124640E+02	  0.033627257	7.425000E+00	  0.033627257	3.291900E+01
70	  0.033827655	-1.837000E+00	  0.033827655	1.104310E+02	  0.033827655	7.769000E+00	  0.033827655	3.416100E+01
71	  0.034028057	-1.876000E+00	  0.034028057	1.083820E+02	  0.034028057	8.129000E+00	  0.034028057	3.544100E+01
72	  0.034228459	-1.914000E+00	  0.034228459	1.063260E+02	  0.034228459	8.511000E+00	  0.034228459	3.675500E+01
73	  0.034428857	-1.957000E+00	  0.034428857	1.042710E+02	  0.034428857	8.935000E+00	  0.034428857	3.809400E+01
74	  0.034629259	-1.997000E+00	  0.034629259	1.021730E+02	  0.034629259	9.375000E+00	  0.034629259	3.949700E+01
75	  0.034829661	-2.038000E+00	  0.034829661	1.000940E+02	  0.034829661	9.846000E+00	  0.034829661	4.092100E+01
76	  0.035030060	-2.084000E+00	  0.035030060	9.801900E+01	  0.035030060	1.036600E+01	  0.035030060	4.237300E+01
77	  0.035230462	-2.127000E+00	  0.035230462	9.594400E+01	  0.035230462	1.091100E+01	  0.035230462	4.386500E+01
78	  0.035430863	-2.174000E+00	  0.035430863	9.386300E+01	  0.035430863	1.151200E+01	  0.035430863	4.539600E+01
79	  0.035631265	-2.222000E+00	  0.035631265	9.178700E+01	  0.035631265	1.215600E+01	  0.035631265	4.696400E+01
80	  0.035831664	-2.270000E+00	  0.035831664	8.969600E+01	  0.035831664	1.284300E+01	  0.035831664	4.858800E+01
81	  0.036032066	-2.316000E+00	  0.036032066	8.761200E+01	  0.036032066	1.357300E+01	  0.036032066	5.025100E+01
82	  0.036232468	-2.363000E+00	  0.036232468	8.553600E+01	  0.036232468	1.435300E+01	  0.036232468	5.195600E+01
83	  0.036432866	-2.413000E+00	  0.036432866	8.342800E+01	  0.036432866	1.522500E+01	  0.036432866	5.373200E+01
84	  0.036633268	-2.463000E+00	  0.036633268	8.135600E+01	  0.036633268	1.614200E+01	  0.036633268	5.552900E+01
85	  0.036833670	-2.515000E+00	  0.036833670	7.925300E+01	  0.036833670	1.715600E+01	  0.036833670	5.740300E+01
86	  0.037034072	-2.568000E+00	  0.037034072	7.715900E+01	  0.037034072	1.825300E+01	  0.037034072	5.932000E+01
87	  0.037234470	-2.619000E+00	  0.037234470	7.505700E+01	  0.037234470	1.943000E+01	  0.037234470	6.130700E+01
88	  0.037434869	-2.672000E+00	  0.037434869	7.295300E+01	  0.037434869	2.071300E+01	  0.037434869	6.335200E+01
89	  0.037635271	-2.728000E+00	  0.037635271	7.082200E+01	  0.037635271	2.213400E+01	  0.037635271	6.547800E+01
90	  0.037835669	-2.791000E+00	  0.037835669	6.870100E+01	  0.037835669	2.372800E+01	  0.037835669	6.762700E+01
91	  0.038036071	-2.854000E+00	  0.038036071	6.663900E+01	  0.038036071	2.542800E+01	  0.038036071	6.976000E+01
92	  0.038236473	-2.909000E+00	  0.038236473	6.455700E+01	  0.038236473	2.721100E+01	  0.038236473	7.200900E+01
93	  0.038436871	-2.965000E+00	  0.038436871	6.246100E+01	  0.038436871	2.917300E+01	  0.038436871	7.432500E+01
94	  0.038637273	-3.019000E+00	  0.038637273	6.037700E+01	  0.038637273	3.128800E+01	  0.038637273	7.669300E+01
95	  0.038837675	-3.072000E+00	  0.038837675	5.827800E+01	  0.038837675	3.359800E+01	  0.038837675	7.913900E+01
96	  0.039038073	-3.126000E+00	  0.039038073	5.620100E+01	  0.039038073	3.611200E+01	  0.039038073	8.159500E+01
97	  0.039238475	-3.175000E+00	  0.039238475	5.410200E+01	  0.039238475	3.883600E+01	  0.039238475	8.416400E+01
98	  0.039438877	-3.231000E+00	  0.039438877	5.204300E+01	  0.039438877	4.183900E+01	  0.039438877	8.665600E+01
99	  0.039639279	-3.283000E+00	  0.039639279	4.997300E+01	  0.039639279	4.509700E+01	  0.039639279	8.921400E+01
100	  0.039839678	-3.338000E+00	  0.039839678	4.788800E+01	  0.039839678	4.872600E+01	  0.039839678	9.176400E+01
101	  0.040040080	-3.386000E+00	  0.040040080	4.579200E+01	  0.040040080	5.265300E+01	  0.040040080	9.438300E+01
102	  0.040240481	-3.438000E+00	  0.040240481	4.372200E+01	  0.040240481	5.695000E+01	  0.040240481	9.688800E+01
103	  0.040440880	-3.489000E+00	  0.040440880	4.166700E+01	  0.040440880	6.162500E+01	  0.040440880	9.929500E+01
104	  0.040641282	-3.538000E+00	  0.040641282	3.963300E+01	  0.040641282	6.668000E+01	  0.040641282	1.015720E+02
105	  0.040841684	-3.587000E+00	  0.040841684	3.759900E+01	  0.040841684	7.220000E+01	  0.040841684	1.036910E+02
106	  0.041042086	-3.638000E+00	  0.041042086	3.558600E+01	  0.041042086	7.818500E+01	  0.041042086	1.055000E+02
107	  0.041242484	-3.688000E+00	  0.041242484	3.355600E+01	  0.041242484	8.473000E+01	  0.041242484	1.070530E+02
108	  0.041442886	-3.738000E+00	  0.041442886	3.153100E+01	  0.041442886	9.180900E+01	  0.041442886	1.081810E+02
109	  0.041643288	-3.785000E+00	  0.041643288	2.950000E+01	  0.041643288	9.944300E+01	  0.041643288	1.088790E+02
110	  0.041843686	-3.833000E+00	  0.041843686	2.748900E+01	  0.041843686	1.075620E+02	  0.041843686	1.089100E+02
111	  0.042044088	-3.880000E+00	  0.042044088	2.549000E+01	  0.042044088	1.161320E+02	  0.042044088	1.082270E+02
112	  0.042244490	-3.927000E+00	  0.042244490	2.348600E+01	  0.042244490	1.251780E+02	  0.042244490	1.066440E+02
113	  0.042444889	-3.976000E+00	  0.042444889	2.151300E+01	  0.042444889	1.344130E+02	  0.042444889	1.039880E+02
114	  0.042645290	-4.024000E+00	  0.042645290	1.952500E+01	  0.042645290	1.439260E+02	  0.042645290	1.002010E+02
115	  0.042845692	-4.074000E+00	  0.042845692	1.756400E+01	  0.042845692	1.532950E+02	  0.042845692	9.509700E+01
116	  0.043046094	-4.120000E+00	  0.043046094	1.557800E+01	  0.043046094	1.626220E+02	  0.043046094	8.868900E+01
117	  0.043246493	-4.168000E+00	  0.043246493	1.360200E+01	  0.043246493	1.713970E+02	  0.043246493	8.085400E+01
118	  0.043446895	-4.211000E+00	  0.043446895	1.165000E+01	  0.043446895	1.794260E+02	  0.043446895	7.187800E+01
119	  0.043647297	-4.257000E+00	  0.043647297	9.682000E+00	  0.043647297	1.864110E+02	  0.043647297	6.146700E+01
120	  0.043847695	-4.301000E+00	  0.043847695	7.733000E+00	  0.043847695	1.920830E+02	  0.043847695	5.012200E+01
121	  0.044048097	-4.346000E+00	  0.044048097	5.786000E+00	  0.044048097	1.961870E+02	  0.044048097	3.792600E+01
122	  0.044248499	-4.390000E+00	  0.044248499	3.857000E+00	  0.044248499	1.985610E+02	  0.044248499	2.533000E+01
123	  0.044448901	-4.434000E+00	  0.044448901	1.937000E+00	  0.044448901	1.992510E+02	  0.044448901	1.264000E+01
124	  0.044649299	-4.475000E+00	  0.044649299	2.500000E-02	  0.044649299	1.983300E+02	  0.044649299	1.640000E-01
125	  0.044849701	-4.516000E+00	  0.044849701	-1.870000E+00	  0.044849701	1.958550E+02	  0.044849701	-1.175900E+01
126	  0.045050103	-4.555000E+00	  0.045050103	-3.793000E+00	  0.045050103	1.920100E+02	  0.045050103	-2.314100E+01
127	  0.045250501	-4.592000E+00	  0.045250501	-5.708000E+00	  0.045250501	1.870210E+02	  0.045250501	-3.359100E+01
128	  0.045450903	-4.630000E+00	  0.045450903	-7.595000E+00	  0.045450903	1.810700E+02	  0.045450903	-4.283500E+01
129	  0.045651305	-4.667000E+00	  0.045651305	-9.488000E+00	  0.045651305	1.744150E+02	  0.045651305	-5.101200E+01
130	  0.045851704	-4.702000E+00	  0.045851704	-1.134900E+01	  0.045851704	1.673920E+02	  0.045851704	-5.796600E+01
131	  0.046052102	-4.737000E+00	  0.046052102	-1.320100E+01	  0.046052102	1.601230E+02	  0.046052102	-6.383800E+01
132	  0.046252504	-4.772000E+00	  0.046252504	-1.502400E+01	  0.046252504	1.528000E+02	  0.046252504	-6.858300E+01
133	  0.046452906	-4.808000E+00	  0.046452906	-1.684400E+01	  0.046452906	1.455150E+02	  0.046452906	-7.241500E+01
134	  0.046653304	-4.842000E+00	  0.046653304	-1.866200E+01	  0.046653304	1.383680E+02	  0.046653304	-7.544400E+01
135	  0.046853706	-4.873000E+00	  0.046853706	-2.048900E+01	  0.046853706	1.314240E+02	  0.046853706	-7.784400E+01
136	  0.047054108	-4.905000E+00	  0.047054108	-2.229100E+01	  0.047054108	1.247930E+02	  0.047054108	-7.951000E+01
137	  0.047254506	-4.936000E+00	  0.047254506	-2.409700E+01	  0.047254506	1.184420E+02	  0.047254506	-8.066600E+01
138	  0.047454908	-4.961000E+00	  0.047454908	-2.589800E+01	  0.047454908	1.124360E+02	  0.047454908	-8.147300E+01
139	  0.047655310	-4.994000E+00	  0.047655310	-2.766100E+01	  0.047655310	1.068240E+02	  0.047655310	-8.167400E+01
140	  0.047855709	-5.022000E+00	  0.047855709	-2.942100E+01	  0.047855709	1.015420E+02	  0.047855709	-8.163800E+01
141	  0.048056111	-5.053000E+00	  0.048056111	-3.115600E+01	  0.048056111	9.663100E+01	  0.048056111	-8.127500E+01
142	  0.048256513	-5.082000E+00	  0.048256513	-3.288100E+01	  0.048256513	9.203600E+01	  0.048256513	-8.071400E+01
143	  0.048456915	-5.109000E+00	  0.048456915	-3.461400E+01	  0.048456915	8.769600E+01	  0.048456915	-7.998700E+01
144	  0.048657313	-5.138000E+00	  0.048657313	-3.632800E+01	  0.048657313	8.366800E+01	  0.048657313	-7.908600E+01
145	  0.048857715	-5.163000E+00	  0.048857715	-3.806600E+01	  0.048857715	7.982800E+01	  0.048857715	-7.811100E+01
146	  0.049058117	-5.186000E+00	  0.049058117	-3.978900E+01	  0.049058117	7.625000E+01	  0.049058117	-7.705600E+01
147	  0.049258515	-5.211000E+00	  0.049258515	-4.149200E+01	  0.049258515	7.294000E+01	  0.049258515	-7.590300E+01
148	  0.049458917	-5.236000E+00	  0.049458917	-4.317900E+01	  0.049458917	6.986200E+01	  0.049458917	-7.469000E+01
149	  0.049659319	-5.265000E+00	  0.049659319	-4.485800E+01	  0.049659319	6.700300E+01	  0.049659319	-7.338800E+01
150	  0.049859721	-5.286000E+00	  0.049859721	-4.655400E+01	  0.049859721	6.425900E+01	  0.049859721	-7.212500E+01
151	  0.050060119	-5.313000E+00	  0.050060119	-4.820900E+01	  0.050060119	6.177400E+01	  0.050060119	-7.078700E+01
152	  0.050260521	-5.333000E+00	  0.050260521	-4.988900E+01	  0.050260521	5.936600E+01	  0.050260521	-6.949900E+01
153	  0.050460923	-5.352000E+00	  0.050460923	-5.156500E+01	  0.050460923	5.710900E+01	  0.050460923	-6.819100E+01
154	  0.050661322	-5.369000E+00	  0.050661322	-5.321300E+01	  0.050661322	5.500700E+01	  0.050661322	-6.691300E+01
155	  0.050861724	-5.387000E+00	  0.050861724	-5.487200E+01	  0.050861724	5.301400E+01	  0.050861724	-6.561900E+01
156	  0.051062126	-5.406000E+00	  0.051062126	-5.651200E+01	  0.051062126	5.116800E+01	  0.051062126	-6.431900E+01
157	  0.051262524	-5.426000E+00	  0.051262524	-5.813400E+01	  0.051262524	4.944400E+01	  0.051262524	-6.303800E+01
158	  0.051462926	-5.442000E+00	  0.051462926	-5.973700E+01	  0.051462926	4.782200E+01	  0.051462926	-6.179400E+01
159	  0.051663328	-5.459000E+00	  0.051663328	-6.136500E+01	  0.051663328	4.626400E+01	  0.051663328	-6.054000E+01
160	  0.051863730	-5.474000E+00	  0.051863730	-6.292600E+01	  0.051863730	4.484600E+01	  0.051863730	-5.935000E+01
161	  0.052064128	-5.485000E+00	  0.052064128	-6.453900E+01	  0.052064128	4.343600E+01	  0.052064128	-5.815700E+01
162	  0.052264530	-5.495000E+00	  0.052264530	-6.612300E+01	  0.052264530	4.212100E+01	  0.052264530	-5.699800E+01
163	  0.052464932	-5.508000E+00	  0.052464932	-6.767100E+01	  0.052464932	4.091400E+01	  0.052464932	-5.585800E+01
164	  0.052665330	-5.517000E+00	  0.052665330	-6.921900E+01	  0.052665330	3.975000E+01	  0.052665330	-5.474900E+01
165	  0.052865732	-5.529000E+00	  0.052865732	-7.075400E+01	  0.052865732	3.866600E+01	  0.052865732	-5.364500E+01
166	  0.053066134	-5.541000E+00	  0.053066134	-7.226700E+01	  0.053066134	3.764800E+01	  0.053066134	-5.257000E+01
167	  0.053266536	-5.553000E+00	  0.053266536	-7.378400E+01	  0.053266536	3.667600E+01	  0.053266536	-5.150300E+01
168	  0.053466935	-5.565000E+00	  0.053466935	-7.528800E+01	  0.053466935	3.576100E+01	  0.053466935	-5.045600E+01
169	  0.053667337	-5.576000E+00	  0.053667337	-7.677800E+01	  0.053667337	3.488900E+01	  0.053667337	-4.943900E+01
170	  0.053867739	-5.585000E+00	  0.053867739	-7.825200E+01	  0.053867739	3.406200E+01	  0.053867739	-4.844800E+01
171	  0.054068137	-5.595000E+00	  0.054068137	-7.974200E+01	  0.054068137	3.326200E+01	  0.054068137	-4.746000E+01
172	  0.054268539	-5.603000E+00	  0.054268539	-8.118800E+01	  0.054268539	3.251700E+01	  0.054268539	-4.651500E+01
173	  0.054468941	-5.616000E+00	  0.054468941	-8.265000E+01	  0.054468941	3.181300E+01	  0.054468941	-4.555700E+01
174	  0.054669335	-5.629000E+00	  0.054669335	-8.408700E+01	  0.054669335	3.115700E+01	  0.054669335	-4.462400E+01
175	  0.054869737	-5.641000E+00	  0.054869737	-8.552700E+01	  0.054869737	3.051900E+01	  0.054869737	-4.370800E+01
176	  0.055070139	-5.654000E+00	  0.055070139	-8.695100E+01	  0.055070139	2.992200E+01	  0.055070139	-4.280900E+01
177	  0.055270538	-5.662000E+00	  0.055270538	-8.837200E+01	  0.055270538	2.933100E+01	  0.055270538	-4.193800E+01
178	  0.055470940	-5.675000E+00	  0.055470940	-8.976900E+01	  0.055470940	2.879100E+01	  0.055470940	-4.107900E+01
179	  0.055671342	-5.685000E+00	  0.055671342	-9.120700E+01	  0.055671342	2.824800E+01	  0.055671342	-4.021500E+01
180	  0.055871744	-5.691000E+00	  0.055871744	-9.262800E+01	  0.055871744	2.772000E+01	  0.055871744	-3.938000E+01
181	  0.056072142	-5.703000E+00	  0.056072142	-9.401900E+01	  0.056072142	2.724600E+01	  0.056072142	-3.855700E+01
182	  0.056272544	-5.714000E+00	  0.056272544	-9.543400E+01	  0.056272544	2.677500E+01	  0.056272544	-3.773600E+01
183	  0.056472946	-5.726000E+00	  0.056472946	-9.680400E+01	  0.056472946	2.634500E+01	  0.056472946	-3.694600E+01
184	  0.056673344	-5.733000E+00	  0.056673344	-9.818700E+01	  0.056673344	2.590900E+01	  0.056673344	-3.617000E+01
185	  0.056873746	-5.743000E+00	  0.056873746	-9.954800E+01	  0.056873746	2.551000E+01	  0.056873746	-3.540600E+01
186	  0.057074148	-5.752000E+00	  0.057074148	-1.009190E+02	  0.057074148	2.511700E+01	  0.057074148	-3.465000E+01
187	  0.057274550	-5.758000E+00	  0.057274550	-1.022870E+02	  0.057274550	2.473000E+01	  0.057274550	-3.390800E+01
188	  0.057474948	-5.765000E+00	  0.057474948	-1.036780E+02	  0.057474948	2.435700E+01	  0.057474948	-3.316100E+01
189	  0.057675350	-5.772000E+00	  0.057675350	-1.050190E+02	  0.057675350	2.400600E+01	  0.057675350	-3.245000E+01
190	  0.057875752	-5.778000E+00	  0.057875752	-1.063730E+02	  0.057875752	2.366800E+01	  0.057875752	-3.173800E+01
191	  0.058076151	-5.783000E+00	  0.058076151	-1.077230E+02	  0.058076151	2.333700E+01	  0.058076151	-3.103800E+01
192	  0.058276553	-5.789000E+00	  0.058276553	-1.090400E+02	  0.058276553	2.302800E+01	  0.058276553	-3.036200E+01
193	  0.058476955	-5.794000E+00	  0.058476955	-1.103390E+02	  0.058476955	2.273300E+01	  0.058476955	-2.970100E+01
194	  0.058677353	-5.798000E+00	  0.058677353	-1.116530E+02	  0.058677353	2.244100E+01	  0.058677353	-2.904100E+01
195	  0.058877755	-5.802000E+00	  0.058877755	-1.129760E+02	  0.058877755	2.215900E+01	  0.058877755	-2.838200E+01
196	  0.059078157	-5.805000E+00	  0.059078157	-1.142600E+02	  0.059078157	2.189300E+01	  0.059078157	-2.774900E+01
197	  0.059278559	-5.804000E+00	  0.059278559	-1.155500E+02	  0.059278559	2.162200E+01	  0.059278559	-2.712400E+01
198	  0.059478957	-5.802000E+00	  0.059478957	-1.168330E+02	  0.059478957	2.135700E+01	  0.059478957	-2.651000E+01
199	  0.059679359	-5.809000E+00	  0.059679359	-1.180990E+02	  0.059679359	2.113300E+01	  0.059679359	-2.589600E+01
200	  0.059879761	-5.815000E+00	  0.059879761	-1.193400E+02	  0.059879761	2.091600E+01	  0.059879761	-2.530200E+01
201	  0.060080159	-5.815000E+00	  0.060080159	-1.205980E+02	  0.060080159	2.069000E+01	  0.060080159	-2.471000E+01
202	  0.060280561	-5.820000E+00	  0.060280561	-1.218300E+02	  0.060280561	2.048900E+01	  0.060280561	-2.412900E+01
203	  0.060480963	-5.824000E+00	  0.060480963	-1.230580E+02	  0.060480963	2.029300E+01	  0.060480963	-2.355700E+01
204	  0.060681365	-5.828000E+00	  0.060681365	-1.242730E+02	  0.060681365	2.010600E+01	  0.060681365	-2.299400E+01
205	  0.060881764	-5.828000E+00	  0.060881764	-1.254800E+02	  0.060881764	1.991300E+01	  0.060881764	-2.244300E+01
206	  0.061082166	-5.833000E+00	  0.061082166	-1.266950E+02	  0.061082166	1.974100E+01	  0.061082166	-2.188700E+01
207	  0.061282568	-5.837000E+00	  0.061282568	-1.279080E+02	  0.061282568	1.957300E+01	  0.061282568	-2.133700E+01
208	  0.061482966	-5.844000E+00	  0.061482966	-1.291010E+02	  0.061482966	1.942400E+01	  0.061482966	-2.079600E+01
209	  0.061683368	-5.847000E+00	  0.061683368	-1.302830E+02	  0.061683368	1.926800E+01	  0.061683368	-2.026800E+01
210	  0.061883770	-5.849000E+00	  0.061883770	-1.314730E+02	  0.061883770	1.911500E+01	  0.061883770	-1.974000E+01
211	  0.062084168	-5.858000E+00	  0.062084168	-1.326490E+02	  0.062084168	1.899000E+01	  0.062084168	-1.921600E+01
212	  0.062284570	-5.864000E+00	  0.062284570	-1.338230E+02	  0.062284570	1.885800E+01	  0.062284570	-1.869900E+01
213	  0.062484972	-5.858000E+00	  0.062484972	-1.349670E+02	  0.062484972	1.870300E+01	  0.062484972	-1.820700E+01
214	  0.062685370	-5.863000E+00	  0.062685370	-1.361370E+02	  0.062685370	1.858100E+01	  0.062685370	-1.769800E+01
215	  0.062885776	-5.868000E+00	  0.062885776	-1.372930E+02	  0.062885776	1.846400E+01	  0.062885776	-1.719700E+01
216	  0.063086174	-5.870000E+00	  0.063086174	-1.384740E+02	  0.063086174	1.834200E+01	  0.063086174	-1.669100E+01
217	  0.063286573	-5.874000E+00	  0.063286573	-1.396430E+02	  0.063286573	1.822900E+01	  0.063286573	-1.619200E+01
218	  0.063486971	-5.878000E+00	  0.063486971	-1.407760E+02	  0.063486971	1.812700E+01	  0.063486971	-1.570900E+01
219	  0.063687377	-5.877000E+00	  0.063687377	-1.419310E+02	  0.063687377	1.801100E+01	  0.063687377	-1.522400E+01
220	  0.063887775	-5.878000E+00	  0.063887775	-1.430700E+02	  0.063887775	1.790800E+01	  0.063887775	-1.474500E+01
221	  0.064088173	-5.881000E+00	  0.064088173	-1.442300E+02	  0.064088173	1.781200E+01	  0.064088173	-1.425900E+01
222	  0.064288579	-5.883000E+00	  0.064288579	-1.453560E+02	  0.064288579	1.771900E+01	  0.064288579	-1.379000E+01
223	  0.064488977	-5.882000E+00	  0.064488977	-1.464900E+02	  0.064488977	1.762100E+01	  0.064488977	-1.332200E+01
224	  0.064689375	-5.887000E+00	  0.064689375	-1.476330E+02	  0.064689375	1.754100E+01	  0.064689375	-1.284800E+01
225	  0.064889781	-5.890000E+00	  0.064889781	-1.487820E+02	  0.064889781	1.746100E+01	  0.064889781	-1.237500E+01
226	  0.065090179	-5.892000E+00	  0.065090179	-1.498820E+02	  0.065090179	1.738700E+01	  0.065090179	-1.192300E+01
227	  0.065290578	-5.893000E+00	  0.065290578	-1.509910E+02	  0.065290578	1.731100E+01	  0.065290578	-1.147100E+01
228	  0.065490983	-5.890000E+00	  0.065490983	-1.520980E+02	  0.065490983	1.722700E+01	  0.065490983	-1.102200E+01
229	  0.065691382	-5.891000E+00	  0.065691382	-1.531950E+02	  0.065691382	1.715800E+01	  0.065691382	-1.057800E+01
230	  0.065891780	-5.893000E+00	  0.065891780	-1.542940E+02	  0.065891780	1.709600E+01	  0.065891780	-1.013300E+01
231	  0.066092186	-5.893000E+00	  0.066092186	-1.553800E+02	  0.066092186	1.703100E+01	  0.066092186	-9.695000E+00
232	  0.066292584	-5.891000E+00	  0.066292584	-1.564580E+02	  0.066292584	1.696600E+01	  0.066292584	-9.263000E+00
233	  0.066492982	-5.894000E+00	  0.066492982	-1.575270E+02	  0.066492982	1.691600E+01	  0.066492982	-8.834000E+00
234	  0.066693388	-5.896000E+00	  0.066693388	-1.586060E+02	  0.066693388	1.686700E+01	  0.066693388	-8.402000E+00
235	  0.066893786	-5.898000E+00	  0.066893786	-1.596580E+02	  0.066893786	1.682100E+01	  0.066893786	-7.982000E+00
236	  0.067094192	-5.899000E+00	  0.067094192	-1.607180E+02	  0.067094192	1.677500E+01	  0.067094192	-7.561000E+00
237	  0.067294590	-5.905000E+00	  0.067294590	-1.617520E+02	  0.067294590	1.674700E+01	  0.067294590	-7.149000E+00
238	  0.067494988	-5.903000E+00	  0.067494988	-1.628320E+02	  0.067494988	1.669800E+01	  0.067494988	-6.722000E+00
239	  0.067695394	-5.905000E+00	  0.067695394	-1.638790E+02	  0.067695394	1.666400E+01	  0.067695394	-6.308000E+00
240	  0.067895792	-5.913000E+00	  0.067895792	-1.648920E+02	  0.067895792	1.665000E+01	  0.067895792	-5.906000E+00
241	  0.068096191	-5.898000E+00	  0.068096191	-1.658460E+02	  0.068096191	1.657900E+01	  0.068096191	-5.534000E+00
242	  0.068296596	-5.900000E+00	  0.068296596	-1.668830E+02	  0.068296596	1.655200E+01	  0.068296596	-5.125000E+00
243	  0.068496995	-5.903000E+00	  0.068496995	-1.679130E+02	  0.068496995	1.653100E+01	  0.068496995	-4.720000E+00
244	  0.068697393	-5.908000E+00	  0.068697393	-1.689600E+02	  0.068697393	1.651600E+01	  0.068697393	-4.309000E+00
245	  0.068897791	-5.909000E+00	  0.068897791	-1.699970E+02	  0.068897791	1.649400E+01	  0.068897791	-3.902000E+00
246	  0.069098189	-5.912000E+00	  0.069098189	-1.710410E+02	  0.069098189	1.647900E+01	  0.069098189	-3.493000E+00
247	  0.069298595	-5.917000E+00	  0.069298595	-1.720850E+02	  0.069298595	1.647100E+01	  0.069298595	-3.085000E+00
248	  0.069498993	-5.917000E+00	  0.069498993	-1.731230E+02	  0.069498993	1.645600E+01	  0.069498993	-2.679000E+00
249	  0.069699399	-5.923000E+00	  0.069699399	-1.741730E+02	  0.069699399	1.645600E+01	  0.069699399	-2.269000E+00
250	  0.069899797	-5.930000E+00	  0.069899797	-1.751940E+02	  0.069899797	1.646200E+01	  0.069899797	-1.871000E+00
251	  0.070100196	-5.933000E+00	  0.070100196	-1.762270E+02	  0.070100196	1.645800E+01	  0.070100196	-1.468000E+00
252	  0.070300601	-5.938000E+00	  0.070300601	-1.772500E+02	  0.070300601	1.646500E+01	  0.070300601	-1.069000E+00
253	  0.070501000	-5.943000E+00	  0.070501000	-1.782540E+02	  0.070501000	1.647300E+01	  0.070501000	-6.790000E-01
254	  0.070701398	-5.944000E+00	  0.070701398	-1.792650E+02	  0.070701398	1.647300E+01	  0.070701398	-2.850000E-01
255	  0.070901804	-5.951000E+00	  0.070901804	1.797300E+02	  0.070901804	1.648800E+01	  0.070901804	1.040000E-01
256	  0.071102202	-5.959000E+00	  0.071102202	1.786900E+02	  0.071102202	1.651100E+01	  0.071102202	5.090000E-01
257	  0.071302600	-5.958000E+00	  0.071302600	1.777020E+02	  0.071302600	1.651400E+01	  0.071302600	8.930000E-01
258	  0.071503006	-5.968000E+00	  0.071503006	1.766930E+02	  0.071503006	1.654600E+01	  0.071503006	1.285000E+00
259	  0.071703404	-5.974000E+00	  0.071703404	1.757080E+02	  0.071703404	1.656900E+01	  0.071703404	1.667000E+00
260	  0.071903802	-5.980000E+00	  0.071903802	1.747170E+02	  0.071903802	1.659500E+01	  0.071903802	2.052000E+00
261	  0.072104208	-5.990000E+00	  0.072104208	1.737430E+02	  0.072104208	1.663300E+01	  0.072104208	2.430000E+00
262	  0.072304606	-5.995000E+00	  0.072304606	1.727560E+02	  0.072304606	1.666100E+01	  0.072304606	2.814000E+00
263	  0.072505005	-6.000000E+00	  0.072505005	1.718080E+02	  0.072505005	1.668900E+01	  0.072505005	3.183000E+00
264	  0.072705410	-6.007000E+00	  0.072705410	1.708580E+02	  0.072705410	1.672800E+01	  0.072705410	3.552000E+00
265	  0.072905809	-6.014000E+00	  0.072905809	1.698770E+02	  0.072905809	1.676700E+01	  0.072905809	3.933000E+00
266	  0.073106214	-6.023000E+00	  0.073106214	1.689520E+02	  0.073106214	1.681200E+01	  0.073106214	4.293000E+00
267	  0.073306613	-6.028000E+00	  0.073306613	1.680000E+02	  0.073306613	1.685100E+01	  0.073306613	4.664000E+00
268	  0.073507011	-6.040000E+00	  0.073507011	1.670550E+02	  0.073507011	1.690900E+01	  0.073507011	5.030000E+00
269	  0.073707417	-6.050000E+00	  0.073707417	1.660820E+02	  0.073707417	1.696300E+01	  0.073707417	5.409000E+00
270	  0.073907815	-6.058000E+00	  0.073907815	1.651710E+02	  0.073907815	1.701500E+01	  0.073907815	5.764000E+00
271	  0.074108213	-6.066000E+00	  0.074108213	1.642640E+02	  0.074108213	1.706700E+01	  0.074108213	6.117000E+00
272	  0.074308619	-6.073000E+00	  0.074308619	1.633340E+02	  0.074308619	1.712100E+01	  0.074308619	6.480000E+00
273	  0.074509017	-6.082000E+00	  0.074509017	1.623620E+02	  0.074509017	1.718200E+01	  0.074509017	6.860000E+00
274	  0.074709415	-6.093000E+00	  0.074709415	1.614430E+02	  0.074709415	1.725000E+01	  0.074709415	7.218000E+00
275	  0.074909821	-6.104000E+00	  0.074909821	1.605350E+02	  0.074909821	1.731900E+01	  0.074909821	7.572000E+00
276	  0.075110219	-6.114000E+00	  0.075110219	1.595980E+02	  0.075110219	1.738900E+01	  0.075110219	7.939000E+00
277	  0.075310618	-6.122000E+00	  0.075310618	1.586770E+02	  0.075310618	1.745500E+01	  0.075310618	8.300000E+00
278	  0.075511023	-6.129000E+00	  0.075511023	1.578030E+02	  0.075511023	1.751900E+01	  0.075511023	8.643000E+00
279	  0.075711422	-6.139000E+00	  0.075711422	1.568820E+02	  0.075711422	1.759500E+01	  0.075711422	9.004000E+00
280	  0.075911827	-6.150000E+00	  0.075911827	1.559630E+02	  0.075911827	1.767500E+01	  0.075911827	9.365000E+00
281	  0.076112226	-6.158000E+00	  0.076112226	1.550670E+02	  0.076112226	1.774900E+01	  0.076112226	9.718000E+00
282	  0.076312624	-6.165000E+00	  0.076312624	1.541750E+02	  0.076312624	1.782200E+01	  0.076312624	1.007000E+01
283	  0.076513030	-6.181000E+00	  0.076513030	1.532490E+02	  0.076513030	1.792300E+01	  0.076513030	1.043300E+01
284	  0.076713428	-6.189000E+00	  0.076713428	1.523530E+02	  0.076713428	1.800500E+01	  0.076713428	1.078700E+01
285	  0.076913826	-6.197000E+00	  0.076913826	1.514340E+02	  0.076913826	1.809000E+01	  0.076913826	1.115100E+01
286	  0.077114232	-6.205000E+00	  0.077114232	1.505590E+02	  0.077114232	1.817300E+01	  0.077114232	1.149900E+01
287	  0.077314630	-6.221000E+00	  0.077314630	1.496650E+02	  0.077314630	1.828100E+01	  0.077314630	1.185100E+01
288	  0.077515028	-6.224000E+00	  0.077515028	1.488120E+02	  0.077515028	1.835500E+01	  0.077515028	1.219300E+01
289	  0.077715434	-6.233000E+00	  0.077715434	1.479070E+02	  0.077715434	1.845100E+01	  0.077715434	1.255400E+01
290	  0.077915832	-6.241000E+00	  0.077915832	1.470240E+02	  0.077915832	1.854600E+01	  0.077915832	1.290700E+01
291	  0.078116231	-6.249000E+00	  0.078116231	1.461520E+02	  0.078116231	1.864200E+01	  0.078116231	1.325600E+01
292	  0.078316636	-6.259000E+00	  0.078316636	1.452910E+02	  0.078316636	1.874400E+01	  0.078316636	1.360100E+01
293	  0.078517035	-6.265000E+00	  0.078517035	1.444010E+02	  0.078517035	1.883900E+01	  0.078517035	1.396100E+01
294	  0.078717433	-6.275000E+00	  0.078717433	1.435230E+02	  0.078717433	1.894800E+01	  0.078717433	1.431400E+01
295	  0.078917839	-6.286000E+00	  0.078917839	1.426610E+02	  0.078917839	1.906000E+01	  0.078917839	1.466000E+01
296	  0.079118237	-6.293000E+00	  0.079118237	1.418290E+02	  0.079118237	1.916400E+01	  0.079118237	1.499700E+01
297	  0.079318643	-6.304000E+00	  0.079318643	1.409550E+02	  0.079318643	1.928100E+01	  0.079318643	1.535000E+01
298	  0.079519041	-6.315000E+00	  0.079519041	1.401310E+02	  0.079519041	1.939700E+01	  0.079519041	1.568200E+01
299	  0.079719439	-6.323000E+00	  0.079719439	1.392950E+02	  0.079719439	1.951000E+01	  0.079719439	1.602300E+01
300	  0.079919845	-6.337000E+00	  0.079919845	1.384270E+02	  0.079919845	1.964500E+01	  0.079919845	1.637300E+01
301	  0.080120243	-6.348000E+00	  0.080120243	1.375880E+02	  0.080120243	1.977100E+01	  0.080120243	1.671400E+01
302	  0.080320641	-6.362000E+00	  0.080320641	1.367250E+02	  0.080320641	1.990900E+01	  0.080320641	1.706400E+01
303	  0.080521047	-6.372000E+00	  0.080521047	1.359070E+02	  0.080521047	2.003500E+01	  0.080521047	1.739800E+01
304	  0.080721445	-6.382000E+00	  0.080721445	1.350460E+02	  0.080721445	2.016900E+01	  0.080721445	1.775100E+01
305	  0.080921844	-6.397000E+00	  0.080921844	1.342230E+02	  0.080921844	2.031400E+01	  0.080921844	1.808600E+01
306	  0.081122249	-6.414000E+00	  0.081122249	1.333800E+02	  0.081122249	2.047100E+01	  0.081122249	1.842700E+01
307	  0.081322648	-6.428000E+00	  0.081322648	1.325420E+02	  0.081322648	2.062200E+01	  0.081322648	1.876900E+01
308	  0.081523046	-6.445000E+00	  0.081523046	1.316900E+02	  0.081523046	2.078500E+01	  0.081523046	1.911500E+01
309	  0.081723452	-6.457000E+00	  0.081723452	1.308550E+02	  0.081723452	2.093700E+01	  0.081723452	1.945900E+01
310	  0.081923850	-6.473000E+00	  0.081923850	1.300080E+02	  0.081923850	2.110600E+01	  0.081923850	1.980400E+01
311	  0.082124248	-6.492000E+00	  0.082124248	1.291970E+02	  0.082124248	2.127900E+01	  0.082124248	2.013300E+01
312	  0.082324654	-6.506000E+00	  0.082324654	1.283440E+02	  0.082324654	2.144600E+01	  0.082324654	2.048500E+01
313	  0.082525052	-6.527000E+00	  0.082525052	1.275320E+02	  0.082525052	2.163200E+01	  0.082525052	2.081200E+01
314	  0.082725458	-6.545000E+00	  0.082725458	1.267400E+02	  0.082725458	2.181000E+01	  0.082725458	2.113400E+01
315	  0.082925856	-6.561000E+00	  0.082925856	1.259050E+02	  0.082925856	2.199100E+01	  0.082925856	2.147800E+01
316	  0.083126254	-6.581000E+00	  0.083126254	1.250810E+02	  0.083126254	2.218600E+01	  0.083126254	2.181200E+01
317	  0.083326660	-6.599000E+00	  0.083326660	1.242630E+02	  0.083326660	2.237800E+01	  0.083326660	2.214600E+01
318	  0.083527058	-6.617000E+00	  0.083527058	1.234410E+02	  0.083527058	2.257200E+01	  0.083527058	2.248400E+01
319	  0.083727457	-6.641000E+00	  0.083727457	1.226230E+02	  0.083727457	2.278700E+01	  0.083727457	2.281300E+01
320	  0.083927862	-6.658000E+00	  0.083927862	1.218240E+02	  0.083927862	2.298400E+01	  0.083927862	2.314100E+01
321	  0.084128261	-6.681000E+00	  0.084128261	1.209990E+02	  0.084128261	2.320600E+01	  0.084128261	2.347400E+01
322	  0.084328659	-6.704000E+00	  0.084328659	1.202480E+02	  0.084328659	2.341500E+01	  0.084328659	2.377500E+01
323	  0.084529065	-6.727000E+00	  0.084529065	1.194530E+02	  0.084529065	2.364000E+01	  0.084529065	2.409400E+01
324	  0.084729463	-6.746000E+00	  0.084729463	1.186530E+02	  0.084729463	2.385700E+01	  0.084729463	2.442100E+01
325	  0.084929854	-6.764000E+00	  0.084929854	1.178650E+02	  0.084929854	2.407100E+01	  0.084929854	2.474400E+01
326	  0.085130259	-6.784000E+00	  0.085130259	1.170370E+02	  0.085130259	2.430200E+01	  0.085130259	2.508400E+01
327	  0.085330658	-6.809000E+00	  0.085330658	1.162580E+02	  0.085330658	2.454300E+01	  0.085330658	2.539300E+01
328	  0.085531056	-6.829000E+00	  0.085531056	1.154940E+02	  0.085531056	2.476900E+01	  0.085531056	2.570400E+01
329	  0.085731462	-6.852000E+00	  0.085731462	1.147180E+02	  0.085731462	2.501100E+01	  0.085731462	2.601600E+01
330	  0.085931860	-6.874000E+00	  0.085931860	1.139220E+02	  0.085931860	2.526000E+01	  0.085931860	2.633600E+01
331	  0.086132258	-6.895000E+00	  0.086132258	1.131760E+02	  0.086132258	2.549600E+01	  0.086132258	2.663700E+01
332	  0.086332664	-6.919000E+00	  0.086332664	1.124380E+02	  0.086332664	2.574400E+01	  0.086332664	2.692900E+01
333	  0.086533062	-6.944000E+00	  0.086533062	1.116770E+02	  0.086533062	2.600500E+01	  0.086533062	2.722800E+01
334	  0.086733460	-6.966000E+00	  0.086733460	1.109130E+02	  0.086733460	2.626000E+01	  0.086733460	2.753500E+01
335	  0.086933866	-6.991000E+00	  0.086933866	1.101800E+02	  0.086933866	2.652000E+01	  0.086933866	2.782200E+01
336	  0.087134264	-7.013000E+00	  0.087134264	1.094430E+02	  0.087134264	2.677700E+01	  0.087134264	2.811500E+01
337	  0.087334670	-7.038000E+00	  0.087334670	1.086690E+02	  0.087334670	2.705600E+01	  0.087334670	2.841900E+01
338	  0.087535068	-7.063000E+00	  0.087535068	1.079680E+02	  0.087535068	2.732200E+01	  0.087535068	2.868800E+01
339	  0.087735467	-7.086000E+00	  0.087735467	1.072650E+02	  0.087735467	2.758300E+01	  0.087735467	2.896400E+01
340	  0.087935872	-7.115000E+00	  0.087935872	1.065310E+02	  0.087935872	2.787700E+01	  0.087935872	2.924000E+01
341	  0.088136271	-7.140000E+00	  0.088136271	1.058250E+02	  0.088136271	2.815300E+01	  0.088136271	2.951000E+01
342	  0.088336669	-7.162000E+00	  0.088336669	1.050840E+02	  0.088336669	2.843700E+01	  0.088336669	2.980000E+01
343	  0.088537075	-7.186000E+00	  0.088537075	1.043780E+02	  0.088537075	2.871900E+01	  0.088537075	3.007100E+01
344	  0.088737473	-7.206000E+00	  0.088737473	1.037030E+02	  0.088737473	2.898200E+01	  0.088737473	3.033600E+01
345	  0.088937871	-7.226000E+00	  0.088937871	1.029500E+02	  0.088937871	2.927400E+01	  0.088937871	3.063500E+01
346	  0.089138277	-7.254000E+00	  0.089138277	1.022370E+02	  0.089138277	2.958400E+01	  0.089138277	3.089700E+01
347	  0.089338675	-7.274000E+00	  0.089338675	1.015750E+02	  0.089338675	2.985600E+01	  0.089338675	3.115300E+01
348	  0.089539073	-7.303000E+00	  0.089539073	1.008840E+02	  0.089539073	3.016800E+01	  0.089539073	3.140100E+01
349	  0.089739479	-7.323000E+00	  0.089739479	1.001930E+02	  0.089739479	3.045900E+01	  0.089739479	3.166600E+01
350	  0.089939877	-7.346000E+00	  0.089939877	9.951300E+01	  0.089939877	3.075800E+01	  0.089939877	3.192100E+01
351	  0.090140276	-7.371000E+00	  0.090140276	9.883800E+01	  0.090140276	3.106600E+01	  0.090140276	3.216600E+01
352	  0.090340681	-7.395000E+00	  0.090340681	9.815500E+01	  0.090340681	3.137700E+01	  0.090340681	3.241700E+01
353	  0.090541080	-7.422000E+00	  0.090541080	9.744800E+01	  0.090541080	3.171000E+01	  0.090541080	3.267000E+01
354	  0.090741485	-7.445000E+00	  0.090741485	9.678800E+01	  0.090741485	3.201700E+01	  0.090741485	3.291000E+01
355	  0.090941884	-7.474000E+00	  0.090941884	9.612400E+01	  0.090941884	3.234900E+01	  0.090941884	3.313500E+01
356	  0.091142282	-7.503000E+00	  0.091142282	9.545900E+01	  0.091142282	3.268400E+01	  0.091142282	3.335900E+01
357	  0.091342688	-7.533000E+00	  0.091342688	9.481900E+01	  0.091342688	3.301900E+01	  0.091342688	3.356600E+01
358	  0.091543086	-7.558000E+00	  0.091543086	9.411300E+01	  0.091543086	3.336700E+01	  0.091543086	3.381400E+01
359	  0.091743484	-7.590000E+00	  0.091743484	9.350300E+01	  0.091743484	3.370200E+01	  0.091743484	3.399900E+01
360	  0.091943890	-7.616000E+00	  0.091943890	9.282200E+01	  0.091943890	3.405300E+01	  0.091943890	3.422800E+01
361	  0.092144288	-7.641000E+00	  0.092144288	9.217500E+01	  0.092144288	3.439100E+01	  0.092144288	3.444300E+01
362	  0.092344686	-7.667000E+00	  0.092344686	9.150600E+01	  0.092344686	3.474300E+01	  0.092344686	3.466500E+01
363	  0.092545092	-7.699000E+00	  0.092545092	9.086000E+01	  0.092545092	3.510800E+01	  0.092545092	3.485700E+01
364	  0.092745490	-7.726000E+00	  0.092745490	9.023700E+01	  0.092745490	3.545400E+01	  0.092745490	3.504800E+01
365	  0.092945889	-7.759000E+00	  0.092945889	8.960200E+01	  0.092945889	3.582700E+01	  0.092945889	3.522500E+01
366	  0.093146294	-7.793000E+00	  0.093146294	8.899000E+01	  0.093146294	3.619400E+01	  0.093146294	3.538800E+01
367	  0.093346693	-7.817000E+00	  0.093346693	8.835600E+01	  0.093346693	3.654600E+01	  0.093346693	3.558600E+01
368	  0.093547091	-7.852000E+00	  0.093547091	8.776200E+01	  0.093547091	3.691600E+01	  0.093547091	3.573200E+01
369	  0.093747497	-7.876000E+00	  0.093747497	8.711000E+01	  0.093747497	3.728600E+01	  0.093747497	3.593100E+01
370	  0.093947895	-7.909000E+00	  0.093947895	8.653400E+01	  0.093947895	3.764600E+01	  0.093947895	3.607200E+01
371	  0.094148301	-7.940000E+00	  0.094148301	8.589400E+01	  0.094148301	3.803700E+01	  0.094148301	3.623800E+01
372	  0.094348699	-7.974000E+00	  0.094348699	8.531800E+01	  0.094348699	3.840800E+01	  0.094348699	3.636700E+01
373	  0.094549097	-8.005000E+00	  0.094549097	8.469700E+01	  0.094549097	3.879700E+01	  0.094549097	3.652000E+01
374	  0.094749503	-8.031000E+00	  0.094749503	8.410800E+01	  0.094749503	3.916100E+01	  0.094749503	3.667200E+01
375	  0.094949901	-8.063000E+00	  0.094949901	8.353300E+01	  0.094949901	3.953400E+01	  0.094949901	3.679700E+01
376	  0.095150299	-8.090000E+00	  0.095150299	8.293000E+01	  0.095150299	3.991300E+01	  0.095150299	3.694700E+01
377	  0.095350705	-8.125000E+00	  0.095350705	8.233400E+01	  0.095350705	4.031300E+01	  0.095350705	3.706200E+01
378	  0.095551103	-8.154000E+00	  0.095551103	8.175300E+01	  0.095551103	4.069400E+01	  0.095551103	3.718700E+01
379	  0.095751502	-8.181000E+00	  0.095751502	8.116400E+01	  0.095751502	4.107500E+01	  0.095751502	3.732100E+01
380	  0.095951907	-8.210000E+00	  0.095951907	8.058300E+01	  0.095951907	4.146300E+01	  0.095951907	3.744000E+01
381	  0.096152306	-8.241000E+00	  0.096152306	8.003400E+01	  0.096152306	4.183900E+01	  0.096152306	3.753600E+01
382	  0.096352704	-8.273000E+00	  0.096352704	7.945300E+01	  0.096352704	4.223900E+01	  0.096352704	3.763700E+01
383	  0.096553110	-8.303000E+00	  0.096553110	7.889300E+01	  0.096553110	4.262400E+01	  0.096553110	3.773500E+01
384	  0.096753508	-8.330000E+00	  0.096753508	7.835500E+01	  0.096753508	4.299200E+01	  0.096753508	3.783200E+01
385	  0.096953906	-8.363000E+00	  0.096953906	7.781700E+01	  0.096953906	4.337900E+01	  0.096953906	3.790000E+01
386	  0.097154312	-8.388000E+00	  0.097154312	7.727000E+01	  0.097154312	4.375200E+01	  0.097154312	3.800200E+01
387	  0.097354710	-8.416000E+00	  0.097354710	7.672800E+01	  0.097354710	4.413400E+01	  0.097354710	3.808400E+01
388	  0.097555116	-8.448000E+00	  0.097555116	7.623000E+01	  0.097555116	4.450000E+01	  0.097555116	3.813400E+01
389	  0.097755514	-8.475000E+00	  0.097755514	7.569700E+01	  0.097755514	4.487900E+01	  0.097755514	3.820900E+01
390	  0.097955912	-8.509000E+00	  0.097955912	7.519600E+01	  0.097955912	4.525500E+01	  0.097955912	3.824400E+01
391	  0.098156318	-8.538000E+00	  0.098156318	7.468900E+01	  0.098156318	4.562800E+01	  0.098156318	3.829300E+01
392	  0.098356716	-8.567000E+00	  0.098356716	7.419100E+01	  0.098356716	4.599400E+01	  0.098356716	3.834100E+01
393	  0.098557115	-8.594000E+00	  0.098557115	7.369900E+01	  0.098557115	4.635500E+01	  0.098557115	3.838900E+01
394	  0.098757520	-8.623000E+00	  0.098757520	7.319500E+01	  0.098757520	4.673000E+01	  0.098757520	3.842900E+01
395	  0.098957919	-8.657000E+00	  0.098957919	7.271700E+01	  0.098957919	4.710100E+01	  0.098957919	3.843600E+01
396	  0.099158317	-8.681000E+00	  0.099158317	7.224200E+01	  0.099158317	4.745200E+01	  0.099158317	3.847700E+01
397	  0.099358723	-8.710000E+00	  0.099358723	7.177200E+01	  0.099358723	4.780900E+01	  0.099358723	3.849700E+01
398	  0.099559121	-8.741000E+00	  0.099559121	7.129900E+01	  0.099559121	4.817300E+01	  0.099559121	3.850400E+01
399	  0.099759519	-8.772000E+00	  0.099759519	7.084700E+01	  0.099759519	4.852700E+01	  0.099759519	3.849900E+01
400	  0.099959925	-8.792000E+00	  0.099959925	7.041700E+01	  0.099959925	4.884500E+01	  0.099959925	3.853400E+01
401	  0.100160323	-8.818000E+00	  0.100160323	6.991700E+01	  0.100160323	4.922300E+01	  0.100160323	3.855900E+01
402	  0.100360721	-8.851000E+00	  0.100360721	6.952900E+01	  0.100360721	4.953900E+01	  0.100360721	3.852000E+01
403	  0.100561127	-8.876000E+00	  0.100561127	6.904100E+01	  0.100561127	4.990800E+01	  0.100561127	3.854000E+01
404	  0.100761525	-8.901000E+00	  0.100761525	6.857700E+01	  0.100761525	5.026300E+01	  0.100761525	3.854900E+01
405	  0.100961931	-8.923000E+00	  0.100961931	6.821400E+01	  0.100961931	5.054700E+01	  0.100961931	3.853800E+01
406	  0.101162329	-8.947000E+00	  0.101162329	6.777300E+01	  0.101162329	5.088700E+01	  0.101162329	3.854000E+01
407	  0.101362728	-8.968000E+00	  0.101362728	6.734600E+01	  0.101362728	5.121300E+01	  0.101362728	3.855000E+01
408	  0.101563133	-9.002000E+00	  0.101563133	6.695200E+01	  0.101563133	5.153800E+01	  0.101563133	3.848600E+01
409	  0.101763532	-9.012000E+00	  0.101763532	6.653100E+01	  0.101763532	5.184600E+01	  0.101763532	3.853500E+01
410	  0.101963930	-9.032000E+00	  0.101963930	6.612000E+01	  0.101963930	5.216300E+01	  0.101963930	3.853500E+01
411	  0.102164328	-9.047000E+00	  0.102164328	6.567500E+01	  0.102164328	5.249800E+01	  0.102164328	3.856300E+01
412	  0.102364726	-9.072000E+00	  0.102364726	6.520300E+01	  0.102364726	5.286800E+01	  0.102364726	3.854400E+01
413	  0.102565125	-9.086000E+00	  0.102565125	6.479300E+01	  0.102565125	5.317900E+01	  0.102565125	3.856400E+01
414	  0.102765530	-9.108000E+00	  0.102765530	6.440900E+01	  0.102765530	5.348300E+01	  0.102765530	3.853900E+01
415	  0.102965929	-9.115000E+00	  0.102965929	6.400400E+01	  0.102965929	5.378400E+01	  0.102965929	3.858100E+01
416	  0.103166327	-9.128000E+00	  0.103166327	6.358100E+01	  0.103166327	5.410800E+01	  0.103166327	3.859900E+01
417	  0.103366733	-9.131000E+00	  0.103366733	6.316300E+01	  0.103366733	5.441800E+01	  0.103366733	3.865900E+01
418	  0.103567131	-9.144000E+00	  0.103567131	6.279600E+01	  0.103567131	5.470300E+01	  0.103567131	3.866300E+01
419	  0.103767529	-9.148000E+00	  0.103767529	6.232500E+01	  0.103767529	5.505700E+01	  0.103767529	3.872400E+01
420	  0.103967935	-9.158000E+00	  0.103967935	6.194600E+01	  0.103967935	5.535100E+01	  0.103967935	3.873700E+01
421	  0.104168333	-9.163000E+00	  0.104168333	6.148300E+01	  0.104168333	5.570400E+01	  0.104168333	3.878800E+01
422	  0.104368731	-9.168000E+00	  0.104368731	6.108100E+01	  0.104368731	5.601300E+01	  0.104368731	3.882700E+01
423	  0.104569137	-9.176000E+00	  0.104569137	6.068800E+01	  0.104569137	5.632000E+01	  0.104569137	3.884600E+01
424	  0.104769535	-9.167000E+00	  0.104769535	6.030700E+01	  0.104769535	5.660300E+01	  0.104769535	3.894600E+01
425	  0.104969934	-9.178000E+00	  0.104969934	5.985300E+01	  0.104969934	5.696400E+01	  0.104969934	3.895100E+01
426	  0.105170339	-9.174000E+00	  0.105170339	5.945900E+01	  0.105170339	5.726700E+01	  0.105170339	3.902100E+01
427	  0.105370738	-9.189000E+00	  0.105370738	5.904900E+01	  0.105370738	5.760000E+01	  0.105370738	3.899800E+01
428	  0.105571143	-9.185000E+00	  0.105571143	5.856400E+01	  0.105571143	5.797900E+01	  0.105571143	3.907600E+01
429	  0.105771542	-9.185000E+00	  0.105771542	5.814300E+01	  0.105771542	5.831300E+01	  0.105771542	3.912500E+01
430	  0.105971940	-9.192000E+00	  0.105971940	5.774700E+01	  0.105971940	5.863400E+01	  0.105971940	3.912900E+01
431	  0.106172346	-9.186000E+00	  0.106172346	5.724700E+01	  0.106172346	5.903200E+01	  0.106172346	3.921200E+01
432	  0.106372744	-9.185000E+00	  0.106372744	5.682400E+01	  0.106372744	5.937500E+01	  0.106372744	3.925600E+01
433	  0.106573142	-9.187000E+00	  0.106573142	5.638900E+01	  0.106573142	5.973100E+01	  0.106573142	3.928500E+01
434	  0.106773548	-9.184000E+00	  0.106773548	5.590100E+01	  0.106773548	6.013000E+01	  0.106773548	3.933600E+01
435	  0.106973946	-9.183000E+00	  0.106973946	5.547400E+01	  0.106973946	6.048400E+01	  0.106973946	3.937400E+01
436	  0.107174344	-9.180000E+00	  0.107174344	5.496800E+01	  0.107174344	6.090500E+01	  0.107174344	3.942100E+01
437	  0.107374750	-9.180000E+00	  0.107374750	5.446700E+01	  0.107374750	6.132600E+01	  0.107374750	3.944900E+01
438	  0.107575148	-9.174000E+00	  0.107575148	5.404000E+01	  0.107575148	6.168700E+01	  0.107575148	3.950400E+01
439	  0.107775547	-9.163000E+00	  0.107775547	5.346700E+01	  0.107775547	6.217400E+01	  0.107775547	3.958900E+01
440	  0.107975952	-9.158000E+00	  0.107975952	5.295700E+01	  0.107975952	6.261200E+01	  0.107975952	3.963700E+01
441	  0.108176351	-9.154000E+00	  0.108176351	5.246900E+01	  0.108176351	6.303600E+01	  0.108176351	3.967000E+01
442	  0.108376749	-9.151000E+00	  0.108376749	5.191300E+01	  0.108376749	6.352300E+01	  0.108376749	3.969300E+01
443	  0.108577155	-9.145000E+00	  0.108577155	5.142400E+01	  0.108577155	6.395500E+01	  0.108577155	3.972900E+01
444	  0.108777553	-9.138000E+00	  0.108777553	5.082600E+01	  0.108777553	6.448900E+01	  0.108777553	3.976700E+01
445	  0.108977959	-9.126000E+00	  0.108977959	5.025100E+01	  0.108977959	6.500700E+01	  0.108977959	3.982700E+01
446	  0.109178357	-9.122000E+00	  0.109178357	4.968700E+01	  0.109178357	6.551900E+01	  0.109178357	3.983100E+01
447	  0.109378755	-9.110000E+00	  0.109378755	4.912900E+01	  0.109378755	6.603400E+01	  0.109378755	3.988100E+01
448	  0.109579161	-9.091000E+00	  0.109579161	4.857400E+01	  0.109579161	6.655300E+01	  0.109579161	3.996500E+01
449	  0.109779559	-9.084000E+00	  0.109779559	4.795900E+01	  0.109779559	6.712900E+01	  0.109779559	3.996900E+01
450	  0.109979957	-9.077000E+00	  0.109979957	4.735300E+01	  0.109979957	6.770300E+01	  0.109979957	3.996700E+01
451	  0.110180363	-9.065000E+00	  0.110180363	4.674700E+01	  0.110180363	6.828600E+01	  0.110180363	3.998700E+01
452	  0.110380761	-9.057000E+00	  0.110380761	4.611700E+01	  0.110380761	6.889400E+01	  0.110380761	3.997100E+01
453	  0.110581160	-9.045000E+00	  0.110581160	4.548000E+01	  0.110581160	6.951900E+01	  0.110581160	3.997100E+01
454	  0.110781565	-9.031000E+00	  0.110781565	4.486500E+01	  0.110781565	7.013000E+01	  0.110781565	3.997600E+01
455	  0.110981964	-9.022000E+00	  0.110981964	4.427200E+01	  0.110981964	7.072200E+01	  0.110981964	3.994800E+01
456	  0.111182362	-9.006000E+00	  0.111182362	4.363800E+01	  0.111182362	7.136800E+01	  0.111182362	3.994600E+01
457	  0.111382768	-9.000000E+00	  0.111382768	4.298600E+01	  0.111382768	7.202500E+01	  0.111382768	3.986500E+01
458	  0.111583166	-8.993000E+00	  0.111583166	4.238200E+01	  0.111583166	7.264300E+01	  0.111583166	3.979000E+01
459	  0.111783572	-8.995000E+00	  0.111783572	4.171600E+01	  0.111783572	7.331500E+01	  0.111783572	3.963500E+01
460	  0.111983970	-8.982000E+00	  0.111983970	4.107500E+01	  0.111983970	7.398700E+01	  0.111983970	3.957000E+01
461	  0.112184368	-8.979000E+00	  0.112184368	4.037200E+01	  0.112184368	7.471200E+01	  0.112184368	3.941000E+01
462	  0.112384774	-8.979000E+00	  0.112384774	3.970600E+01	  0.112384774	7.539900E+01	  0.112384774	3.922500E+01
463	  0.112585172	-8.980000E+00	  0.112585172	3.902200E+01	  0.112585172	7.610400E+01	  0.112585172	3.901400E+01
464	  0.112785570	-8.974000E+00	  0.112785570	3.836300E+01	  0.112785570	7.680200E+01	  0.112785570	3.884600E+01
465	  0.112985976	-8.971000E+00	  0.112985976	3.765000E+01	  0.112985976	7.755100E+01	  0.112985976	3.861900E+01
466	  0.113186374	-8.973000E+00	  0.113186374	3.696000E+01	  0.113186374	7.826900E+01	  0.113186374	3.835500E+01
467	  0.113386773	-8.981000E+00	  0.113386773	3.621400E+01	  0.113386773	7.903000E+01	  0.113386773	3.800800E+01
468	  0.113587178	-8.969000E+00	  0.113587178	3.552300E+01	  0.113587178	7.979000E+01	  0.113587178	3.780700E+01
469	  0.113787577	-8.985000E+00	  0.113787577	3.471300E+01	  0.113787577	8.059600E+01	  0.113787577	3.734300E+01
470	  0.113987975	-8.986000E+00	  0.113987975	3.391700E+01	  0.113987975	8.142800E+01	  0.113987975	3.696000E+01
471	  0.114188381	-8.995000E+00	  0.114188381	3.317700E+01	  0.114188381	8.217600E+01	  0.114188381	3.653300E+01
472	  0.114388779	-9.003000E+00	  0.114388779	3.235000E+01	  0.114388779	8.301400E+01	  0.114388779	3.604600E+01
473	  0.114589177	-9.011000E+00	  0.114589177	3.158200E+01	  0.114589177	8.378600E+01	  0.114589177	3.556400E+01
474	  0.114789583	-9.019000E+00	  0.114789583	3.078300E+01	  0.114789583	8.458200E+01	  0.114789583	3.504100E+01
475	  0.114989981	-9.028000E+00	  0.114989981	2.989300E+01	  0.114989981	8.546500E+01	  0.114989981	3.443500E+01
476	  0.115190387	-9.043000E+00	  0.115190387	2.904300E+01	  0.115190387	8.626800E+01	  0.115190387	3.378100E+01
477	  0.115390785	-9.058000E+00	  0.115390785	2.817600E+01	  0.115390785	8.707900E+01	  0.115390785	3.309500E+01
478	  0.115591183	-9.071000E+00	  0.115591183	2.732700E+01	  0.115591183	8.786400E+01	  0.115591183	3.239900E+01
479	  0.115791589	-9.084000E+00	  0.115791589	2.635100E+01	  0.115791589	8.876400E+01	  0.115791589	3.158800E+01
480	  0.115991987	-9.101000E+00	  0.115991987	2.545700E+01	  0.115991987	8.954500E+01	  0.115991987	3.078100E+01
481	  0.116192386	-9.117000E+00	  0.116192386	2.451800E+01	  0.116192386	9.035300E+01	  0.116192386	2.991500E+01
482	  0.116392791	-9.130000E+00	  0.116392791	2.358100E+01	  0.116392791	9.115500E+01	  0.116392791	2.903900E+01
483	  0.116593190	-9.152000E+00	  0.116593190	2.262200E+01	  0.116593190	9.190200E+01	  0.116593190	2.805800E+01
484	  0.116793588	-9.175000E+00	  0.116793588	2.161900E+01	  0.116793588	9.265100E+01	  0.116793588	2.700300E+01
485	  0.116993994	-9.192000E+00	  0.116993994	2.059800E+01	  0.116993994	9.342200E+01	  0.116993994	2.593500E+01
486	  0.117194392	-9.217000E+00	  0.117194392	1.959400E+01	  0.117194392	9.409700E+01	  0.117194392	2.481000E+01
487	  0.117394790	-9.240000E+00	  0.117394790	1.861100E+01	  0.117394790	9.472600E+01	  0.117394790	2.368900E+01
488	  0.117595196	-9.272000E+00	  0.117595196	1.758000E+01	  0.117595196	9.529700E+01	  0.117595196	2.244900E+01
489	  0.117795594	-9.298000E+00	  0.117795594	1.652300E+01	  0.117795594	9.587800E+01	  0.117795594	2.118600E+01
490	  0.117995992	-9.324000E+00	  0.117995992	1.548400E+01	  0.117995992	9.640700E+01	  0.117995992	1.992200E+01
491	  0.118196398	-9.362000E+00	  0.118196398	1.442800E+01	  0.118196398	9.681300E+01	  0.118196398	1.856900E+01
492	  0.118396796	-9.396000E+00	  0.118396796	1.338900E+01	  0.118396796	9.718200E+01	  0.118396796	1.723700E+01
493	  0.118597202	-9.435000E+00	  0.118597202	1.227600E+01	  0.118597202	9.750400E+01	  0.118597202	1.579000E+01
494	  0.118797600	-9.475000E+00	  0.118797600	1.118200E+01	  0.118797600	9.775400E+01	  0.118797600	1.435600E+01
