! Anritsu VNA Master:             	Model: MS2036C/10/77
! SN:             	1601066
! /bd0/18may26.balun/4a.66.2.txt
! Existing Calibration Information:
! TYPE:             	Current Settings	Active Cal Settings
! TIME:             	05/26/2018 03:20:02 PM	05/26/2018 02:51:55 PM
! INTERNAL TEMP:    	59.5 C	59.5 C
! # POINTS:         	500	500
! START FREQ:       	20.000 MHz	20.000 MHz
! STOP FREQ:        	120.000 MHz	120.000 MHz
! SOURCE POWER:     	High	High
! IFBW:             	50 Hz	50 Hz
! AVG FACTOR:       	  1 	  1 
! REF PLANE 1:      	0 mm	0 mm
! REF PLANE 2:      	0 mm	0 mm
! CAL TYPE:         	Full S11	Full S11
! CAL METHOD:       	SOLT	SOLT
! CAL LINE TYPE:    	Coax	Coax
! DUT PORT 1:       	K-Conn(M)	K-Conn(M)
! DUT PORT 2:       	K-Conn(M)	K-Conn(M)
! CAL STATUS:       	OK: Accuracy High	--
! PROP-V:       	0.700
! CABLE LOSS:       	0.000 dB/m
! REF IMPEDANCE:       	50.0
! Trace Specific Parameters:	TR1	TR2	TR3	TR4
! TRACE.#.Y (GRAPH TYPE)	LOG MAG	PHASE	REAL IMPEDANCE	IMAGINARY IMPEDANCE
! TRACE.#.X 	FREQ.GHZ	FREQ.GHZ	FREQ.GHZ	FREQ.GHZ
! S-PARAMETER	S11	S11	S11	S11
! SMOOTH/APERTURE %	0	0	0	0
! WINDOW	NSL	NSL	NSL	NSL
! GATING	OFF	OFF	OFF	OFF
! FGTD	OFF	OFF	OFF	OFF
Marker Information per Trace:	TR1	TR2	TR3	TR4
!MK1	--	--	--	--
!MK2	--	--	--	--
!MK3	--	--	--	--
!MK4	--	--	--	--
!MK5	--	--	--	--
!MK6	--	--	--	--
!MK7	--	--	--	--
!MK8	--	--	--	--
PNT	TR1.FREQ.GHZ	TR1.LOG MAG.dB	TR2.FREQ.GHZ	TR2.PHASE.deg	TR3.FREQ.GHZ	TR3.REAL IMPEDANCE.ohm	TR4.FREQ.GHZ	TR4.IMAGINARY IMPEDANCE.ohm
1	  0.020000000	-5.200000E-02	  0.020000000	-6.819100E+01	  0.020000000	4.820000E-01	  0.020000000	-7.385900E+01
2	  0.020200402	-4.900000E-02	  0.020200402	-6.884800E+01	  0.020200402	4.460000E-01	  0.020200402	-7.295500E+01
3	  0.020400802	-4.600000E-02	  0.020400802	-6.949000E+01	  0.020400802	4.110000E-01	  0.020400802	-7.208600E+01
4	  0.020601204	-4.500000E-02	  0.020601204	-7.011300E+01	  0.020601204	4.000000E-01	  0.020601204	-7.125600E+01
5	  0.020801604	-4.300000E-02	  0.020801604	-7.075700E+01	  0.020801604	3.700000E-01	  0.020801604	-7.041000E+01
6	  0.021002004	-4.200000E-02	  0.021002004	-7.140100E+01	  0.021002004	3.610000E-01	  0.021002004	-6.957800E+01
7	  0.021202406	-4.500000E-02	  0.021202406	-7.203200E+01	  0.021202406	3.820000E-01	  0.021202406	-6.877600E+01
8	  0.021402806	-4.700000E-02	  0.021402806	-7.266700E+01	  0.021402806	3.890000E-01	  0.021402806	-6.798100E+01
9	  0.021603208	-5.100000E-02	  0.021603208	-7.329900E+01	  0.021603208	4.190000E-01	  0.021603208	-6.720000E+01
10	  0.021803608	-5.600000E-02	  0.021803608	-7.392500E+01	  0.021803608	4.480000E-01	  0.021803608	-6.643900E+01
11	  0.022004008	-5.900000E-02	  0.022004008	-7.453200E+01	  0.022004008	4.700000E-01	  0.022004008	-6.571200E+01
12	  0.022204408	-6.000000E-02	  0.022204408	-7.517900E+01	  0.022204408	4.680000E-01	  0.022204408	-6.494800E+01
13	  0.022404809	-6.100000E-02	  0.022404809	-7.583500E+01	  0.022404809	4.660000E-01	  0.022404809	-6.418400E+01
14	  0.022605211	-6.400000E-02	  0.022605211	-7.649000E+01	  0.022605211	4.860000E-01	  0.022605211	-6.343200E+01
15	  0.022805611	-6.400000E-02	  0.022805611	-7.713200E+01	  0.022805611	4.790000E-01	  0.022805611	-6.270700E+01
16	  0.023006011	-5.400000E-02	  0.023006011	-7.777800E+01	  0.023006011	3.980000E-01	  0.023006011	-6.198700E+01
17	  0.023206413	-4.500000E-02	  0.023206413	-7.843200E+01	  0.023206413	3.270000E-01	  0.023206413	-6.126900E+01
18	  0.023406813	-3.700000E-02	  0.023406813	-7.908100E+01	  0.023406813	2.690000E-01	  0.023406813	-6.056600E+01
19	  0.023607215	-3.700000E-02	  0.023607215	-7.970700E+01	  0.023607215	2.620000E-01	  0.023607215	-5.989600E+01
20	  0.023807615	-3.700000E-02	  0.023807615	-8.031200E+01	  0.023807615	2.580000E-01	  0.023807615	-5.925700E+01
21	  0.024008015	-4.400000E-02	  0.024008015	-8.089100E+01	  0.024008015	3.020000E-01	  0.024008015	-5.865400E+01
22	  0.024208417	-4.900000E-02	  0.024208417	-8.147900E+01	  0.024208417	3.310000E-01	  0.024208417	-5.804700E+01
23	  0.024408817	-5.500000E-02	  0.024408817	-8.202600E+01	  0.024408817	3.700000E-01	  0.024408817	-5.749000E+01
24	  0.024609219	-6.000000E-02	  0.024609219	-8.261200E+01	  0.024609219	3.990000E-01	  0.024609219	-5.690000E+01
25	  0.024809619	-6.500000E-02	  0.024809619	-8.322200E+01	  0.024809619	4.290000E-01	  0.024809619	-5.629100E+01
26	  0.025010020	-6.900000E-02	  0.025010020	-8.386800E+01	  0.025010020	4.480000E-01	  0.025010020	-5.565700E+01
27	  0.025210422	-7.500000E-02	  0.025210422	-8.453400E+01	  0.025210422	4.770000E-01	  0.025210422	-5.501000E+01
28	  0.025410822	-7.700000E-02	  0.025410822	-8.518000E+01	  0.025410822	4.860000E-01	  0.025410822	-5.439000E+01
29	  0.025611224	-7.400000E-02	  0.025611224	-8.584800E+01	  0.025611224	4.620000E-01	  0.025611224	-5.375800E+01
30	  0.025811624	-7.300000E-02	  0.025811624	-8.649400E+01	  0.025811624	4.470000E-01	  0.025811624	-5.315400E+01
31	  0.026012026	-6.900000E-02	  0.026012026	-8.711700E+01	  0.026012026	4.180000E-01	  0.026012026	-5.257900E+01
32	  0.026212426	-6.700000E-02	  0.026212426	-8.772100E+01	  0.026212426	4.010000E-01	  0.026212426	-5.202700E+01
33	  0.026412826	-6.600000E-02	  0.026412826	-8.831400E+01	  0.026412826	3.960000E-01	  0.026412826	-5.149100E+01
34	  0.026613226	-7.200000E-02	  0.026613226	-8.891600E+01	  0.026613226	4.260000E-01	  0.026613226	-5.095200E+01
35	  0.026813626	-7.900000E-02	  0.026813626	-8.948600E+01	  0.026813626	4.630000E-01	  0.026813626	-5.044700E+01
36	  0.027014028	-8.600000E-02	  0.027014028	-9.003600E+01	  0.027014028	4.940000E-01	  0.027014028	-4.996500E+01
37	  0.027214428	-9.600000E-02	  0.027214428	-9.061900E+01	  0.027214428	5.480000E-01	  0.027214428	-4.945900E+01
38	  0.027414829	-1.060000E-01	  0.027414829	-9.123800E+01	  0.027414829	6.020000E-01	  0.027414829	-4.892700E+01
39	  0.027615231	-1.100000E-01	  0.027615231	-9.191100E+01	  0.027615231	6.160000E-01	  0.027615231	-4.835500E+01
40	  0.027815631	-1.130000E-01	  0.027815631	-9.258800E+01	  0.027815631	6.230000E-01	  0.027815631	-4.778600E+01
41	  0.028016033	-1.090000E-01	  0.028016033	-9.327500E+01	  0.028016033	5.980000E-01	  0.028016033	-4.721600E+01
42	  0.028216433	-1.010000E-01	  0.028216433	-9.396100E+01	  0.028216433	5.460000E-01	  0.028216433	-4.665400E+01
43	  0.028416833	-9.200000E-02	  0.028416833	-9.463700E+01	  0.028416833	4.940000E-01	  0.028416833	-4.610600E+01
44	  0.028617235	-8.300000E-02	  0.028617235	-9.526900E+01	  0.028617235	4.380000E-01	  0.028617235	-4.559800E+01
45	  0.028817635	-7.400000E-02	  0.028817635	-9.587700E+01	  0.028817635	3.890000E-01	  0.028817635	-4.511500E+01
46	  0.029018037	-6.300000E-02	  0.029018037	-9.643900E+01	  0.029018037	3.310000E-01	  0.029018037	-4.467200E+01
47	  0.029218437	-5.700000E-02	  0.029218437	-9.697500E+01	  0.029218437	2.940000E-01	  0.029218437	-4.425400E+01
48	  0.029418837	-5.300000E-02	  0.029418837	-9.747100E+01	  0.029418837	2.710000E-01	  0.029418837	-4.386900E+01
49	  0.029619239	-4.700000E-02	  0.029619239	-9.799200E+01	  0.029619239	2.410000E-01	  0.029619239	-4.346900E+01
50	  0.029819639	-5.000000E-02	  0.029819639	-9.849100E+01	  0.029819639	2.550000E-01	  0.029819639	-4.308800E+01
51	  0.030020041	-5.600000E-02	  0.030020041	-9.902200E+01	  0.030020041	2.790000E-01	  0.030020041	-4.268600E+01
52	  0.030220442	-6.400000E-02	  0.030220442	-9.956300E+01	  0.030220442	3.200000E-01	  0.030220442	-4.227900E+01
53	  0.030420844	-7.600000E-02	  0.030420844	-1.001570E+02	  0.030420844	3.720000E-01	  0.030420844	-4.183600E+01
54	  0.030621244	-8.600000E-02	  0.030621244	-1.007800E+02	  0.030621244	4.210000E-01	  0.030621244	-4.137600E+01
55	  0.030821644	-8.700000E-02	  0.030821644	-1.014140E+02	  0.030821644	4.210000E-01	  0.030821644	-4.091200E+01
56	  0.031022044	-9.000000E-02	  0.031022044	-1.020290E+02	  0.031022044	4.290000E-01	  0.031022044	-4.046600E+01
57	  0.031222444	-8.600000E-02	  0.031222444	-1.026240E+02	  0.031222444	4.100000E-01	  0.031222444	-4.003800E+01
58	  0.031422846	-8.800000E-02	  0.031422846	-1.032150E+02	  0.031422846	4.150000E-01	  0.031422846	-3.961600E+01
59	  0.031623244	-8.600000E-02	  0.031623244	-1.037960E+02	  0.031623244	4.040000E-01	  0.031623244	-3.920500E+01
60	  0.031823646	-8.600000E-02	  0.031823646	-1.043490E+02	  0.031823646	3.990000E-01	  0.031823646	-3.881800E+01
61	  0.032024048	-8.800000E-02	  0.032024048	-1.048580E+02	  0.032024048	4.040000E-01	  0.032024048	-3.846300E+01
62	  0.032224450	-9.300000E-02	  0.032224450	-1.053620E+02	  0.032224450	4.270000E-01	  0.032224450	-3.811300E+01
63	  0.032424849	-1.030000E-01	  0.032424849	-1.058970E+02	  0.032424849	4.660000E-01	  0.032424849	-3.774500E+01
64	  0.032625251	-1.150000E-01	  0.032625251	-1.064760E+02	  0.032625251	5.160000E-01	  0.032625251	-3.735000E+01
65	  0.032825653	-1.240000E-01	  0.032825653	-1.070560E+02	  0.032825653	5.550000E-01	  0.032825653	-3.695700E+01
66	  0.033026051	-1.320000E-01	  0.033026051	-1.076820E+02	  0.033026051	5.820000E-01	  0.033026051	-3.653500E+01
67	  0.033226453	-1.320000E-01	  0.033226453	-1.083060E+02	  0.033226453	5.810000E-01	  0.033226453	-3.611900E+01
68	  0.033426855	-1.350000E-01	  0.033426855	-1.089430E+02	  0.033426855	5.890000E-01	  0.033426855	-3.569800E+01
69	  0.033627257	-1.340000E-01	  0.033627257	-1.095730E+02	  0.033627257	5.800000E-01	  0.033627257	-3.528500E+01
70	  0.033827655	-1.340000E-01	  0.033827655	-1.102460E+02	  0.033827655	5.760000E-01	  0.033827655	-3.484700E+01
71	  0.034028057	-1.330000E-01	  0.034028057	-1.108510E+02	  0.034028057	5.670000E-01	  0.034028057	-3.445600E+01
72	  0.034228459	-1.280000E-01	  0.034228459	-1.114880E+02	  0.034228459	5.420000E-01	  0.034228459	-3.404800E+01
73	  0.034428857	-1.200000E-01	  0.034428857	-1.120880E+02	  0.034428857	5.020000E-01	  0.034428857	-3.366600E+01
74	  0.034629259	-1.090000E-01	  0.034629259	-1.126330E+02	  0.034629259	4.560000E-01	  0.034629259	-3.332200E+01
75	  0.034829661	-9.800000E-02	  0.034829661	-1.131730E+02	  0.034829661	4.070000E-01	  0.034829661	-3.298300E+01
76	  0.035030060	-9.500000E-02	  0.035030060	-1.136800E+02	  0.035030060	3.940000E-01	  0.035030060	-3.266700E+01
77	  0.035230462	-9.000000E-02	  0.035230462	-1.141900E+02	  0.035230462	3.690000E-01	  0.035230462	-3.235000E+01
78	  0.035430863	-9.300000E-02	  0.035430863	-1.146950E+02	  0.035430863	3.770000E-01	  0.035430863	-3.203900E+01
79	  0.035631265	-9.800000E-02	  0.035631265	-1.152070E+02	  0.035631265	3.990000E-01	  0.035631265	-3.172400E+01
80	  0.035831664	-1.050000E-01	  0.035831664	-1.157220E+02	  0.035831664	4.230000E-01	  0.035831664	-3.141000E+01
81	  0.036032066	-1.130000E-01	  0.036032066	-1.162800E+02	  0.036032066	4.510000E-01	  0.036032066	-3.107100E+01
82	  0.036232468	-1.230000E-01	  0.036232468	-1.168630E+02	  0.036232468	4.890000E-01	  0.036232468	-3.071900E+01
83	  0.036432866	-1.310000E-01	  0.036432866	-1.174760E+02	  0.036432866	5.160000E-01	  0.036432866	-3.035200E+01
84	  0.036633268	-1.350000E-01	  0.036633268	-1.180860E+02	  0.036633268	5.310000E-01	  0.036633268	-2.998900E+01
85	  0.036833670	-1.310000E-01	  0.036833670	-1.186600E+02	  0.036833670	5.110000E-01	  0.036833670	-2.964900E+01
86	  0.037034072	-1.250000E-01	  0.037034072	-1.192190E+02	  0.037034072	4.850000E-01	  0.037034072	-2.932100E+01
87	  0.037234470	-1.170000E-01	  0.037234470	-1.197380E+02	  0.037234470	4.500000E-01	  0.037234470	-2.901700E+01
88	  0.037434869	-1.110000E-01	  0.037434869	-1.201960E+02	  0.037434869	4.260000E-01	  0.037434869	-2.875100E+01
89	  0.037635271	-1.110000E-01	  0.037635271	-1.206710E+02	  0.037635271	4.240000E-01	  0.037635271	-2.847600E+01
90	  0.037835669	-1.160000E-01	  0.037835669	-1.211660E+02	  0.037835669	4.420000E-01	  0.037835669	-2.819100E+01
91	  0.038036071	-1.250000E-01	  0.038036071	-1.216790E+02	  0.038036071	4.730000E-01	  0.038036071	-2.789600E+01
92	  0.038236473	-1.360000E-01	  0.038236473	-1.222310E+02	  0.038236473	5.110000E-01	  0.038236473	-2.758100E+01
93	  0.038436871	-1.390000E-01	  0.038436871	-1.227770E+02	  0.038436871	5.200000E-01	  0.038436871	-2.727100E+01
94	  0.038637273	-1.440000E-01	  0.038637273	-1.233330E+02	  0.038637273	5.360000E-01	  0.038637273	-2.695700E+01
95	  0.038837675	-1.490000E-01	  0.038837675	-1.239000E+02	  0.038837675	5.520000E-01	  0.038837675	-2.663800E+01
96	  0.039038073	-1.550000E-01	  0.039038073	-1.244880E+02	  0.039038073	5.720000E-01	  0.039038073	-2.630900E+01
97	  0.039238475	-1.610000E-01	  0.039238475	-1.250960E+02	  0.039238475	5.900000E-01	  0.039238475	-2.597200E+01
98	  0.039438877	-1.620000E-01	  0.039438877	-1.256860E+02	  0.039438877	5.900000E-01	  0.039438877	-2.564600E+01
99	  0.039639279	-1.600000E-01	  0.039639279	-1.262730E+02	  0.039639279	5.820000E-01	  0.039639279	-2.532300E+01
100	  0.039839678	-1.550000E-01	  0.039839678	-1.268410E+02	  0.039839678	5.600000E-01	  0.039839678	-2.501300E+01
101	  0.040040080	-1.480000E-01	  0.040040080	-1.273840E+02	  0.040040080	5.310000E-01	  0.040040080	-2.471700E+01
102	  0.040240481	-1.450000E-01	  0.040240481	-1.279050E+02	  0.040240481	5.200000E-01	  0.040240481	-2.443500E+01
103	  0.040440880	-1.410000E-01	  0.040440880	-1.284550E+02	  0.040440880	5.020000E-01	  0.040440880	-2.413900E+01
104	  0.040641282	-1.380000E-01	  0.040641282	-1.289770E+02	  0.040641282	4.910000E-01	  0.040641282	-2.385900E+01
105	  0.040841684	-1.360000E-01	  0.040841684	-1.295050E+02	  0.040841684	4.800000E-01	  0.040841684	-2.357600E+01
106	  0.041042086	-1.370000E-01	  0.041042086	-1.300150E+02	  0.041042086	4.820000E-01	  0.041042086	-2.330500E+01
107	  0.041242484	-1.440000E-01	  0.041242484	-1.304860E+02	  0.041242484	5.050000E-01	  0.041242484	-2.305500E+01
108	  0.041442886	-1.560000E-01	  0.041442886	-1.309790E+02	  0.041442886	5.440000E-01	  0.041442886	-2.279500E+01
109	  0.041643288	-1.670000E-01	  0.041643288	-1.315270E+02	  0.041643288	5.790000E-01	  0.041643288	-2.250600E+01
110	  0.041843686	-1.720000E-01	  0.041843686	-1.321090E+02	  0.041843686	5.920000E-01	  0.041843686	-2.220100E+01
111	  0.042044088	-1.720000E-01	  0.042044088	-1.326590E+02	  0.042044088	5.920000E-01	  0.042044088	-2.191400E+01
112	  0.042244490	-1.600000E-01	  0.042244490	-1.332140E+02	  0.042244490	5.470000E-01	  0.042244490	-2.162700E+01
113	  0.042444889	-1.530000E-01	  0.042444889	-1.337150E+02	  0.042444889	5.230000E-01	  0.042444889	-2.136800E+01
114	  0.042645290	-1.450000E-01	  0.042645290	-1.341900E+02	  0.042645290	4.950000E-01	  0.042645290	-2.112400E+01
115	  0.042845692	-1.450000E-01	  0.042845692	-1.346370E+02	  0.042845692	4.920000E-01	  0.042845692	-2.089400E+01
116	  0.043046094	-1.470000E-01	  0.043046094	-1.350990E+02	  0.043046094	4.980000E-01	  0.043046094	-2.065800E+01
117	  0.043246493	-1.520000E-01	  0.043246493	-1.355760E+02	  0.043246493	5.110000E-01	  0.043246493	-2.041400E+01
118	  0.043446895	-1.530000E-01	  0.043446895	-1.360690E+02	  0.043446895	5.140000E-01	  0.043446895	-2.016400E+01
119	  0.043647297	-1.590000E-01	  0.043647297	-1.365400E+02	  0.043647297	5.320000E-01	  0.043647297	-1.992500E+01
120	  0.043847695	-1.640000E-01	  0.043847695	-1.370380E+02	  0.043847695	5.460000E-01	  0.043847695	-1.967400E+01
121	  0.044048097	-1.690000E-01	  0.044048097	-1.375560E+02	  0.044048097	5.610000E-01	  0.044048097	-1.941300E+01
122	  0.044248499	-1.740000E-01	  0.044248499	-1.380820E+02	  0.044248499	5.770000E-01	  0.044248499	-1.914900E+01
123	  0.044448901	-1.800000E-01	  0.044448901	-1.386230E+02	  0.044448901	5.920000E-01	  0.044448901	-1.887900E+01
124	  0.044649299	-1.800000E-01	  0.044649299	-1.391740E+02	  0.044649299	5.920000E-01	  0.044649299	-1.860500E+01
125	  0.044849701	-1.820000E-01	  0.044849701	-1.396910E+02	  0.044849701	5.950000E-01	  0.044849701	-1.834800E+01
126	  0.045050103	-1.840000E-01	  0.045050103	-1.402050E+02	  0.045050103	6.000000E-01	  0.045050103	-1.809400E+01
127	  0.045250501	-1.830000E-01	  0.045250501	-1.407080E+02	  0.045250501	5.960000E-01	  0.045250501	-1.784700E+01
128	  0.045450903	-1.850000E-01	  0.045450903	-1.412490E+02	  0.045450903	6.000000E-01	  0.045450903	-1.758100E+01
129	  0.045651305	-1.810000E-01	  0.045651305	-1.417830E+02	  0.045651305	5.850000E-01	  0.045651305	-1.732000E+01
130	  0.045851704	-1.780000E-01	  0.045851704	-1.423270E+02	  0.045851704	5.740000E-01	  0.045851704	-1.705400E+01
131	  0.046052106	-1.760000E-01	  0.046052106	-1.428550E+02	  0.046052106	5.650000E-01	  0.046052106	-1.679800E+01
132	  0.046252504	-1.730000E-01	  0.046252504	-1.433610E+02	  0.046252504	5.530000E-01	  0.046252504	-1.655200E+01
133	  0.046452906	-1.760000E-01	  0.046452906	-1.438350E+02	  0.046452906	5.630000E-01	  0.046452906	-1.632300E+01
134	  0.046653304	-1.840000E-01	  0.046653304	-1.443270E+02	  0.046653304	5.850000E-01	  0.046653304	-1.608600E+01
135	  0.046853706	-1.930000E-01	  0.046853706	-1.448490E+02	  0.046853706	6.110000E-01	  0.046853706	-1.583500E+01
136	  0.047054108	-1.980000E-01	  0.047054108	-1.453860E+02	  0.047054108	6.250000E-01	  0.047054108	-1.557700E+01
137	  0.047254506	-2.010000E-01	  0.047254506	-1.459440E+02	  0.047254506	6.340000E-01	  0.047254506	-1.531000E+01
138	  0.047454908	-1.920000E-01	  0.047454908	-1.464660E+02	  0.047454908	6.050000E-01	  0.047454908	-1.506200E+01
139	  0.047655310	-1.880000E-01	  0.047655310	-1.469690E+02	  0.047655310	5.910000E-01	  0.047655310	-1.482300E+01
140	  0.047855709	-1.830000E-01	  0.047855709	-1.474310E+02	  0.047855709	5.710000E-01	  0.047855709	-1.460400E+01
141	  0.048056111	-1.790000E-01	  0.048056111	-1.478920E+02	  0.048056111	5.590000E-01	  0.048056111	-1.438600E+01
142	  0.048256513	-1.800000E-01	  0.048256513	-1.483600E+02	  0.048256513	5.610000E-01	  0.048256513	-1.416500E+01
143	  0.048456915	-1.790000E-01	  0.048456915	-1.488150E+02	  0.048456915	5.560000E-01	  0.048456915	-1.395100E+01
144	  0.048657313	-1.770000E-01	  0.048657313	-1.492630E+02	  0.048657313	5.490000E-01	  0.048657313	-1.374000E+01
145	  0.048857715	-1.810000E-01	  0.048857715	-1.497200E+02	  0.048857715	5.610000E-01	  0.048857715	-1.352600E+01
146	  0.049058117	-1.870000E-01	  0.049058117	-1.501490E+02	  0.049058117	5.780000E-01	  0.049058117	-1.332600E+01
147	  0.049258515	-1.930000E-01	  0.049258515	-1.506240E+02	  0.049258515	5.940000E-01	  0.049258515	-1.310400E+01
148	  0.049458917	-1.980000E-01	  0.049458917	-1.510920E+02	  0.049458917	6.070000E-01	  0.049458917	-1.288600E+01
149	  0.049659319	-1.990000E-01	  0.049659319	-1.515900E+02	  0.049659319	6.120000E-01	  0.049659319	-1.265400E+01
150	  0.049859721	-2.010000E-01	  0.049859721	-1.520730E+02	  0.049859721	6.140000E-01	  0.049859721	-1.243000E+01
151	  0.050060119	-1.990000E-01	  0.050060119	-1.525370E+02	  0.050060119	6.090000E-01	  0.050060119	-1.221600E+01
152	  0.050260521	-2.030000E-01	  0.050260521	-1.529930E+02	  0.050260521	6.190000E-01	  0.050260521	-1.200500E+01
153	  0.050460923	-2.070000E-01	  0.050460923	-1.534700E+02	  0.050460923	6.290000E-01	  0.050460923	-1.178500E+01
154	  0.050661322	-2.080000E-01	  0.050661322	-1.539710E+02	  0.050661322	6.300000E-01	  0.050661322	-1.155400E+01
155	  0.050861724	-2.090000E-01	  0.050861724	-1.544930E+02	  0.050861724	6.320000E-01	  0.050861724	-1.131500E+01
156	  0.051062126	-2.070000E-01	  0.051062126	-1.549950E+02	  0.051062126	6.250000E-01	  0.051062126	-1.108500E+01
157	  0.051262524	-2.060000E-01	  0.051262524	-1.554710E+02	  0.051262524	6.220000E-01	  0.051262524	-1.086700E+01
158	  0.051462926	-2.080000E-01	  0.051462926	-1.559710E+02	  0.051462926	6.260000E-01	  0.051462926	-1.063900E+01
159	  0.051663328	-2.100000E-01	  0.051663328	-1.564340E+02	  0.051663328	6.320000E-01	  0.051663328	-1.042800E+01
160	  0.051863730	-2.130000E-01	  0.051863730	-1.569170E+02	  0.051863730	6.390000E-01	  0.051863730	-1.020800E+01
161	  0.052064128	-2.190000E-01	  0.052064128	-1.573970E+02	  0.052064128	6.550000E-01	  0.052064128	-9.990000E+00
162	  0.052264530	-2.210000E-01	  0.052264530	-1.578850E+02	  0.052264530	6.630000E-01	  0.052264530	-9.769000E+00
163	  0.052464932	-2.230000E-01	  0.052464932	-1.583930E+02	  0.052464932	6.670000E-01	  0.052464932	-9.539000E+00
164	  0.052665330	-2.210000E-01	  0.052665330	-1.589010E+02	  0.052665330	6.590000E-01	  0.052665330	-9.309000E+00
165	  0.052865732	-2.180000E-01	  0.052865732	-1.594000E+02	  0.052865732	6.480000E-01	  0.052865732	-9.084000E+00
166	  0.053066134	-2.150000E-01	  0.053066134	-1.598630E+02	  0.053066134	6.400000E-01	  0.053066134	-8.876000E+00
167	  0.053266536	-2.110000E-01	  0.053266536	-1.603310E+02	  0.053266536	6.270000E-01	  0.053266536	-8.666000E+00
168	  0.053466935	-2.110000E-01	  0.053466935	-1.608030E+02	  0.053466935	6.260000E-01	  0.053466935	-8.453000E+00
169	  0.053667337	-2.090000E-01	  0.053667337	-1.612590E+02	  0.053667337	6.190000E-01	  0.053667337	-8.249000E+00
170	  0.053867739	-2.070000E-01	  0.053867739	-1.617110E+02	  0.053867739	6.120000E-01	  0.053867739	-8.047000E+00
171	  0.054068137	-2.080000E-01	  0.054068137	-1.621470E+02	  0.054068137	6.160000E-01	  0.054068137	-7.851000E+00
172	  0.054268539	-2.140000E-01	  0.054268539	-1.625820E+02	  0.054268539	6.320000E-01	  0.054268539	-7.657000E+00
173	  0.054468941	-2.150000E-01	  0.054468941	-1.630410E+02	  0.054468941	6.330000E-01	  0.054468941	-7.452000E+00
174	  0.054669339	-2.170000E-01	  0.054669339	-1.635160E+02	  0.054669339	6.390000E-01	  0.054669339	-7.241000E+00
175	  0.054869737	-2.190000E-01	  0.054869737	-1.639760E+02	  0.054869737	6.430000E-01	  0.054869737	-7.036000E+00
176	  0.055070139	-2.180000E-01	  0.055070139	-1.644060E+02	  0.055070139	6.390000E-01	  0.055070139	-6.845000E+00
177	  0.055270538	-2.180000E-01	  0.055270538	-1.648570E+02	  0.055270538	6.400000E-01	  0.055270538	-6.644000E+00
178	  0.055470940	-2.210000E-01	  0.055470940	-1.653010E+02	  0.055470940	6.490000E-01	  0.055470940	-6.447000E+00
179	  0.055671342	-2.240000E-01	  0.055671342	-1.657540E+02	  0.055671342	6.550000E-01	  0.055671342	-6.246000E+00
180	  0.055871744	-2.270000E-01	  0.055871744	-1.662160E+02	  0.055871744	6.630000E-01	  0.055871744	-6.042000E+00
181	  0.056072142	-2.290000E-01	  0.056072142	-1.666880E+02	  0.056072142	6.690000E-01	  0.056072142	-5.833000E+00
182	  0.056272544	-2.270000E-01	  0.056272544	-1.671490E+02	  0.056272544	6.630000E-01	  0.056272544	-5.629000E+00
183	  0.056472946	-2.270000E-01	  0.056472946	-1.676220E+02	  0.056472946	6.610000E-01	  0.056472946	-5.421000E+00
184	  0.056673344	-2.290000E-01	  0.056673344	-1.680750E+02	  0.056673344	6.660000E-01	  0.056673344	-5.221000E+00
185	  0.056873746	-2.310000E-01	  0.056873746	-1.685340E+02	  0.056873746	6.740000E-01	  0.056873746	-5.018000E+00
186	  0.057074148	-2.320000E-01	  0.057074148	-1.689810E+02	  0.057074148	6.760000E-01	  0.057074148	-4.821000E+00
187	  0.057274550	-2.330000E-01	  0.057274550	-1.694370E+02	  0.057274550	6.770000E-01	  0.057274550	-4.620000E+00
188	  0.057474948	-2.360000E-01	  0.057474948	-1.698780E+02	  0.057474948	6.870000E-01	  0.057474948	-4.426000E+00
189	  0.057675350	-2.370000E-01	  0.057675350	-1.703460E+02	  0.057675350	6.890000E-01	  0.057675350	-4.221000E+00
190	  0.057875752	-2.380000E-01	  0.057875752	-1.708030E+02	  0.057875752	6.890000E-01	  0.057875752	-4.020000E+00
191	  0.058076151	-2.380000E-01	  0.058076151	-1.712490E+02	  0.058076151	6.900000E-01	  0.058076151	-3.824000E+00
192	  0.058276553	-2.350000E-01	  0.058276553	-1.717090E+02	  0.058276553	6.820000E-01	  0.058276553	-3.623000E+00
193	  0.058476955	-2.330000E-01	  0.058476955	-1.721390E+02	  0.058476955	6.750000E-01	  0.058476955	-3.434000E+00
194	  0.058677353	-2.310000E-01	  0.058677353	-1.725930E+02	  0.058677353	6.680000E-01	  0.058677353	-3.235000E+00
195	  0.058877755	-2.310000E-01	  0.058877755	-1.730230E+02	  0.058877755	6.670000E-01	  0.058877755	-3.047000E+00
196	  0.059078157	-2.300000E-01	  0.059078157	-1.734590E+02	  0.059078157	6.650000E-01	  0.059078157	-2.856000E+00
197	  0.059278559	-2.330000E-01	  0.059278559	-1.738820E+02	  0.059278559	6.730000E-01	  0.059278559	-2.671000E+00
198	  0.059478957	-2.350000E-01	  0.059478957	-1.743050E+02	  0.059478957	6.790000E-01	  0.059478957	-2.486000E+00
199	  0.059679359	-2.360000E-01	  0.059679359	-1.747410E+02	  0.059679359	6.820000E-01	  0.059679359	-2.295000E+00
200	  0.059879761	-2.380000E-01	  0.059879761	-1.751730E+02	  0.059879761	6.870000E-01	  0.059879761	-2.106000E+00
201	  0.060080159	-2.390000E-01	  0.060080159	-1.755910E+02	  0.060080159	6.890000E-01	  0.060080159	-1.924000E+00
202	  0.060280561	-2.400000E-01	  0.060280561	-1.760190E+02	  0.060280561	6.910000E-01	  0.060280561	-1.737000E+00
203	  0.060480963	-2.390000E-01	  0.060480963	-1.764400E+02	  0.060480963	6.900000E-01	  0.060480963	-1.553000E+00
204	  0.060681365	-2.430000E-01	  0.060681365	-1.768680E+02	  0.060681365	7.010000E-01	  0.060681365	-1.366000E+00
205	  0.060881764	-2.450000E-01	  0.060881764	-1.772840E+02	  0.060881764	7.060000E-01	  0.060881764	-1.184000E+00
206	  0.061082166	-2.460000E-01	  0.061082166	-1.777210E+02	  0.061082166	7.090000E-01	  0.061082166	-9.940000E-01
207	  0.061282568	-2.490000E-01	  0.061282568	-1.781610E+02	  0.061282568	7.160000E-01	  0.061282568	-8.010000E-01
208	  0.061482966	-2.500000E-01	  0.061482966	-1.786000E+02	  0.061482966	7.210000E-01	  0.061482966	-6.100000E-01
209	  0.061683368	-2.490000E-01	  0.061683368	-1.790370E+02	  0.061683368	7.180000E-01	  0.061683368	-4.200000E-01
210	  0.061883770	-2.510000E-01	  0.061883770	-1.794840E+02	  0.061883770	7.240000E-01	  0.061883770	-2.240000E-01
211	  0.062084168	-2.530000E-01	  0.062084168	-1.799160E+02	  0.062084168	7.290000E-01	  0.062084168	-3.600000E-02
212	  0.062284570	-2.540000E-01	  0.062284570	1.796470E+02	  0.062284570	7.310000E-01	  0.062284570	1.530000E-01
213	  0.062484972	-2.580000E-01	  0.062484972	1.792290E+02	  0.062484972	7.420000E-01	  0.062484972	3.360000E-01
214	  0.062685370	-2.580000E-01	  0.062685370	1.787940E+02	  0.062685370	7.430000E-01	  0.062685370	5.260000E-01
215	  0.062885776	-2.570000E-01	  0.062885776	1.783710E+02	  0.062885776	7.410000E-01	  0.062885776	7.100000E-01
216	  0.063086174	-2.600000E-01	  0.063086174	1.779370E+02	  0.063086174	7.500000E-01	  0.063086174	8.990000E-01
217	  0.063286573	-2.580000E-01	  0.063286573	1.774970E+02	  0.063286573	7.440000E-01	  0.063286573	1.091000E+00
218	  0.063486971	-2.580000E-01	  0.063486971	1.770580E+02	  0.063486971	7.430000E-01	  0.063486971	1.283000E+00
219	  0.063687377	-2.540000E-01	  0.063687377	1.766360E+02	  0.063687377	7.330000E-01	  0.063687377	1.467000E+00
220	  0.063887775	-2.540000E-01	  0.063887775	1.762230E+02	  0.063887775	7.330000E-01	  0.063887775	1.648000E+00
221	  0.064088173	-2.550000E-01	  0.064088173	1.758140E+02	  0.064088173	7.360000E-01	  0.064088173	1.826000E+00
222	  0.064288579	-2.550000E-01	  0.064288579	1.753940E+02	  0.064288579	7.370000E-01	  0.064288579	2.010000E+00
223	  0.064488977	-2.600000E-01	  0.064488977	1.749750E+02	  0.064488977	7.500000E-01	  0.064488977	2.193000E+00
224	  0.064689375	-2.570000E-01	  0.064689375	1.745460E+02	  0.064689375	7.420000E-01	  0.064689375	2.380000E+00
225	  0.064889781	-2.580000E-01	  0.064889781	1.741140E+02	  0.064889781	7.470000E-01	  0.064889781	2.569000E+00
226	  0.065090179	-2.590000E-01	  0.065090179	1.737210E+02	  0.065090179	7.500000E-01	  0.065090179	2.741000E+00
227	  0.065290578	-2.640000E-01	  0.065290578	1.732900E+02	  0.065290578	7.640000E-01	  0.065290578	2.930000E+00
228	  0.065490983	-2.640000E-01	  0.065490983	1.728890E+02	  0.065490983	7.640000E-01	  0.065490983	3.105000E+00
229	  0.065691382	-2.660000E-01	  0.065691382	1.724990E+02	  0.065691382	7.690000E-01	  0.065691382	3.276000E+00
230	  0.065891780	-2.690000E-01	  0.065891780	1.720590E+02	  0.065891780	7.780000E-01	  0.065891780	3.469000E+00
231	  0.066092186	-2.700000E-01	  0.066092186	1.716560E+02	  0.066092186	7.810000E-01	  0.066092186	3.645000E+00
232	  0.066292584	-2.690000E-01	  0.066292584	1.712100E+02	  0.066292584	7.800000E-01	  0.066292584	3.841000E+00
233	  0.066492982	-2.730000E-01	  0.066492982	1.707860E+02	  0.066492982	7.910000E-01	  0.066492982	4.027000E+00
234	  0.066693388	-2.720000E-01	  0.066693388	1.703900E+02	  0.066693388	7.880000E-01	  0.066693388	4.201000E+00
235	  0.066893786	-2.730000E-01	  0.066893786	1.699500E+02	  0.066893786	7.930000E-01	  0.066893786	4.395000E+00
236	  0.067094192	-2.760000E-01	  0.067094192	1.695190E+02	  0.067094192	8.030000E-01	  0.067094192	4.584000E+00
237	  0.067294590	-2.750000E-01	  0.067294590	1.690750E+02	  0.067294590	7.990000E-01	  0.067294590	4.780000E+00
238	  0.067494988	-2.780000E-01	  0.067494988	1.686630E+02	  0.067494988	8.080000E-01	  0.067494988	4.961000E+00
239	  0.067695394	-2.820000E-01	  0.067695394	1.682830E+02	  0.067695394	8.210000E-01	  0.067695394	5.128000E+00
240	  0.067895792	-2.770000E-01	  0.067895792	1.678400E+02	  0.067895792	8.070000E-01	  0.067895792	5.324000E+00
241	  0.068096191	-2.760000E-01	  0.068096191	1.674220E+02	  0.068096191	8.040000E-01	  0.068096191	5.508000E+00
242	  0.068296596	-2.800000E-01	  0.068296596	1.670190E+02	  0.068296596	8.160000E-01	  0.068296596	5.686000E+00
243	  0.068496995	-2.790000E-01	  0.068496995	1.665970E+02	  0.068496995	8.150000E-01	  0.068496995	5.873000E+00
244	  0.068697393	-2.740000E-01	  0.068697393	1.661840E+02	  0.068697393	8.020000E-01	  0.068697393	6.056000E+00
245	  0.068897791	-2.760000E-01	  0.068897791	1.658030E+02	  0.068897791	8.070000E-01	  0.068897791	6.224000E+00
246	  0.069098189	-2.730000E-01	  0.069098189	1.654100E+02	  0.069098189	8.000000E-01	  0.069098189	6.398000E+00
247	  0.069298595	-2.710000E-01	  0.069298595	1.650280E+02	  0.069298595	7.940000E-01	  0.069298595	6.568000E+00
248	  0.069498993	-2.770000E-01	  0.069498993	1.646340E+02	  0.069498993	8.130000E-01	  0.069498993	6.743000E+00
249	  0.069699399	-2.810000E-01	  0.069699399	1.642030E+02	  0.069699399	8.250000E-01	  0.069699399	6.934000E+00
250	  0.069899797	-2.770000E-01	  0.069899797	1.637960E+02	  0.069899797	8.150000E-01	  0.069899797	7.115000E+00
251	  0.070100196	-2.840000E-01	  0.070100196	1.633970E+02	  0.070100196	8.360000E-01	  0.070100196	7.293000E+00
252	  0.070300601	-2.870000E-01	  0.070300601	1.630340E+02	  0.070300601	8.470000E-01	  0.070300601	7.454000E+00
253	  0.070501000	-2.870000E-01	  0.070501000	1.626070E+02	  0.070501000	8.450000E-01	  0.070501000	7.645000E+00
254	  0.070701398	-2.860000E-01	  0.070701398	1.622280E+02	  0.070701398	8.450000E-01	  0.070701398	7.815000E+00
255	  0.070901804	-2.870000E-01	  0.070901804	1.618270E+02	  0.070901804	8.490000E-01	  0.070901804	7.994000E+00
256	  0.071102202	-2.870000E-01	  0.071102202	1.614170E+02	  0.071102202	8.500000E-01	  0.071102202	8.177000E+00
257	  0.071302600	-2.900000E-01	  0.071302600	1.609910E+02	  0.071302600	8.580000E-01	  0.071302600	8.368000E+00
258	  0.071503006	-2.880000E-01	  0.071503006	1.606100E+02	  0.071503006	8.550000E-01	  0.071503006	8.539000E+00
259	  0.071703404	-2.930000E-01	  0.071703404	1.601800E+02	  0.071703404	8.710000E-01	  0.071703404	8.732000E+00
260	  0.071903802	-2.920000E-01	  0.071903802	1.597800E+02	  0.071903802	8.680000E-01	  0.071903802	8.912000E+00
261	  0.072104208	-2.940000E-01	  0.072104208	1.593600E+02	  0.072104208	8.750000E-01	  0.072104208	9.101000E+00
262	  0.072304606	-2.930000E-01	  0.072304606	1.589370E+02	  0.072304606	8.740000E-01	  0.072304606	9.292000E+00
263	  0.072505005	-2.950000E-01	  0.072505005	1.585540E+02	  0.072505005	8.820000E-01	  0.072505005	9.465000E+00
264	  0.072705410	-2.960000E-01	  0.072705410	1.581490E+02	  0.072705410	8.850000E-01	  0.072705410	9.648000E+00
265	  0.072905809	-2.960000E-01	  0.072905809	1.577360E+02	  0.072905809	8.870000E-01	  0.072905809	9.835000E+00
266	  0.073106214	-2.960000E-01	  0.073106214	1.573380E+02	  0.073106214	8.870000E-01	  0.073106214	1.001500E+01
267	  0.073306613	-2.960000E-01	  0.073306613	1.569340E+02	  0.073306613	8.890000E-01	  0.073306613	1.019900E+01
268	  0.073507011	-2.960000E-01	  0.073507011	1.564990E+02	  0.073507011	8.890000E-01	  0.073507011	1.039600E+01
269	  0.073707417	-2.920000E-01	  0.073707417	1.561150E+02	  0.073707417	8.800000E-01	  0.073707417	1.057100E+01
270	  0.073907815	-2.880000E-01	  0.073907815	1.557430E+02	  0.073907815	8.680000E-01	  0.073907815	1.074100E+01
271	  0.074108213	-2.850000E-01	  0.074108213	1.553900E+02	  0.074108213	8.610000E-01	  0.074108213	1.090200E+01
272	  0.074308619	-2.880000E-01	  0.074308619	1.550090E+02	  0.074308619	8.720000E-01	  0.074308619	1.107700E+01
273	  0.074509017	-2.890000E-01	  0.074509017	1.546530E+02	  0.074509017	8.740000E-01	  0.074509017	1.124000E+01
274	  0.074709415	-2.900000E-01	  0.074709415	1.542670E+02	  0.074709415	8.790000E-01	  0.074709415	1.141700E+01
275	  0.074909821	-2.920000E-01	  0.074909821	1.538800E+02	  0.074909821	8.860000E-01	  0.074909821	1.159400E+01
276	  0.075110219	-2.960000E-01	  0.075110219	1.535040E+02	  0.075110219	9.000000E-01	  0.075110219	1.176700E+01
277	  0.075310618	-2.960000E-01	  0.075310618	1.531270E+02	  0.075310618	9.020000E-01	  0.075310618	1.194100E+01
278	  0.075511023	-2.980000E-01	  0.075511023	1.527480E+02	  0.075511023	9.080000E-01	  0.075511023	1.211600E+01
279	  0.075711422	-3.010000E-01	  0.075711422	1.523940E+02	  0.075711422	9.200000E-01	  0.075711422	1.227900E+01
280	  0.075911827	-3.010000E-01	  0.075911827	1.520240E+02	  0.075911827	9.200000E-01	  0.075911827	1.245100E+01
281	  0.076112226	-3.020000E-01	  0.076112226	1.516400E+02	  0.076112226	9.250000E-01	  0.076112226	1.262900E+01
282	  0.076312624	-3.040000E-01	  0.076312624	1.512430E+02	  0.076312624	9.330000E-01	  0.076312624	1.281300E+01
283	  0.076513030	-3.020000E-01	  0.076513030	1.508620E+02	  0.076513030	9.290000E-01	  0.076513030	1.299000E+01
284	  0.076713428	-3.040000E-01	  0.076713428	1.504700E+02	  0.076713428	9.370000E-01	  0.076713428	1.317300E+01
285	  0.076913826	-3.080000E-01	  0.076913826	1.500660E+02	  0.076913826	9.500000E-01	  0.076913826	1.336100E+01
286	  0.077114232	-3.060000E-01	  0.077114232	1.496840E+02	  0.077114232	9.460000E-01	  0.077114232	1.354000E+01
287	  0.077314630	-3.040000E-01	  0.077314630	1.492700E+02	  0.077314630	9.430000E-01	  0.077314630	1.373400E+01
288	  0.077515028	-3.060000E-01	  0.077515028	1.488980E+02	  0.077515028	9.490000E-01	  0.077515028	1.390900E+01
289	  0.077715434	-3.090000E-01	  0.077715434	1.485160E+02	  0.077715434	9.610000E-01	  0.077715434	1.408800E+01
290	  0.077915832	-3.120000E-01	  0.077915832	1.481340E+02	  0.077915832	9.710000E-01	  0.077915832	1.426800E+01
291	  0.078116231	-3.110000E-01	  0.078116231	1.477470E+02	  0.078116231	9.700000E-01	  0.078116231	1.445100E+01
292	  0.078316636	-3.110000E-01	  0.078316636	1.473670E+02	  0.078316636	9.730000E-01	  0.078316636	1.463100E+01
293	  0.078517035	-3.140000E-01	  0.078517035	1.469400E+02	  0.078517035	9.830000E-01	  0.078517035	1.483300E+01
294	  0.078717433	-3.130000E-01	  0.078717433	1.465360E+02	  0.078717433	9.830000E-01	  0.078717433	1.502500E+01
295	  0.078917839	-3.090000E-01	  0.078917839	1.461380E+02	  0.078917839	9.720000E-01	  0.078917839	1.521400E+01
296	  0.079118237	-3.070000E-01	  0.079118237	1.457750E+02	  0.079118237	9.680000E-01	  0.079118237	1.538800E+01
297	  0.079318643	-3.030000E-01	  0.079318643	1.454130E+02	  0.079318643	9.570000E-01	  0.079318643	1.556100E+01
298	  0.079519041	-3.020000E-01	  0.079519041	1.450600E+02	  0.079519041	9.550000E-01	  0.079519041	1.573000E+01
299	  0.079719439	-3.020000E-01	  0.079719439	1.446980E+02	  0.079719439	9.590000E-01	  0.079719439	1.590400E+01
300	  0.079919845	-3.010000E-01	  0.079919845	1.443030E+02	  0.079919845	9.580000E-01	  0.079919845	1.609400E+01
301	  0.080120243	-3.050000E-01	  0.080120243	1.439460E+02	  0.080120243	9.720000E-01	  0.080120243	1.626600E+01
302	  0.080320641	-3.070000E-01	  0.080320641	1.435620E+02	  0.080320641	9.800000E-01	  0.080320641	1.645100E+01
303	  0.080521047	-3.090000E-01	  0.080521047	1.432160E+02	  0.080521047	9.870000E-01	  0.080521047	1.661900E+01
304	  0.080721445	-3.110000E-01	  0.080721445	1.428530E+02	  0.080721445	9.980000E-01	  0.080721445	1.679400E+01
305	  0.080921844	-3.130000E-01	  0.080921844	1.424900E+02	  0.080921844	1.004000E+00	  0.080921844	1.697100E+01
306	  0.081122249	-3.130000E-01	  0.081122249	1.421290E+02	  0.081122249	1.009000E+00	  0.081122249	1.714600E+01
307	  0.081322648	-3.100000E-01	  0.081322648	1.417590E+02	  0.081322648	1.002000E+00	  0.081322648	1.732700E+01
308	  0.081523046	-3.110000E-01	  0.081523046	1.414000E+02	  0.081523046	1.006000E+00	  0.081523046	1.750300E+01
309	  0.081723452	-3.100000E-01	  0.081723452	1.410390E+02	  0.081723452	1.006000E+00	  0.081723452	1.768000E+01
310	  0.081923850	-3.100000E-01	  0.081923850	1.406550E+02	  0.081923850	1.006000E+00	  0.081923850	1.786800E+01
311	  0.082124248	-3.140000E-01	  0.082124248	1.403010E+02	  0.082124248	1.021000E+00	  0.082124248	1.804300E+01
312	  0.082324654	-3.120000E-01	  0.082324654	1.399320E+02	  0.082324654	1.017000E+00	  0.082324654	1.822500E+01
313	  0.082525052	-3.080000E-01	  0.082525052	1.395780E+02	  0.082525052	1.006000E+00	  0.082525052	1.840000E+01
314	  0.082725458	-3.100000E-01	  0.082725458	1.391900E+02	  0.082725458	1.016000E+00	  0.082725458	1.859200E+01
315	  0.082925856	-3.120000E-01	  0.082925856	1.388710E+02	  0.082925856	1.025000E+00	  0.082925856	1.875100E+01
316	  0.083126254	-3.140000E-01	  0.083126254	1.385040E+02	  0.083126254	1.033000E+00	  0.083126254	1.893300E+01
317	  0.083326660	-3.170000E-01	  0.083326660	1.381740E+02	  0.083326660	1.048000E+00	  0.083326660	1.909800E+01
318	  0.083527058	-3.190000E-01	  0.083527058	1.378140E+02	  0.083527058	1.054000E+00	  0.083527058	1.927800E+01
319	  0.083727457	-3.240000E-01	  0.083727457	1.374360E+02	  0.083727457	1.074000E+00	  0.083727457	1.946800E+01
320	  0.083927862	-3.230000E-01	  0.083927862	1.370060E+02	  0.083927862	1.075000E+00	  0.083927862	1.968400E+01
321	  0.084128261	-3.230000E-01	  0.084128261	1.366390E+02	  0.084128261	1.078000E+00	  0.084128261	1.986900E+01
322	  0.084328659	-3.220000E-01	  0.084328659	1.362640E+02	  0.084328659	1.077000E+00	  0.084328659	2.005900E+01
323	  0.084529065	-3.190000E-01	  0.084529065	1.359250E+02	  0.084529065	1.070000E+00	  0.084529065	2.023100E+01
324	  0.084729463	-3.210000E-01	  0.084729463	1.355610E+02	  0.084729463	1.078000E+00	  0.084729463	2.041500E+01
325	  0.084929861	-3.220000E-01	  0.084929861	1.351950E+02	  0.084929861	1.086000E+00	  0.084929861	2.060200E+01
326	  0.085130267	-3.220000E-01	  0.085130267	1.348360E+02	  0.085130267	1.089000E+00	  0.085130267	2.078500E+01
327	  0.085330658	-3.240000E-01	  0.085330658	1.344580E+02	  0.085330658	1.099000E+00	  0.085330658	2.097900E+01
328	  0.085531056	-3.270000E-01	  0.085531056	1.340880E+02	  0.085531056	1.112000E+00	  0.085531056	2.116900E+01
329	  0.085731462	-3.290000E-01	  0.085731462	1.337310E+02	  0.085731462	1.121000E+00	  0.085731462	2.135200E+01
330	  0.085931860	-3.340000E-01	  0.085931860	1.333760E+02	  0.085931860	1.141000E+00	  0.085931860	2.153600E+01
331	  0.086132258	-3.360000E-01	  0.086132258	1.330080E+02	  0.086132258	1.149000E+00	  0.086132258	2.172600E+01
332	  0.086332664	-3.370000E-01	  0.086332664	1.326410E+02	  0.086332664	1.158000E+00	  0.086332664	2.191700E+01
333	  0.086533062	-3.350000E-01	  0.086533062	1.322620E+02	  0.086533062	1.153000E+00	  0.086533062	2.211400E+01
334	  0.086733460	-3.320000E-01	  0.086733460	1.318920E+02	  0.086733460	1.148000E+00	  0.086733460	2.230700E+01
335	  0.086933866	-3.300000E-01	  0.086933866	1.315120E+02	  0.086933866	1.143000E+00	  0.086933866	2.250700E+01
336	  0.087134264	-3.330000E-01	  0.087134264	1.311530E+02	  0.087134264	1.155000E+00	  0.087134264	2.269500E+01
337	  0.087334670	-3.300000E-01	  0.087334670	1.307770E+02	  0.087334670	1.150000E+00	  0.087334670	2.289300E+01
338	  0.087535068	-3.280000E-01	  0.087535068	1.304420E+02	  0.087535068	1.145000E+00	  0.087535068	2.307000E+01
339	  0.087735467	-3.190000E-01	  0.087735467	1.300980E+02	  0.087735467	1.117000E+00	  0.087735467	2.325300E+01
340	  0.087935872	-3.170000E-01	  0.087935872	1.297720E+02	  0.087935872	1.113000E+00	  0.087935872	2.342600E+01
341	  0.088136271	-3.120000E-01	  0.088136271	1.294330E+02	  0.088136271	1.100000E+00	  0.088136271	2.360700E+01
342	  0.088336669	-3.150000E-01	  0.088336669	1.291160E+02	  0.088336669	1.112000E+00	  0.088336669	2.377600E+01
343	  0.088537075	-3.170000E-01	  0.088537075	1.288010E+02	  0.088537075	1.122000E+00	  0.088537075	2.394500E+01
344	  0.088737473	-3.160000E-01	  0.088737473	1.284690E+02	  0.088737473	1.122000E+00	  0.088737473	2.412300E+01
345	  0.088937871	-3.190000E-01	  0.088937871	1.281390E+02	  0.088937871	1.137000E+00	  0.088937871	2.430100E+01
346	  0.089138277	-3.180000E-01	  0.089138277	1.277730E+02	  0.089138277	1.135000E+00	  0.089138277	2.449800E+01
347	  0.089338675	-3.200000E-01	  0.089338675	1.274330E+02	  0.089338675	1.148000E+00	  0.089338675	2.468200E+01
348	  0.089539073	-3.180000E-01	  0.089539073	1.270690E+02	  0.089539073	1.142000E+00	  0.089539073	2.488000E+01
349	  0.089739479	-3.160000E-01	  0.089739479	1.267180E+02	  0.089739479	1.141000E+00	  0.089739479	2.507200E+01
350	  0.089939877	-3.230000E-01	  0.089939877	1.263860E+02	  0.089939877	1.166000E+00	  0.089939877	2.525300E+01
351	  0.090140276	-3.190000E-01	  0.090140276	1.260270E+02	  0.090140276	1.156000E+00	  0.090140276	2.545000E+01
352	  0.090340681	-3.260000E-01	  0.090340681	1.256920E+02	  0.090340681	1.186000E+00	  0.090340681	2.563300E+01
353	  0.090541080	-3.200000E-01	  0.090541080	1.253180E+02	  0.090541080	1.167000E+00	  0.090541080	2.584000E+01
354	  0.090741485	-3.240000E-01	  0.090741485	1.249660E+02	  0.090741485	1.187000E+00	  0.090741485	2.603500E+01
355	  0.090941884	-3.280000E-01	  0.090941884	1.246160E+02	  0.090941884	1.206000E+00	  0.090941884	2.622900E+01
356	  0.091142282	-3.350000E-01	  0.091142282	1.242550E+02	  0.091142282	1.234000E+00	  0.091142282	2.642900E+01
357	  0.091342688	-3.380000E-01	  0.091342688	1.238900E+02	  0.091342688	1.249000E+00	  0.091342688	2.663300E+01
358	  0.091543086	-3.410000E-01	  0.091543086	1.235320E+02	  0.091543086	1.264000E+00	  0.091543086	2.683400E+01
359	  0.091743484	-3.400000E-01	  0.091743484	1.231290E+02	  0.091743484	1.268000E+00	  0.091743484	2.706100E+01
360	  0.091943890	-3.370000E-01	  0.091943890	1.227600E+02	  0.091943890	1.260000E+00	  0.091943890	2.726900E+01
361	  0.092144288	-3.410000E-01	  0.092144288	1.223850E+02	  0.092144288	1.279000E+00	  0.092144288	2.748200E+01
362	  0.092344686	-3.390000E-01	  0.092344686	1.219720E+02	  0.092344686	1.275000E+00	  0.092344686	2.771700E+01
363	  0.092545092	-3.430000E-01	  0.092545092	1.216330E+02	  0.092545092	1.297000E+00	  0.092545092	2.791000E+01
364	  0.092745490	-3.340000E-01	  0.092745490	1.212550E+02	  0.092745490	1.265000E+00	  0.092745490	2.812700E+01
365	  0.092945889	-3.360000E-01	  0.092945889	1.208970E+02	  0.092945889	1.278000E+00	  0.092945889	2.833300E+01
366	  0.093146294	-3.270000E-01	  0.093146294	1.205390E+02	  0.093146294	1.251000E+00	  0.093146294	2.854100E+01
367	  0.093346693	-3.270000E-01	  0.093346693	1.202080E+02	  0.093346693	1.252000E+00	  0.093346693	2.873200E+01
368	  0.093547091	-3.200000E-01	  0.093547091	1.199080E+02	  0.093547091	1.229000E+00	  0.093547091	2.890700E+01
369	  0.093747497	-3.240000E-01	  0.093747497	1.195630E+02	  0.093747497	1.250000E+00	  0.093747497	2.910800E+01
370	  0.093947895	-3.220000E-01	  0.093947895	1.192650E+02	  0.093947895	1.246000E+00	  0.093947895	2.928200E+01
371	  0.094148301	-3.210000E-01	  0.094148301	1.189150E+02	  0.094148301	1.246000E+00	  0.094148301	2.948800E+01
372	  0.094348699	-3.230000E-01	  0.094348699	1.185880E+02	  0.094348699	1.259000E+00	  0.094348699	2.968000E+01
373	  0.094549097	-3.200000E-01	  0.094549097	1.182570E+02	  0.094549097	1.252000E+00	  0.094549097	2.987600E+01
374	  0.094749503	-3.210000E-01	  0.094749503	1.179410E+02	  0.094749503	1.260000E+00	  0.094749503	3.006300E+01
375	  0.094949901	-3.190000E-01	  0.094949901	1.176290E+02	  0.094949901	1.256000E+00	  0.094949901	3.024900E+01
376	  0.095150299	-3.220000E-01	  0.095150299	1.172910E+02	  0.095150299	1.274000E+00	  0.095150299	3.045100E+01
377	  0.095350705	-3.210000E-01	  0.095350705	1.169570E+02	  0.095350705	1.272000E+00	  0.095350705	3.065100E+01
378	  0.095551103	-3.190000E-01	  0.095551103	1.166120E+02	  0.095551103	1.271000E+00	  0.095551103	3.085800E+01
379	  0.095751502	-3.180000E-01	  0.095751502	1.163180E+02	  0.095751502	1.271000E+00	  0.095751502	3.103600E+01
380	  0.095951907	-3.190000E-01	  0.095951907	1.159960E+02	  0.095951907	1.277000E+00	  0.095951907	3.123000E+01
381	  0.096152306	-3.260000E-01	  0.096152306	1.156850E+02	  0.096152306	1.308000E+00	  0.096152306	3.141900E+01
382	  0.096352704	-3.260000E-01	  0.096352704	1.153210E+02	  0.096352704	1.317000E+00	  0.096352704	3.164000E+01
383	  0.096553110	-3.340000E-01	  0.096553110	1.149970E+02	  0.096553110	1.353000E+00	  0.096553110	3.183800E+01
384	  0.096753508	-3.360000E-01	  0.096753508	1.146610E+02	  0.096753508	1.366000E+00	  0.096753508	3.204400E+01
385	  0.096953906	-3.370000E-01	  0.096953906	1.142850E+02	  0.096953906	1.374000E+00	  0.096953906	3.227600E+01
386	  0.097154312	-3.380000E-01	  0.097154312	1.139240E+02	  0.097154312	1.386000E+00	  0.097154312	3.249900E+01
387	  0.097354710	-3.410000E-01	  0.097354710	1.135530E+02	  0.097354710	1.404000E+00	  0.097354710	3.272900E+01
388	  0.097555116	-3.430000E-01	  0.097555116	1.132000E+02	  0.097555116	1.416000E+00	  0.097555116	3.295000E+01
389	  0.097755514	-3.400000E-01	  0.097755514	1.128190E+02	  0.097755514	1.413000E+00	  0.097755514	3.318900E+01
390	  0.097955912	-3.410000E-01	  0.097955912	1.124550E+02	  0.097955912	1.422000E+00	  0.097955912	3.341800E+01
391	  0.098156318	-3.390000E-01	  0.098156318	1.121270E+02	  0.098156318	1.419000E+00	  0.098156318	3.362500E+01
392	  0.098356716	-3.360000E-01	  0.098356716	1.117690E+02	  0.098356716	1.412000E+00	  0.098356716	3.385300E+01
393	  0.098557115	-3.330000E-01	  0.098557115	1.114180E+02	  0.098557115	1.405000E+00	  0.098557115	3.407700E+01
394	  0.098757520	-3.330000E-01	  0.098757520	1.110990E+02	  0.098757520	1.411000E+00	  0.098757520	3.428100E+01
395	  0.098957919	-3.330000E-01	  0.098957919	1.107690E+02	  0.098957919	1.415000E+00	  0.098957919	3.449300E+01
396	  0.099158317	-3.330000E-01	  0.099158317	1.104520E+02	  0.099158317	1.420000E+00	  0.099158317	3.469700E+01
397	  0.099358723	-3.320000E-01	  0.099358723	1.101260E+02	  0.099358723	1.421000E+00	  0.099358723	3.490900E+01
398	  0.099559121	-3.300000E-01	  0.099559121	1.097990E+02	  0.099559121	1.422000E+00	  0.099559121	3.512200E+01
399	  0.099759519	-3.290000E-01	  0.099759519	1.094610E+02	  0.099759519	1.421000E+00	  0.099759519	3.534200E+01
400	  0.099959925	-3.250000E-01	  0.099959925	1.091470E+02	  0.099959925	1.411000E+00	  0.099959925	3.554800E+01
401	  0.100160323	-3.300000E-01	  0.100160323	1.088240E+02	  0.100160323	1.439000E+00	  0.100160323	3.576000E+01
402	  0.100360721	-3.310000E-01	  0.100360721	1.085010E+02	  0.100360721	1.448000E+00	  0.100360721	3.597300E+01
403	  0.100561127	-3.300000E-01	  0.100561127	1.081840E+02	  0.100561127	1.448000E+00	  0.100561127	3.618400E+01
404	  0.100761525	-3.290000E-01	  0.100761525	1.078570E+02	  0.100761525	1.452000E+00	  0.100761525	3.640200E+01
405	  0.100961931	-3.220000E-01	  0.100961931	1.075100E+02	  0.100961931	1.425000E+00	  0.100961931	3.663500E+01
406	  0.101162329	-3.290000E-01	  0.101162329	1.072180E+02	  0.101162329	1.464000E+00	  0.101162329	3.682900E+01
407	  0.101362728	-3.210000E-01	  0.101362728	1.069120E+02	  0.101362728	1.432000E+00	  0.101362728	3.703700E+01
408	  0.101563133	-3.340000E-01	  0.101563133	1.065600E+02	  0.101563133	1.499000E+00	  0.101563133	3.727300E+01
409	  0.101763532	-3.320000E-01	  0.101763532	1.062650E+02	  0.101763532	1.495000E+00	  0.101763532	3.747500E+01
410	  0.101963930	-3.330000E-01	  0.101963930	1.059410E+02	  0.101963930	1.504000E+00	  0.101963930	3.769600E+01
411	  0.102164336	-3.330000E-01	  0.102164336	1.055890E+02	  0.102164336	1.511000E+00	  0.102164336	3.793700E+01
412	  0.102364734	-3.440000E-01	  0.102364734	1.052400E+02	  0.102364734	1.570000E+00	  0.102364734	3.817600E+01
413	  0.102565132	-3.370000E-01	  0.102565132	1.049390E+02	  0.102565132	1.543000E+00	  0.102565132	3.838500E+01
414	  0.102765530	-3.440000E-01	  0.102765530	1.045550E+02	  0.102765530	1.583000E+00	  0.102765530	3.865000E+01
415	  0.102965929	-3.420000E-01	  0.102965929	1.042440E+02	  0.102965929	1.581000E+00	  0.102965929	3.886800E+01
416	  0.103166327	-3.450000E-01	  0.103166327	1.038880E+02	  0.103166327	1.603000E+00	  0.103166327	3.911700E+01
417	  0.103366733	-3.460000E-01	  0.103366733	1.035670E+02	  0.103366733	1.615000E+00	  0.103366733	3.934300E+01
418	  0.103567131	-3.380000E-01	  0.103567131	1.031930E+02	  0.103567131	1.587000E+00	  0.103567131	3.960900E+01
419	  0.103767529	-3.390000E-01	  0.103767529	1.029090E+02	  0.103767529	1.598000E+00	  0.103767529	3.981100E+01
420	  0.103967935	-3.440000E-01	  0.103967935	1.025410E+02	  0.103967935	1.626000E+00	  0.103967935	4.007300E+01
421	  0.104168333	-3.420000E-01	  0.104168333	1.022670E+02	  0.104168333	1.626000E+00	  0.104168333	4.027000E+01
422	  0.104368731	-3.520000E-01	  0.104368731	1.019110E+02	  0.104368731	1.680000E+00	  0.104368731	4.052500E+01
423	  0.104569137	-3.410000E-01	  0.104569137	1.016300E+02	  0.104569137	1.634000E+00	  0.104569137	4.073000E+01
424	  0.104769535	-3.450000E-01	  0.104769535	1.013110E+02	  0.104769535	1.662000E+00	  0.104769535	4.096100E+01
425	  0.104969934	-3.400000E-01	  0.104969934	1.010110E+02	  0.104969934	1.644000E+00	  0.104969934	4.118100E+01
426	  0.105170339	-3.550000E-01	  0.105170339	1.007170E+02	  0.105170339	1.725000E+00	  0.105170339	4.139400E+01
427	  0.105370738	-3.440000E-01	  0.105370738	1.004080E+02	  0.105370738	1.678000E+00	  0.105370738	4.162400E+01
428	  0.105571143	-3.560000E-01	  0.105571143	1.000990E+02	  0.105571143	1.745000E+00	  0.105571143	4.185100E+01
429	  0.105771542	-3.470000E-01	  0.105771542	9.975500E+01	  0.105771542	1.711000E+00	  0.105771542	4.210800E+01
430	  0.105971940	-3.530000E-01	  0.105971940	9.943000E+01	  0.105971940	1.749000E+00	  0.105971940	4.235000E+01
431	  0.106172346	-3.420000E-01	  0.106172346	9.910500E+01	  0.106172346	1.703000E+00	  0.106172346	4.259600E+01
432	  0.106372744	-3.550000E-01	  0.106372744	9.879300E+01	  0.106372744	1.774000E+00	  0.106372744	4.282900E+01
433	  0.106573142	-3.510000E-01	  0.106573142	9.844500E+01	  0.106573142	1.764000E+00	  0.106573142	4.309300E+01
434	  0.106773548	-3.530000E-01	  0.106773548	9.813700E+01	  0.106773548	1.780000E+00	  0.106773548	4.332800E+01
435	  0.106973946	-3.550000E-01	  0.106973946	9.780300E+01	  0.106973946	1.799000E+00	  0.106973946	4.358300E+01
436	  0.107174344	-3.540000E-01	  0.107174344	9.747800E+01	  0.107174344	1.803000E+00	  0.107174344	4.383300E+01
437	  0.107374750	-3.500000E-01	  0.107374750	9.718600E+01	  0.107374750	1.793000E+00	  0.107374750	4.405900E+01
438	  0.107575148	-3.520000E-01	  0.107575148	9.682100E+01	  0.107575148	1.811000E+00	  0.107575148	4.434200E+01
439	  0.107775547	-3.480000E-01	  0.107775547	9.648700E+01	  0.107775547	1.799000E+00	  0.107775547	4.460400E+01
440	  0.107975952	-3.480000E-01	  0.107975952	9.614800E+01	  0.107975952	1.813000E+00	  0.107975952	4.487000E+01
441	  0.108176351	-3.440000E-01	  0.108176351	9.580800E+01	  0.108176351	1.798000E+00	  0.108176351	4.513900E+01
442	  0.108376749	-3.430000E-01	  0.108376749	9.549500E+01	  0.108376749	1.801000E+00	  0.108376749	4.538700E+01
443	  0.108577155	-3.410000E-01	  0.108577155	9.516700E+01	  0.108577155	1.802000E+00	  0.108577155	4.564900E+01
444	  0.108777553	-3.360000E-01	  0.108777553	9.485700E+01	  0.108777553	1.782000E+00	  0.108777553	4.589900E+01
445	  0.108977959	-3.320000E-01	  0.108977959	9.449800E+01	  0.108977959	1.775000E+00	  0.108977959	4.618900E+01
446	  0.109178357	-3.340000E-01	  0.109178357	9.421300E+01	  0.109178357	1.795000E+00	  0.109178357	4.641900E+01
447	  0.109378755	-3.360000E-01	  0.109378755	9.391100E+01	  0.109378755	1.811000E+00	  0.109378755	4.666400E+01
448	  0.109579161	-3.330000E-01	  0.109579161	9.360000E+01	  0.109579161	1.803000E+00	  0.109579161	4.692000E+01
449	  0.109779559	-3.300000E-01	  0.109779559	9.327600E+01	  0.109779559	1.797000E+00	  0.109779559	4.718700E+01
450	  0.109979957	-3.230000E-01	  0.109979957	9.302900E+01	  0.109979957	1.769000E+00	  0.109979957	4.739200E+01
451	  0.110180363	-3.200000E-01	  0.110180363	9.271500E+01	  0.110180363	1.761000E+00	  0.110180363	4.765300E+01
452	  0.110380761	-3.240000E-01	  0.110380761	9.243500E+01	  0.110380761	1.788000E+00	  0.110380761	4.788600E+01
453	  0.110581160	-3.250000E-01	  0.110581160	9.215900E+01	  0.110581160	1.807000E+00	  0.110581160	4.811700E+01
454	  0.110781565	-3.320000E-01	  0.110781565	9.183100E+01	  0.110781565	1.853000E+00	  0.110781565	4.839200E+01
455	  0.110981964	-3.300000E-01	  0.110981964	9.155900E+01	  0.110981964	1.853000E+00	  0.110981964	4.862300E+01
456	  0.111182362	-3.310000E-01	  0.111182362	9.126000E+01	  0.111182362	1.868000E+00	  0.111182362	4.887600E+01
457	  0.111382768	-3.340000E-01	  0.111382768	9.095100E+01	  0.111382768	1.893000E+00	  0.111382768	4.914100E+01
458	  0.111583166	-3.310000E-01	  0.111583166	9.062400E+01	  0.111583166	1.884000E+00	  0.111583166	4.942200E+01
459	  0.111783572	-3.330000E-01	  0.111783572	9.033900E+01	  0.111783572	1.909000E+00	  0.111783572	4.966700E+01
460	  0.111983970	-3.370000E-01	  0.111983970	9.001100E+01	  0.111983970	1.940000E+00	  0.111983970	4.995200E+01
461	  0.112184368	-3.410000E-01	  0.112184368	8.970000E+01	  0.112184368	1.975000E+00	  0.112184368	5.022200E+01
462	  0.112384774	-3.360000E-01	  0.112384774	8.938700E+01	  0.112384774	1.956000E+00	  0.112384774	5.049800E+01
463	  0.112585172	-3.350000E-01	  0.112585172	8.906600E+01	  0.112585172	1.965000E+00	  0.112585172	5.078200E+01
464	  0.112785570	-3.400000E-01	  0.112785570	8.876400E+01	  0.112785570	2.001000E+00	  0.112785570	5.104900E+01
465	  0.112985976	-3.390000E-01	  0.112985976	8.842500E+01	  0.112985976	2.011000E+00	  0.112985976	5.135200E+01
466	  0.113186374	-3.390000E-01	  0.113186374	8.807200E+01	  0.113186374	2.022000E+00	  0.113186374	5.166900E+01
467	  0.113386773	-3.340000E-01	  0.113386773	8.777300E+01	  0.113386773	2.004000E+00	  0.113386773	5.194100E+01
468	  0.113587178	-3.360000E-01	  0.113587178	8.742000E+01	  0.113587178	2.027000E+00	  0.113587178	5.226200E+01
469	  0.113787577	-3.350000E-01	  0.113787577	8.708300E+01	  0.113787577	2.031000E+00	  0.113787577	5.257000E+01
470	  0.113987975	-3.320000E-01	  0.113987975	8.676800E+01	  0.113987975	2.025000E+00	  0.113987975	5.286100E+01
471	  0.114188381	-3.330000E-01	  0.114188381	8.645500E+01	  0.114188381	2.046000E+00	  0.114188381	5.315100E+01
472	  0.114388779	-3.280000E-01	  0.114388779	8.610500E+01	  0.114388779	2.025000E+00	  0.114388779	5.347800E+01
473	  0.114589177	-3.280000E-01	  0.114589177	8.576000E+01	  0.114589177	2.039000E+00	  0.114589177	5.380200E+01
474	  0.114789583	-3.260000E-01	  0.114789583	8.545500E+01	  0.114789583	2.038000E+00	  0.114789583	5.409000E+01
475	  0.114989981	-3.210000E-01	  0.114989981	8.515200E+01	  0.114989981	2.021000E+00	  0.114989981	5.437800E+01
476	  0.115190387	-3.210000E-01	  0.115190387	8.482900E+01	  0.115190387	2.033000E+00	  0.115190387	5.468700E+01
477	  0.115390785	-3.170000E-01	  0.115390785	8.452400E+01	  0.115390785	2.022000E+00	  0.115390785	5.498100E+01
478	  0.115591183	-3.220000E-01	  0.115591183	8.426400E+01	  0.115591183	2.060000E+00	  0.115591183	5.523000E+01
479	  0.115791589	-3.130000E-01	  0.115791589	8.395200E+01	  0.115791589	2.018000E+00	  0.115791589	5.553600E+01
480	  0.115991987	-3.200000E-01	  0.115991987	8.366000E+01	  0.115991987	2.071000E+00	  0.115991987	5.581900E+01
481	  0.116192386	-3.200000E-01	  0.116192386	8.336500E+01	  0.116192386	2.083000E+00	  0.116192386	5.610900E+01
482	  0.116392791	-3.180000E-01	  0.116392791	8.310000E+01	  0.116392791	2.084000E+00	  0.116392791	5.637100E+01
483	  0.116593190	-3.170000E-01	  0.116593190	8.277100E+01	  0.116593190	2.086000E+00	  0.116593190	5.669800E+01
484	  0.116793588	-3.190000E-01	  0.116793588	8.252800E+01	  0.116793588	2.111000E+00	  0.116793588	5.694100E+01
485	  0.116993994	-3.220000E-01	  0.116993994	8.217200E+01	  0.116993994	2.147000E+00	  0.116993994	5.729800E+01
486	  0.117194392	-3.260000E-01	  0.117194392	8.188000E+01	  0.117194392	2.190000E+00	  0.117194392	5.759200E+01
487	  0.117394790	-3.310000E-01	  0.117394790	8.160300E+01	  0.117394790	2.233000E+00	  0.117394790	5.787200E+01
488	  0.117595196	-3.260000E-01	  0.117595196	8.132000E+01	  0.117595196	2.210000E+00	  0.117595196	5.816300E+01
489	  0.117795594	-3.310000E-01	  0.117795594	8.100600E+01	  0.117795594	2.261000E+00	  0.117795594	5.848500E+01
490	  0.117995992	-3.290000E-01	  0.117995992	8.068400E+01	  0.117995992	2.262000E+00	  0.117995992	5.881900E+01
491	  0.118196398	-3.280000E-01	  0.118196398	8.039200E+01	  0.118196398	2.265000E+00	  0.118196398	5.912300E+01
492	  0.118396796	-3.330000E-01	  0.118396796	8.010300E+01	  0.118396796	2.319000E+00	  0.118396796	5.942500E+01
493	  0.118597202	-3.310000E-01	  0.118597202	7.978900E+01	  0.118597202	2.317000E+00	  0.118597202	5.975700E+01
494	  0.118797600	-3.330000E-01	  0.118797600	7.949700E+01	  0.118797600	2.349000E+00	  0.118797600	6.006700E+01
495	  0.118997999	-3.280000E-01	  0.118997999	7.917600E+01	  0.118997999	2.329000E+00	  0.118997999	6.041100E+01
496	  0.119198404	-3.340000E-01	  0.119198404	7.887800E+01	  0.119198404	2.380000E+00	  0.119198404	6.072900E+01
497	  0.119398803	-3.310000E-01	  0.119398803	7.853900E+01	  0.119398803	2.381000E+00	  0.119398803	6.109800E+01
498	  0.119599201	-3.310000E-01	  0.119599201	7.822800E+01	  0.119599201	2.397000E+00	  0.119599201	6.143700E+01
499	  0.119799607	-3.310000E-01	  0.119799607	7.794900E+01	  0.119799607	2.408000E+00	  0.119799607	6.174300E+01
500	  0.120000005	-3.270000E-01	  0.120000005	7.763600E+01	  0.120000005	2.398000E+00	  0.120000005	6.209100E+01
