! Anritsu VNA Master:             	Model: MS2036C/10/77
! SN:             	1601066
! /bd0/18may10/bot50.txt
! Existing Calibration Information:
! TYPE:             	Current Settings	Active Cal Settings
! TIME:             	05/10/2018 01:21:29 PM	05/10/2018 01:17:32 PM
! INTERNAL TEMP:    	52.5 C	52.0 C
! # POINTS:         	492	492
! START FREQ:       	20.000 MHz	20.000 MHz
! STOP FREQ:        	118.396 793 MHz	118.396 793 MHz
! SOURCE POWER:     	High	High
! IFBW:             	50 Hz	50 Hz
! AVG FACTOR:       	  1 	  1 
! REF PLANE 1:      	0 mm	0 mm
! REF PLANE 2:      	0 mm	0 mm
! CAL TYPE:         	Full S22	Full S22
! CAL METHOD:       	SOLT	SOLT
! CAL LINE TYPE:    	Coax	Coax
! DUT PORT 1:       	K-Conn(M)	K-Conn(M)
! DUT PORT 2:       	K-Conn(M)	K-Conn(M)
! CAL STATUS:       	OK: Accuracy High	--
! PROP-V:       	0.700
! CABLE LOSS:       	0.000 dB/m
! REF IMPEDANCE:       	50.0
! Trace Specific Parameters:	TR1	TR2	TR3	TR4
! TRACE.#.Y (GRAPH TYPE)	LOG MAG	PHASE	REAL IMPEDANCE	IMAGINARY IMPEDANCE
! TRACE.#.X 	FREQ.GHZ	FREQ.GHZ	FREQ.GHZ	FREQ.GHZ
! S-PARAMETER	S22	S22	S22	S22
! SMOOTH/APERTURE %	0	0	0	0
! WINDOW	NSL	NSL	NSL	NSL
! GATING	OFF	OFF	OFF	OFF
! FGTD	OFF	OFF	OFF	OFF
Marker Information per Trace:	TR1	TR2	TR3	TR4
!MK1	--	"MK1 TR2:  20.000 MHz,PH:50.82°"	--	--
!MK2	--	--	"MK2 TR3:  70.100 200 MHz,Z:(52.534 ohm, 1.222 ohm)"	--
!MK3	--	--	--	--
!MK4	--	--	--	--
!MK5	--	--	--	--
!MK6	--	--	--	--
!MK7	--	--	--	--
!MK8	--	--	--	--
PNT	TR1.FREQ.GHZ	TR1.LOG MAG.dB	TR2.FREQ.GHZ	TR2.PHASE.deg	TR3.FREQ.GHZ	TR3.REAL IMPEDANCE.ohm	TR4.FREQ.GHZ	TR4.IMAGINARY IMPEDANCE.ohm
1	  0.020000000	-3.873600E+01	  0.020000000	5.082000E+01	  0.020000000	5.072700E+01	  0.020000000	9.090000E-01
2	  0.020200402	-3.866900E+01	  0.020200402	5.023700E+01	  0.020200402	5.074200E+01	  0.020200402	9.090000E-01
3	  0.020400802	-3.856000E+01	  0.020400802	4.994200E+01	  0.020400802	5.075700E+01	  0.020400802	9.170000E-01
4	  0.020601204	-3.854700E+01	  0.020601204	5.048100E+01	  0.020601204	5.074900E+01	  0.020601204	9.250000E-01
5	  0.020801604	-3.847100E+01	  0.020801604	5.007900E+01	  0.020801604	5.076200E+01	  0.020801604	9.280000E-01
6	  0.021002004	-3.834500E+01	  0.021002004	5.032200E+01	  0.021002004	5.076900E+01	  0.021002004	9.450000E-01
7	  0.021202406	-3.832100E+01	  0.021202406	5.018000E+01	  0.021202406	5.077400E+01	  0.021202406	9.460000E-01
8	  0.021402806	-3.826500E+01	  0.021402806	4.994300E+01	  0.021402806	5.078300E+01	  0.021402806	9.490000E-01
9	  0.021603208	-3.825100E+01	  0.021603208	5.006900E+01	  0.021603208	5.078200E+01	  0.021603208	9.520000E-01
10	  0.021803608	-3.810700E+01	  0.021803608	4.974400E+01	  0.021803608	5.080000E+01	  0.021803608	9.640000E-01
11	  0.022004008	-3.813700E+01	  0.022004008	4.951000E+01	  0.022004008	5.080200E+01	  0.022004008	9.570000E-01
12	  0.022204408	-3.805200E+01	  0.022204408	5.008900E+01	  0.022204408	5.079900E+01	  0.022204408	9.750000E-01
13	  0.022404809	-3.800900E+01	  0.022404809	4.962300E+01	  0.022404809	5.081100E+01	  0.022404809	9.730000E-01
14	  0.022605211	-3.794800E+01	  0.022605211	4.917000E+01	  0.022605211	5.082500E+01	  0.022605211	9.740000E-01
15	  0.022805611	-3.788200E+01	  0.022805611	4.979400E+01	  0.022805611	5.082000E+01	  0.022805611	9.900000E-01
16	  0.023006011	-3.783800E+01	  0.023006011	4.957900E+01	  0.023006011	5.082800E+01	  0.023006011	9.920000E-01
17	  0.023206413	-3.776100E+01	  0.023206413	4.949100E+01	  0.023206413	5.083700E+01	  0.023206413	1.000000E+00
18	  0.023406813	-3.772900E+01	  0.023406813	4.926100E+01	  0.023406813	5.084400E+01	  0.023406813	1.000000E+00
19	  0.023607215	-3.766100E+01	  0.023607215	4.909900E+01	  0.023607215	5.085400E+01	  0.023607215	1.006000E+00
20	  0.023807615	-3.761100E+01	  0.023807615	4.920100E+01	  0.023807615	5.085700E+01	  0.023807615	1.013000E+00
21	  0.024008015	-3.756900E+01	  0.024008015	4.942700E+01	  0.024008015	5.085700E+01	  0.024008015	1.022000E+00
22	  0.024208417	-3.754800E+01	  0.024208417	4.886700E+01	  0.024208417	5.086900E+01	  0.024208417	1.016000E+00
23	  0.024408817	-3.744200E+01	  0.024408817	4.899500E+01	  0.024408817	5.087800E+01	  0.024408817	1.030000E+00
24	  0.024609219	-3.737800E+01	  0.024609219	4.902600E+01	  0.024609219	5.088300E+01	  0.024609219	1.039000E+00
25	  0.024809619	-3.736600E+01	  0.024809619	4.921300E+01	  0.024809619	5.088100E+01	  0.024809619	1.043000E+00
26	  0.025010020	-3.729400E+01	  0.025010020	4.852900E+01	  0.025010020	5.090100E+01	  0.025010020	1.041000E+00
27	  0.025210422	-3.726300E+01	  0.025210422	4.882900E+01	  0.025210422	5.089900E+01	  0.025210422	1.050000E+00
28	  0.025410822	-3.725200E+01	  0.025410822	4.892400E+01	  0.025410822	5.089800E+01	  0.025410822	1.053000E+00
29	  0.025611224	-3.715300E+01	  0.025611224	4.862800E+01	  0.025611224	5.091400E+01	  0.025611224	1.060000E+00
30	  0.025811624	-3.709500E+01	  0.025811624	4.854100E+01	  0.025811624	5.092200E+01	  0.025811624	1.066000E+00
31	  0.026012026	-3.708600E+01	  0.026012026	4.807500E+01	  0.026012026	5.093200E+01	  0.026012026	1.060000E+00
32	  0.026212426	-3.699800E+01	  0.026212426	4.823200E+01	  0.026212426	5.093800E+01	  0.026212426	1.073000E+00
33	  0.026412826	-3.694600E+01	  0.026412826	4.860300E+01	  0.026412826	5.093700E+01	  0.026412826	1.086000E+00
34	  0.026613226	-3.689400E+01	  0.026613226	4.833000E+01	  0.026613226	5.094700E+01	  0.026613226	1.088000E+00
35	  0.026813626	-3.687400E+01	  0.026813626	4.813700E+01	  0.026813626	5.095300E+01	  0.026813626	1.087000E+00
36	  0.027014028	-3.685200E+01	  0.027014028	4.803100E+01	  0.027014028	5.095800E+01	  0.027014028	1.088000E+00
37	  0.027214428	-3.673700E+01	  0.027214428	4.779000E+01	  0.027214428	5.097500E+01	  0.027214428	1.099000E+00
38	  0.027414829	-3.670000E+01	  0.027414829	4.779600E+01	  0.027414829	5.097900E+01	  0.027414829	1.104000E+00
39	  0.027615231	-3.665200E+01	  0.027615231	4.802000E+01	  0.027615231	5.098000E+01	  0.027615231	1.114000E+00
40	  0.027815631	-3.663100E+01	  0.027815631	4.770500E+01	  0.027815631	5.098900E+01	  0.027815631	1.111000E+00
41	  0.028016033	-3.661000E+01	  0.028016033	4.768100E+01	  0.028016033	5.099200E+01	  0.028016033	1.114000E+00
42	  0.028216433	-3.656500E+01	  0.028216433	4.749600E+01	  0.028216433	5.100100E+01	  0.028216433	1.116000E+00
43	  0.028416833	-3.650800E+01	  0.028416833	4.744000E+01	  0.028416833	5.100800E+01	  0.028416833	1.123000E+00
44	  0.028617235	-3.644800E+01	  0.028617235	4.773900E+01	  0.028617235	5.100900E+01	  0.028617235	1.136000E+00
45	  0.028817635	-3.641500E+01	  0.028817635	4.754400E+01	  0.028817635	5.101700E+01	  0.028817635	1.137000E+00
46	  0.029018037	-3.640100E+01	  0.029018037	4.751700E+01	  0.029018037	5.101900E+01	  0.029018037	1.139000E+00
47	  0.029218437	-3.631900E+01	  0.029218437	4.718700E+01	  0.029218437	5.103600E+01	  0.029218437	1.144000E+00
48	  0.029418837	-3.628000E+01	  0.029418837	4.712100E+01	  0.029418837	5.104200E+01	  0.029418837	1.148000E+00
49	  0.029619239	-3.621400E+01	  0.029619239	4.749300E+01	  0.029619239	5.104200E+01	  0.029619239	1.163000E+00
50	  0.029819639	-3.623900E+01	  0.029819639	4.732500E+01	  0.029819639	5.104200E+01	  0.029819639	1.157000E+00
51	  0.030020041	-3.617000E+01	  0.030020041	4.700300E+01	  0.030020041	5.105700E+01	  0.030020041	1.160000E+00
52	  0.030220442	-3.613700E+01	  0.030220442	4.681300E+01	  0.030220442	5.106500E+01	  0.030220442	1.161000E+00
53	  0.030420844	-3.616100E+01	  0.030420844	4.692500E+01	  0.030420844	5.106000E+01	  0.030420844	1.160000E+00
54	  0.030621244	-3.609600E+01	  0.030621244	4.661600E+01	  0.030621244	5.107400E+01	  0.030621244	1.163000E+00
55	  0.030821642	-3.604400E+01	  0.030821642	4.660900E+01	  0.030821642	5.108100E+01	  0.030821642	1.170000E+00
56	  0.031022044	-3.597100E+01	  0.031022044	4.658400E+01	  0.031022044	5.109100E+01	  0.031022044	1.180000E+00
57	  0.031222444	-3.590400E+01	  0.031222444	4.668200E+01	  0.031222444	5.109700E+01	  0.031222444	1.191000E+00
58	  0.031422846	-3.589600E+01	  0.031422846	4.640700E+01	  0.031422846	5.110400E+01	  0.031422846	1.187000E+00
59	  0.031623244	-3.583600E+01	  0.031623244	4.627700E+01	  0.031623244	5.111400E+01	  0.031623244	1.193000E+00
60	  0.031823646	-3.581600E+01	  0.031823646	4.637700E+01	  0.031823646	5.111500E+01	  0.031823646	1.198000E+00
61	  0.032024048	-3.575200E+01	  0.032024048	4.630000E+01	  0.032024048	5.112500E+01	  0.032024048	1.205000E+00
62	  0.032224450	-3.574300E+01	  0.032224450	4.597600E+01	  0.032224450	5.113300E+01	  0.032224450	1.200000E+00
63	  0.032424849	-3.569000E+01	  0.032424849	4.618000E+01	  0.032424849	5.113500E+01	  0.032424849	1.212000E+00
64	  0.032625251	-3.571300E+01	  0.032625251	4.565600E+01	  0.032625251	5.114400E+01	  0.032625251	1.198000E+00
65	  0.032825653	-3.561700E+01	  0.032825653	4.566400E+01	  0.032825653	5.115600E+01	  0.032825653	1.212000E+00
66	  0.033026051	-3.557800E+01	  0.033026051	4.548600E+01	  0.033026051	5.116500E+01	  0.033026051	1.214000E+00
67	  0.033226453	-3.553400E+01	  0.033226453	4.576400E+01	  0.033226453	5.116500E+01	  0.033226453	1.226000E+00
68	  0.033426855	-3.550500E+01	  0.033426855	4.572400E+01	  0.033426855	5.117000E+01	  0.033426855	1.229000E+00
69	  0.033627257	-3.549000E+01	  0.033627257	4.565500E+01	  0.033627257	5.117300E+01	  0.033627257	1.230000E+00
70	  0.033827655	-3.544700E+01	  0.033827655	4.523000E+01	  0.033827655	5.118800E+01	  0.033827655	1.227000E+00
71	  0.034028057	-3.541700E+01	  0.034028057	4.553100E+01	  0.034028057	5.118600E+01	  0.034028057	1.238000E+00
72	  0.034228459	-3.538300E+01	  0.034228459	4.516300E+01	  0.034228459	5.119900E+01	  0.034228459	1.235000E+00
73	  0.034428857	-3.532100E+01	  0.034428857	4.531400E+01	  0.034428857	5.120400E+01	  0.034428857	1.248000E+00
74	  0.034629259	-3.529200E+01	  0.034629259	4.523300E+01	  0.034629259	5.121000E+01	  0.034629259	1.250000E+00
75	  0.034829661	-3.529200E+01	  0.034829661	4.495900E+01	  0.034829661	5.121600E+01	  0.034829661	1.244000E+00
76	  0.035030060	-3.523100E+01	  0.035030060	4.488100E+01	  0.035030060	5.122600E+01	  0.035030060	1.252000E+00
77	  0.035230462	-3.520100E+01	  0.035230462	4.475100E+01	  0.035230462	5.123300E+01	  0.035230462	1.253000E+00
78	  0.035430863	-3.514900E+01	  0.035430863	4.458900E+01	  0.035430863	5.124400E+01	  0.035430863	1.258000E+00
79	  0.035631265	-3.509600E+01	  0.035631265	4.431900E+01	  0.035631265	5.125800E+01	  0.035631265	1.260000E+00
80	  0.035831664	-3.504500E+01	  0.035831664	4.429500E+01	  0.035831664	5.126600E+01	  0.035831664	1.267000E+00
81	  0.036032066	-3.501600E+01	  0.036032066	4.404500E+01	  0.036032066	5.127600E+01	  0.036032066	1.265000E+00
82	  0.036232468	-3.498200E+01	  0.036232468	4.421500E+01	  0.036232468	5.127700E+01	  0.036232468	1.274000E+00
83	  0.036432866	-3.492700E+01	  0.036432866	4.421000E+01	  0.036432866	5.128500E+01	  0.036432866	1.282000E+00
84	  0.036633268	-3.499900E+01	  0.036633268	4.400000E+01	  0.036633268	5.127900E+01	  0.036633268	1.267000E+00
85	  0.036833670	-3.493500E+01	  0.036833670	4.386700E+01	  0.036833670	5.129200E+01	  0.036833670	1.274000E+00
86	  0.037034072	-3.488600E+01	  0.037034072	4.362900E+01	  0.037034072	5.130500E+01	  0.037034072	1.276000E+00
87	  0.037234470	-3.483200E+01	  0.037234470	4.353400E+01	  0.037234470	5.131500E+01	  0.037234470	1.281000E+00
88	  0.037434869	-3.482400E+01	  0.037434869	4.344200E+01	  0.037434869	5.131800E+01	  0.037434869	1.281000E+00
89	  0.037635271	-3.475900E+01	  0.037635271	4.318100E+01	  0.037635271	5.133400E+01	  0.037635271	1.284000E+00
90	  0.037835669	-3.472500E+01	  0.037835669	4.371100E+01	  0.037835669	5.132700E+01	  0.037835669	1.302000E+00
91	  0.038036071	-3.473100E+01	  0.038036071	4.358200E+01	  0.038036071	5.132900E+01	  0.038036071	1.298000E+00
92	  0.038236473	-3.465300E+01	  0.038236473	4.346200E+01	  0.038236473	5.134400E+01	  0.038236473	1.307000E+00
93	  0.038436871	-3.466700E+01	  0.038436871	4.348500E+01	  0.038436871	5.134100E+01	  0.038436871	1.306000E+00
94	  0.038637273	-3.460300E+01	  0.038637273	4.278500E+01	  0.038637273	5.136800E+01	  0.038637273	1.299000E+00
95	  0.038837675	-3.459100E+01	  0.038837675	4.275300E+01	  0.038837675	5.137000E+01	  0.038837675	1.300000E+00
96	  0.039038073	-3.453800E+01	  0.039038073	4.295700E+01	  0.039038073	5.137400E+01	  0.039038073	1.313000E+00
97	  0.039238475	-3.449800E+01	  0.039238475	4.273100E+01	  0.039238475	5.138600E+01	  0.039238475	1.314000E+00
98	  0.039438877	-3.449200E+01	  0.039438877	4.284700E+01	  0.039438877	5.138400E+01	  0.039438877	1.318000E+00
99	  0.039639279	-3.443800E+01	  0.039639279	4.237800E+01	  0.039639279	5.140400E+01	  0.039639279	1.314000E+00
100	  0.039839678	-3.445100E+01	  0.039839678	4.255300E+01	  0.039839678	5.139700E+01	  0.039839678	1.317000E+00
101	  0.040040080	-3.437900E+01	  0.040040080	4.256000E+01	  0.040040080	5.140900E+01	  0.040040080	1.328000E+00
102	  0.040240481	-3.435500E+01	  0.040240481	4.225900E+01	  0.040240481	5.142000E+01	  0.040240481	1.325000E+00
103	  0.040440880	-3.434500E+01	  0.040440880	4.207600E+01	  0.040440880	5.142600E+01	  0.040440880	1.322000E+00
104	  0.040641282	-3.429600E+01	  0.040641282	4.221000E+01	  0.040641282	5.143100E+01	  0.040641282	1.333000E+00
105	  0.040841684	-3.426800E+01	  0.040841684	4.224300E+01	  0.040841684	5.143500E+01	  0.040841684	1.338000E+00
106	  0.041042086	-3.422200E+01	  0.041042086	4.199500E+01	  0.041042086	5.144800E+01	  0.041042086	1.339000E+00
107	  0.041242484	-3.421600E+01	  0.041242484	4.183200E+01	  0.041242484	5.145300E+01	  0.041242484	1.336000E+00
108	  0.041442886	-3.415600E+01	  0.041442886	4.176000E+01	  0.041442886	5.146500E+01	  0.041442886	1.343000E+00
109	  0.041643288	-3.416000E+01	  0.041643288	4.160900E+01	  0.041643288	5.146800E+01	  0.041643288	1.339000E+00
110	  0.041843686	-3.414100E+01	  0.041843686	4.168800E+01	  0.041843686	5.146900E+01	  0.041843686	1.344000E+00
111	  0.042044088	-3.408700E+01	  0.042044088	4.159100E+01	  0.042044088	5.148100E+01	  0.042044088	1.350000E+00
112	  0.042244490	-3.409100E+01	  0.042244490	4.126600E+01	  0.042244490	5.148800E+01	  0.042244490	1.341000E+00
113	  0.042444889	-3.402800E+01	  0.042444889	4.138300E+01	  0.042444889	5.149600E+01	  0.042444889	1.354000E+00
114	  0.042645290	-3.401500E+01	  0.042645290	4.084500E+01	  0.042645290	5.151100E+01	  0.042645290	1.342000E+00
115	  0.042845692	-3.397900E+01	  0.042845692	4.097800E+01	  0.042845692	5.151400E+01	  0.042845692	1.351000E+00
116	  0.043046094	-3.392900E+01	  0.043046094	4.082400E+01	  0.043046094	5.152700E+01	  0.043046094	1.355000E+00
117	  0.043246493	-3.392900E+01	  0.043246493	4.075400E+01	  0.043246493	5.152900E+01	  0.043246493	1.353000E+00
118	  0.043446895	-3.384500E+01	  0.043446895	4.070100E+01	  0.043446895	5.154500E+01	  0.043446895	1.366000E+00
119	  0.043647297	-3.388800E+01	  0.043647297	4.072200E+01	  0.043647297	5.153700E+01	  0.043647297	1.359000E+00
120	  0.043847695	-3.381000E+01	  0.043847695	4.050400E+01	  0.043847695	5.155600E+01	  0.043847695	1.366000E+00
121	  0.044048097	-3.384100E+01	  0.044048097	4.064500E+01	  0.044048097	5.154700E+01	  0.044048097	1.365000E+00
122	  0.044248499	-3.377900E+01	  0.044248499	4.019700E+01	  0.044248499	5.156900E+01	  0.044248499	1.362000E+00
123	  0.044448901	-3.380700E+01	  0.044448901	4.020100E+01	  0.044448901	5.156400E+01	  0.044448901	1.358000E+00
124	  0.044649299	-3.372600E+01	  0.044649299	4.015000E+01	  0.044649299	5.158000E+01	  0.044649299	1.370000E+00
125	  0.044849701	-3.369700E+01	  0.044849701	4.009900E+01	  0.044849701	5.158700E+01	  0.044849701	1.373000E+00
126	  0.045050103	-3.368900E+01	  0.045050103	3.970400E+01	  0.045050103	5.159800E+01	  0.045050103	1.363000E+00
127	  0.045250501	-3.367200E+01	  0.045250501	4.013200E+01	  0.045250501	5.159000E+01	  0.045250501	1.378000E+00
128	  0.045450903	-3.363700E+01	  0.045450903	3.978000E+01	  0.045450903	5.160600E+01	  0.045450903	1.374000E+00
129	  0.045651305	-3.362400E+01	  0.045651305	3.965800E+01	  0.045651305	5.161100E+01	  0.045651305	1.373000E+00
130	  0.045851704	-3.359600E+01	  0.045851704	3.955600E+01	  0.045851704	5.161900E+01	  0.045851704	1.374000E+00
131	  0.046052102	-3.352400E+01	  0.046052102	3.960900E+01	  0.046052102	5.163100E+01	  0.046052102	1.388000E+00
132	  0.046252504	-3.354100E+01	  0.046252504	3.934200E+01	  0.046252504	5.163400E+01	  0.046252504	1.377000E+00
133	  0.046452906	-3.352800E+01	  0.046452906	3.905000E+01	  0.046452906	5.164400E+01	  0.046452906	1.371000E+00
134	  0.046653304	-3.348800E+01	  0.046653304	3.901300E+01	  0.046653304	5.165300E+01	  0.046653304	1.376000E+00
135	  0.046853706	-3.344000E+01	  0.046853706	3.924900E+01	  0.046853706	5.165600E+01	  0.046853706	1.391000E+00
136	  0.047054108	-3.340100E+01	  0.047054108	3.894600E+01	  0.047054108	5.167100E+01	  0.047054108	1.389000E+00
137	  0.047254506	-3.337700E+01	  0.047254506	3.876000E+01	  0.047254506	5.168000E+01	  0.047254506	1.387000E+00
138	  0.047454908	-3.335900E+01	  0.047454908	3.846300E+01	  0.047454908	5.169100E+01	  0.047454908	1.381000E+00
139	  0.047655310	-3.339000E+01	  0.047655310	3.869100E+01	  0.047655310	5.168000E+01	  0.047655310	1.383000E+00
140	  0.047855709	-3.333900E+01	  0.047855709	3.841200E+01	  0.047855709	5.169600E+01	  0.047855709	1.383000E+00
141	  0.048056111	-3.331700E+01	  0.048056111	3.811200E+01	  0.048056111	5.170800E+01	  0.048056111	1.378000E+00
142	  0.048256513	-3.328800E+01	  0.048256513	3.832000E+01	  0.048256513	5.170900E+01	  0.048256513	1.389000E+00
143	  0.048456915	-3.325800E+01	  0.048456915	3.804600E+01	  0.048456915	5.172200E+01	  0.048456915	1.385000E+00
144	  0.048657313	-3.327800E+01	  0.048657313	3.809200E+01	  0.048657313	5.171700E+01	  0.048657313	1.384000E+00
145	  0.048857715	-3.321600E+01	  0.048857715	3.779900E+01	  0.048857715	5.173600E+01	  0.048857715	1.385000E+00
146	  0.049058117	-3.325300E+01	  0.049058117	3.788800E+01	  0.049058117	5.172700E+01	  0.049058117	1.382000E+00
147	  0.049258515	-3.318900E+01	  0.049258515	3.747100E+01	  0.049258515	5.175000E+01	  0.049258515	1.379000E+00
148	  0.049458917	-3.314300E+01	  0.049458917	3.728600E+01	  0.049458917	5.176400E+01	  0.049458917	1.381000E+00
149	  0.049659319	-3.314600E+01	  0.049659319	3.745700E+01	  0.049659319	5.175900E+01	  0.049659319	1.386000E+00
150	  0.049859721	-3.312000E+01	  0.049859721	3.756200E+01	  0.049859721	5.176200E+01	  0.049859721	1.394000E+00
151	  0.050060119	-3.309100E+01	  0.050060119	3.707400E+01	  0.050060119	5.178000E+01	  0.050060119	1.383000E+00
152	  0.050260521	-3.300800E+01	  0.050260521	3.677800E+01	  0.050260521	5.180500E+01	  0.050260521	1.388000E+00
153	  0.050460923	-3.300300E+01	  0.050460923	3.704000E+01	  0.050460923	5.179900E+01	  0.050460923	1.397000E+00
154	  0.050661322	-3.300300E+01	  0.050661322	3.668400E+01	  0.050661322	5.180800E+01	  0.050661322	1.385000E+00
155	  0.050861724	-3.299200E+01	  0.050861724	3.640700E+01	  0.050861724	5.181700E+01	  0.050861724	1.378000E+00
156	  0.051062126	-3.296400E+01	  0.051062126	3.631900E+01	  0.051062126	5.182500E+01	  0.051062126	1.380000E+00
157	  0.051262524	-3.297500E+01	  0.051262524	3.646000E+01	  0.051262524	5.182000E+01	  0.051262524	1.383000E+00
158	  0.051462926	-3.290700E+01	  0.051462926	3.620600E+01	  0.051462926	5.184000E+01	  0.051462926	1.386000E+00
159	  0.051663328	-3.290500E+01	  0.051663328	3.633600E+01	  0.051663328	5.183800E+01	  0.051663328	1.391000E+00
160	  0.051863730	-3.286400E+01	  0.051863730	3.608200E+01	  0.051863730	5.185300E+01	  0.051863730	1.389000E+00
161	  0.052064128	-3.286900E+01	  0.052064128	3.623300E+01	  0.052064128	5.184800E+01	  0.052064128	1.393000E+00
162	  0.052264530	-3.282900E+01	  0.052264530	3.596300E+01	  0.052264530	5.186300E+01	  0.052264530	1.391000E+00
163	  0.052464932	-3.282700E+01	  0.052464932	3.580800E+01	  0.052464932	5.186800E+01	  0.052464932	1.386000E+00
164	  0.052665330	-3.280800E+01	  0.052665330	3.575300E+01	  0.052665330	5.187300E+01	  0.052665330	1.388000E+00
165	  0.052865732	-3.279700E+01	  0.052865732	3.580700E+01	  0.052865732	5.187400E+01	  0.052865732	1.391000E+00
166	  0.053066134	-3.274400E+01	  0.053066134	3.554500E+01	  0.053066134	5.189200E+01	  0.053066134	1.391000E+00
167	  0.053266536	-3.272300E+01	  0.053266536	3.525500E+01	  0.053266536	5.190400E+01	  0.053266536	1.385000E+00
168	  0.053466935	-3.269900E+01	  0.053466935	3.532200E+01	  0.053466935	5.190800E+01	  0.053466935	1.391000E+00
169	  0.053667337	-3.270600E+01	  0.053667337	3.516600E+01	  0.053667337	5.191000E+01	  0.053667337	1.385000E+00
170	  0.053867739	-3.265200E+01	  0.053867739	3.507600E+01	  0.053867739	5.192400E+01	  0.053867739	1.391000E+00
171	  0.054068137	-3.263800E+01	  0.054068137	3.491600E+01	  0.054068137	5.193200E+01	  0.054068137	1.388000E+00
172	  0.054268539	-3.263500E+01	  0.054268539	3.482500E+01	  0.054268539	5.193500E+01	  0.054268539	1.385000E+00
173	  0.054468941	-3.259000E+01	  0.054468941	3.457400E+01	  0.054468941	5.195100E+01	  0.054468941	1.384000E+00
174	  0.054669335	-3.257100E+01	  0.054669335	3.438000E+01	  0.054669335	5.196000E+01	  0.054669335	1.380000E+00
175	  0.054869737	-3.255600E+01	  0.054869737	3.437900E+01	  0.054869737	5.196400E+01	  0.054869737	1.383000E+00
176	  0.055070139	-3.254900E+01	  0.055070139	3.444300E+01	  0.055070139	5.196400E+01	  0.055070139	1.386000E+00
177	  0.055270538	-3.250300E+01	  0.055270538	3.417400E+01	  0.055270538	5.198100E+01	  0.055270538	1.385000E+00
178	  0.055470940	-3.252500E+01	  0.055470940	3.406400E+01	  0.055470940	5.197900E+01	  0.055470940	1.377000E+00
179	  0.055671342	-3.245800E+01	  0.055671342	3.390400E+01	  0.055671342	5.199800E+01	  0.055671342	1.383000E+00
180	  0.055871744	-3.247300E+01	  0.055871744	3.384200E+01	  0.055871744	5.199600E+01	  0.055871744	1.378000E+00
181	  0.056072142	-3.242800E+01	  0.056072142	3.376700E+01	  0.056072142	5.200900E+01	  0.056072142	1.383000E+00
182	  0.056272544	-3.237900E+01	  0.056272544	3.369200E+01	  0.056272544	5.202200E+01	  0.056272544	1.388000E+00
183	  0.056472946	-3.239700E+01	  0.056472946	3.352900E+01	  0.056472946	5.202200E+01	  0.056472946	1.379000E+00
184	  0.056673344	-3.237700E+01	  0.056673344	3.342800E+01	  0.056673344	5.202900E+01	  0.056673344	1.379000E+00
185	  0.056873746	-3.236400E+01	  0.056873746	3.335400E+01	  0.056873746	5.203400E+01	  0.056873746	1.378000E+00
186	  0.057074148	-3.232900E+01	  0.057074148	3.286300E+01	  0.057074148	5.205500E+01	  0.057074148	1.367000E+00
187	  0.057274550	-3.231200E+01	  0.057274550	3.297500E+01	  0.057274550	5.205600E+01	  0.057274550	1.373000E+00
188	  0.057474948	-3.230000E+01	  0.057474948	3.277600E+01	  0.057474948	5.206400E+01	  0.057474948	1.368000E+00
189	  0.057675350	-3.228200E+01	  0.057675350	3.274000E+01	  0.057675350	5.206900E+01	  0.057675350	1.370000E+00
190	  0.057875752	-3.224000E+01	  0.057875752	3.249100E+01	  0.057875752	5.208500E+01	  0.057875752	1.367000E+00
191	  0.058076151	-3.222900E+01	  0.058076151	3.245600E+01	  0.058076151	5.208900E+01	  0.058076151	1.368000E+00
192	  0.058276553	-3.218900E+01	  0.058276553	3.235000E+01	  0.058276553	5.210100E+01	  0.058276553	1.371000E+00
193	  0.058476955	-3.219700E+01	  0.058476955	3.220500E+01	  0.058476955	5.210300E+01	  0.058476955	1.364000E+00
194	  0.058677353	-3.220900E+01	  0.058677353	3.212800E+01	  0.058677353	5.210200E+01	  0.058677353	1.359000E+00
195	  0.058877755	-3.215100E+01	  0.058877755	3.187400E+01	  0.058877755	5.212300E+01	  0.058877755	1.359000E+00
196	  0.059078157	-3.211400E+01	  0.059078157	3.161300E+01	  0.059078157	5.213800E+01	  0.059078157	1.355000E+00
197	  0.059278559	-3.212300E+01	  0.059278559	3.168000E+01	  0.059278559	5.213400E+01	  0.059278559	1.356000E+00
198	  0.059478957	-3.208100E+01	  0.059478957	3.161000E+01	  0.059478957	5.214600E+01	  0.059478957	1.361000E+00
199	  0.059679359	-3.206900E+01	  0.059679359	3.150300E+01	  0.059679359	5.215200E+01	  0.059679359	1.358000E+00
200	  0.059879761	-3.205200E+01	  0.059879761	3.137100E+01	  0.059879761	5.216000E+01	  0.059879761	1.356000E+00
201	  0.060080159	-3.207900E+01	  0.060080159	3.119000E+01	  0.060080159	5.215700E+01	  0.060080159	1.345000E+00
202	  0.060280561	-3.202400E+01	  0.060280561	3.133700E+01	  0.060280561	5.216800E+01	  0.060280561	1.360000E+00
203	  0.060480963	-3.203200E+01	  0.060480963	3.104600E+01	  0.060480963	5.217300E+01	  0.060480963	1.347000E+00
204	  0.060681365	-3.202400E+01	  0.060681365	3.094500E+01	  0.060681365	5.217700E+01	  0.060681365	1.345000E+00
205	  0.060881764	-3.197100E+01	  0.060881764	3.089400E+01	  0.060881764	5.219200E+01	  0.060881764	1.351000E+00
206	  0.061082166	-3.196500E+01	  0.061082166	3.070400E+01	  0.061082166	5.219800E+01	  0.061082166	1.345000E+00
207	  0.061282568	-3.194700E+01	  0.061282568	3.058800E+01	  0.061282568	5.220600E+01	  0.061282568	1.343000E+00
208	  0.061482966	-3.194700E+01	  0.061482966	3.025300E+01	  0.061482966	5.221400E+01	  0.061482966	1.330000E+00
209	  0.061683368	-3.191200E+01	  0.061683368	3.025600E+01	  0.061683368	5.222300E+01	  0.061683368	1.336000E+00
210	  0.061883770	-3.190900E+01	  0.061883770	3.013700E+01	  0.061883770	5.222600E+01	  0.061883770	1.331000E+00
211	  0.062084168	-3.185800E+01	  0.062084168	3.001800E+01	  0.062084168	5.224300E+01	  0.062084168	1.335000E+00
212	  0.062284570	-3.187700E+01	  0.062284570	2.982200E+01	  0.062284570	5.224200E+01	  0.062284570	1.324000E+00
213	  0.062484972	-3.181300E+01	  0.062484972	2.996000E+01	  0.062484972	5.225600E+01	  0.062484972	1.340000E+00
214	  0.062685370	-3.178800E+01	  0.062685370	2.983500E+01	  0.062685370	5.226600E+01	  0.062685370	1.339000E+00
215	  0.062885776	-3.182200E+01	  0.062885776	2.971300E+01	  0.062885776	5.225900E+01	  0.062885776	1.328000E+00
216	  0.063086174	-3.177800E+01	  0.063086174	2.957600E+01	  0.063086174	5.227400E+01	  0.063086174	1.330000E+00
217	  0.063286573	-3.174300E+01	  0.063286573	2.961900E+01	  0.063286573	5.228300E+01	  0.063286573	1.338000E+00
218	  0.063486971	-3.177200E+01	  0.063486971	2.937000E+01	  0.063486971	5.228100E+01	  0.063486971	1.323000E+00
219	  0.063687377	-3.173700E+01	  0.063687377	2.907700E+01	  0.063687377	5.229800E+01	  0.063687377	1.316000E+00
220	  0.063887775	-3.167300E+01	  0.063887775	2.897900E+01	  0.063887775	5.231700E+01	  0.063887775	1.323000E+00
221	  0.064088173	-3.169200E+01	  0.064088173	2.894700E+01	  0.064088173	5.231300E+01	  0.064088173	1.318000E+00
222	  0.064288579	-3.166700E+01	  0.064288579	2.885200E+01	  0.064288579	5.232200E+01	  0.064288579	1.318000E+00
223	  0.064488977	-3.165300E+01	  0.064488977	2.891200E+01	  0.064488977	5.232400E+01	  0.064488977	1.323000E+00
224	  0.064689375	-3.164700E+01	  0.064689375	2.856400E+01	  0.064689375	5.233400E+01	  0.064689375	1.310000E+00
225	  0.064889781	-3.163600E+01	  0.064889781	2.846400E+01	  0.064889781	5.234000E+01	  0.064889781	1.307000E+00
226	  0.065090179	-3.158700E+01	  0.065090179	2.811600E+01	  0.065090179	5.236100E+01	  0.065090179	1.300000E+00
227	  0.065290578	-3.159800E+01	  0.065290578	2.839300E+01	  0.065290578	5.235200E+01	  0.065290578	1.310000E+00
228	  0.065490983	-3.158200E+01	  0.065490983	2.852600E+01	  0.065490983	5.235300E+01	  0.065490983	1.318000E+00
229	  0.065691382	-3.156600E+01	  0.065691382	2.806100E+01	  0.065691382	5.236800E+01	  0.065691382	1.301000E+00
230	  0.065891780	-3.153900E+01	  0.065891780	2.788100E+01	  0.065891780	5.238000E+01	  0.065891780	1.298000E+00
231	  0.066092186	-3.153400E+01	  0.066092186	2.773500E+01	  0.066092186	5.238500E+01	  0.066092186	1.293000E+00
232	  0.066292584	-3.150500E+01	  0.066292584	2.783900E+01	  0.066292584	5.239100E+01	  0.066292584	1.302000E+00
233	  0.066492982	-3.148900E+01	  0.066492982	2.747800E+01	  0.066492982	5.240400E+01	  0.066492982	1.289000E+00
234	  0.066693388	-3.151500E+01	  0.066693388	2.728900E+01	  0.066693388	5.240100E+01	  0.066693388	1.277000E+00
235	  0.066893786	-3.144500E+01	  0.066893786	2.700800E+01	  0.066893786	5.242700E+01	  0.066893786	1.275000E+00
236	  0.067094192	-3.140500E+01	  0.067094192	2.723700E+01	  0.067094192	5.243300E+01	  0.067094192	1.291000E+00
237	  0.067294590	-3.146100E+01	  0.067294590	2.709500E+01	  0.067294590	5.242100E+01	  0.067294590	1.277000E+00
238	  0.067494988	-3.145300E+01	  0.067494988	2.685900E+01	  0.067494988	5.242800E+01	  0.067494988	1.268000E+00
239	  0.067695394	-3.140700E+01	  0.067695394	2.668400E+01	  0.067695394	5.244600E+01	  0.067695394	1.267000E+00
240	  0.067895792	-3.139800E+01	  0.067895792	2.672500E+01	  0.067895792	5.244700E+01	  0.067895792	1.270000E+00
241	  0.068096191	-3.136400E+01	  0.068096191	2.648600E+01	  0.068096191	5.246300E+01	  0.068096191	1.265000E+00
242	  0.068296596	-3.136600E+01	  0.068296596	2.619200E+01	  0.068296596	5.246900E+01	  0.068296596	1.252000E+00
243	  0.068496995	-3.135200E+01	  0.068496995	2.628000E+01	  0.068496995	5.247100E+01	  0.068496995	1.258000E+00
244	  0.068697393	-3.130500E+01	  0.068697393	2.633000E+01	  0.068697393	5.248300E+01	  0.068697393	1.267000E+00
245	  0.068897791	-3.130100E+01	  0.068897791	2.595400E+01	  0.068897791	5.249300E+01	  0.068897791	1.251000E+00
246	  0.069098189	-3.132900E+01	  0.069098189	2.573700E+01	  0.069098189	5.249000E+01	  0.069098189	1.237000E+00
247	  0.069298595	-3.125800E+01	  0.069298595	2.565800E+01	  0.069298595	5.251300E+01	  0.069298595	1.245000E+00
248	  0.069498993	-3.125800E+01	  0.069498993	2.557700E+01	  0.069498993	5.251500E+01	  0.069498993	1.241000E+00
249	  0.069699399	-3.128900E+01	  0.069699399	2.549100E+01	  0.069699399	5.250700E+01	  0.069699399	1.232000E+00
250	  0.069899797	-3.123200E+01	  0.069899797	2.546200E+01	  0.069899797	5.252500E+01	  0.069899797	1.240000E+00
251	  0.070100196	-3.123400E+01	  0.070100196	2.506800E+01	  0.070100196	5.253300E+01	  0.070100196	1.222000E+00
252	  0.070300601	-3.118000E+01	  0.070300601	2.519200E+01	  0.070300601	5.254600E+01	  0.070300601	1.235000E+00
253	  0.070501000	-3.116900E+01	  0.070501000	2.504800E+01	  0.070501000	5.255300E+01	  0.070501000	1.230000E+00
254	  0.070701398	-3.120100E+01	  0.070701398	2.499500E+01	  0.070701398	5.254500E+01	  0.070701398	1.223000E+00
255	  0.070901804	-3.113200E+01	  0.070901804	2.453300E+01	  0.070901804	5.257600E+01	  0.070901804	1.212000E+00
256	  0.071102202	-3.113700E+01	  0.071102202	2.431300E+01	  0.071102202	5.257900E+01	  0.071102202	1.201000E+00
257	  0.071302600	-3.113400E+01	  0.071302600	2.458900E+01	  0.071302600	5.257400E+01	  0.071302600	1.215000E+00
258	  0.071503006	-3.111600E+01	  0.071503006	2.426400E+01	  0.071503006	5.258700E+01	  0.071503006	1.202000E+00
259	  0.071703404	-3.106700E+01	  0.071703404	2.425000E+01	  0.071703404	5.260200E+01	  0.071703404	1.209000E+00
260	  0.071903802	-3.109700E+01	  0.071903802	2.409900E+01	  0.071903802	5.259600E+01	  0.071903802	1.197000E+00
261	  0.072104208	-3.109300E+01	  0.072104208	2.367700E+01	  0.072104208	5.260600E+01	  0.072104208	1.178000E+00
262	  0.072304606	-3.104700E+01	  0.072304606	2.370200E+01	  0.072304606	5.262000E+01	  0.072304606	1.186000E+00
263	  0.072505005	-3.106000E+01	  0.072505005	2.358800E+01	  0.072505005	5.261900E+01	  0.072505005	1.179000E+00
264	  0.072705410	-3.104600E+01	  0.072705410	2.376000E+01	  0.072705410	5.261900E+01	  0.072705410	1.189000E+00
265	  0.072905809	-3.103900E+01	  0.072905809	2.336000E+01	  0.072905809	5.263000E+01	  0.072905809	1.171000E+00
266	  0.073106214	-3.098600E+01	  0.073106214	2.313700E+01	  0.073106214	5.265100E+01	  0.073106214	1.168000E+00
267	  0.073306613	-3.099400E+01	  0.073306613	2.327800E+01	  0.073306613	5.264600E+01	  0.073306613	1.174000E+00
268	  0.073507011	-3.100600E+01	  0.073507011	2.321300E+01	  0.073507011	5.264300E+01	  0.073507011	1.169000E+00
269	  0.073707417	-3.094600E+01	  0.073707417	2.279200E+01	  0.073707417	5.267100E+01	  0.073707417	1.158000E+00
270	  0.073907815	-3.094700E+01	  0.073907815	2.292000E+01	  0.073907815	5.266800E+01	  0.073907815	1.164000E+00
271	  0.074108213	-3.094000E+01	  0.074108213	2.293700E+01	  0.074108213	5.267000E+01	  0.074108213	1.165000E+00
272	  0.074308619	-3.092100E+01	  0.074308619	2.276700E+01	  0.074308619	5.267900E+01	  0.074308619	1.160000E+00
273	  0.074509017	-3.091400E+01	  0.074509017	2.242600E+01	  0.074509017	5.268900E+01	  0.074509017	1.145000E+00
274	  0.074709415	-3.086700E+01	  0.074709415	2.241400E+01	  0.074709415	5.270400E+01	  0.074709415	1.151000E+00
275	  0.074909821	-3.087900E+01	  0.074909821	2.203000E+01	  0.074909821	5.270800E+01	  0.074909821	1.130000E+00
276	  0.075110219	-3.090600E+01	  0.075110219	2.209000E+01	  0.075110219	5.269800E+01	  0.075110219	1.130000E+00
277	  0.075310618	-3.085100E+01	  0.075310618	2.195800E+01	  0.075310618	5.271900E+01	  0.075310618	1.131000E+00
278	  0.075511023	-3.083100E+01	  0.075511023	2.204800E+01	  0.075511023	5.272300E+01	  0.075511023	1.138000E+00
279	  0.075711422	-3.083700E+01	  0.075711422	2.180700E+01	  0.075711422	5.272600E+01	  0.075711422	1.125000E+00
280	  0.075911827	-3.076900E+01	  0.075911827	2.149400E+01	  0.075911827	5.275500E+01	  0.075911827	1.119000E+00
281	  0.076112226	-3.079400E+01	  0.076112226	2.144200E+01	  0.076112226	5.274800E+01	  0.076112226	1.113000E+00
282	  0.076312624	-3.077600E+01	  0.076312624	2.128500E+01	  0.076312624	5.275700E+01	  0.076312624	1.108000E+00
283	  0.076513030	-3.077100E+01	  0.076513030	2.115700E+01	  0.076513030	5.276100E+01	  0.076513030	1.102000E+00
284	  0.076713428	-3.072600E+01	  0.076713428	2.101300E+01	  0.076713428	5.277900E+01	  0.076713428	1.101000E+00
285	  0.076913826	-3.070400E+01	  0.076913826	2.088100E+01	  0.076913826	5.278800E+01	  0.076913826	1.098000E+00
286	  0.077114232	-3.072300E+01	  0.077114232	2.085900E+01	  0.077114232	5.278300E+01	  0.077114232	1.094000E+00
287	  0.077314630	-3.068400E+01	  0.077314630	2.056700E+01	  0.077314630	5.280200E+01	  0.077314630	1.085000E+00
288	  0.077515028	-3.068100E+01	  0.077515028	2.060100E+01	  0.077515028	5.280200E+01	  0.077515028	1.087000E+00
289	  0.077715434	-3.067000E+01	  0.077715434	2.038600E+01	  0.077715434	5.280900E+01	  0.077715434	1.077000E+00
290	  0.077915832	-3.068400E+01	  0.077915832	2.018800E+01	  0.077915832	5.280900E+01	  0.077915832	1.066000E+00
291	  0.078116231	-3.063800E+01	  0.078116231	2.008300E+01	  0.078116231	5.282600E+01	  0.078116231	1.066000E+00
292	  0.078316636	-3.057800E+01	  0.078316636	2.012900E+01	  0.078316636	5.284500E+01	  0.078316636	1.077000E+00
293	  0.078517035	-3.062500E+01	  0.078517035	1.977100E+01	  0.078517035	5.283700E+01	  0.078517035	1.052000E+00
294	  0.078717433	-3.058900E+01	  0.078717433	1.979700E+01	  0.078717433	5.284800E+01	  0.078717433	1.058000E+00
295	  0.078917839	-3.059800E+01	  0.078917839	1.956800E+01	  0.078917839	5.285000E+01	  0.078917839	1.045000E+00
296	  0.079118237	-3.059200E+01	  0.079118237	1.959500E+01	  0.079118237	5.285100E+01	  0.079118237	1.048000E+00
297	  0.079318643	-3.059100E+01	  0.079318643	1.960600E+01	  0.079318643	5.285100E+01	  0.079318643	1.048000E+00
298	  0.079519041	-3.056600E+01	  0.079519041	1.942700E+01	  0.079519041	5.286300E+01	  0.079519041	1.042000E+00
299	  0.079719439	-3.057200E+01	  0.079719439	1.911800E+01	  0.079719439	5.286700E+01	  0.079719439	1.026000E+00
300	  0.079919845	-3.052600E+01	  0.079919845	1.878100E+01	  0.079919845	5.288900E+01	  0.079919845	1.014000E+00
301	  0.080120243	-3.053100E+01	  0.080120243	1.879700E+01	  0.080120243	5.288700E+01	  0.080120243	1.014000E+00
302	  0.080320641	-3.054800E+01	  0.080320641	1.845400E+01	  0.080320641	5.288800E+01	  0.080320641	9.940000E-01
303	  0.080521047	-3.049900E+01	  0.080521047	1.843400E+01	  0.080521047	5.290500E+01	  0.080521047	9.990000E-01
304	  0.080721445	-3.048200E+01	  0.080721445	1.834500E+01	  0.080721445	5.291200E+01	  0.080721445	9.970000E-01
305	  0.080921844	-3.049200E+01	  0.080921844	1.840100E+01	  0.080921844	5.290800E+01	  0.080921844	9.980000E-01
306	  0.081122249	-3.045800E+01	  0.081122249	1.820300E+01	  0.081122249	5.292300E+01	  0.081122249	9.920000E-01
307	  0.081322648	-3.045600E+01	  0.081322648	1.800000E+01	  0.081322648	5.292700E+01	  0.081322648	9.820000E-01
308	  0.081523046	-3.045200E+01	  0.081523046	1.795500E+01	  0.081523046	5.293000E+01	  0.081523046	9.800000E-01
309	  0.081723452	-3.043900E+01	  0.081723452	1.775700E+01	  0.081723452	5.293800E+01	  0.081723452	9.710000E-01
310	  0.081923850	-3.040700E+01	  0.081923850	1.762600E+01	  0.081923850	5.295100E+01	  0.081923850	9.680000E-01
311	  0.082124248	-3.038300E+01	  0.082124248	1.769000E+01	  0.082124248	5.295800E+01	  0.082124248	9.740000E-01
312	  0.082324654	-3.039400E+01	  0.082324654	1.749300E+01	  0.082324654	5.295800E+01	  0.082324654	9.620000E-01
313	  0.082525052	-3.035600E+01	  0.082525052	1.732100E+01	  0.082525052	5.297400E+01	  0.082525052	9.580000E-01
314	  0.082725458	-3.037600E+01	  0.082725458	1.715900E+01	  0.082725458	5.297000E+01	  0.082725458	9.470000E-01
315	  0.082925856	-3.038700E+01	  0.082925856	1.709000E+01	  0.082925856	5.296800E+01	  0.082925856	9.420000E-01
316	  0.083126254	-3.036500E+01	  0.083126254	1.688100E+01	  0.083126254	5.297900E+01	  0.083126254	9.330000E-01
317	  0.083326660	-3.034600E+01	  0.083326660	1.671200E+01	  0.083326660	5.298900E+01	  0.083326660	9.260000E-01
318	  0.083527058	-3.033000E+01	  0.083527058	1.655900E+01	  0.083527058	5.299700E+01	  0.083527058	9.200000E-01
319	  0.083727457	-3.030200E+01	  0.083727457	1.628200E+01	  0.083727457	5.301200E+01	  0.083727457	9.080000E-01
320	  0.083927862	-3.028500E+01	  0.083927862	1.635900E+01	  0.083927862	5.301600E+01	  0.083927862	9.140000E-01
321	  0.084128261	-3.027700E+01	  0.084128261	1.633200E+01	  0.084128261	5.302000E+01	  0.084128261	9.140000E-01
322	  0.084328659	-3.030400E+01	  0.084328659	1.620900E+01	  0.084328659	5.301200E+01	  0.084328659	9.040000E-01
323	  0.084529065	-3.026400E+01	  0.084529065	1.603800E+01	  0.084529065	5.302900E+01	  0.084529065	8.990000E-01
324	  0.084729463	-3.028400E+01	  0.084729463	1.581600E+01	  0.084729463	5.302600E+01	  0.084729463	8.850000E-01
325	  0.084929854	-3.024600E+01	  0.084929854	1.554800E+01	  0.084929854	5.304400E+01	  0.084929854	8.740000E-01
326	  0.085130259	-3.021800E+01	  0.085130259	1.564600E+01	  0.085130259	5.305200E+01	  0.085130259	8.830000E-01
327	  0.085330658	-3.025000E+01	  0.085330658	1.541200E+01	  0.085330658	5.304400E+01	  0.085330658	8.670000E-01
328	  0.085531056	-3.019100E+01	  0.085531056	1.536900E+01	  0.085531056	5.306600E+01	  0.085531056	8.700000E-01
329	  0.085731462	-3.023400E+01	  0.085731462	1.544200E+01	  0.085731462	5.305000E+01	  0.085731462	8.700000E-01
330	  0.085931860	-3.018100E+01	  0.085931860	1.519200E+01	  0.085931860	5.307300E+01	  0.085931860	8.620000E-01
331	  0.086132258	-3.019500E+01	  0.086132258	1.520200E+01	  0.086132258	5.306800E+01	  0.086132258	8.610000E-01
332	  0.086332664	-3.020700E+01	  0.086332664	1.493800E+01	  0.086332664	5.306800E+01	  0.086332664	8.450000E-01
333	  0.086533062	-3.016400E+01	  0.086533062	1.476800E+01	  0.086533062	5.308600E+01	  0.086533062	8.400000E-01
334	  0.086733460	-3.017700E+01	  0.086733460	1.466400E+01	  0.086733460	5.308300E+01	  0.086733460	8.330000E-01
335	  0.086933866	-3.014300E+01	  0.086933866	1.468700E+01	  0.086933866	5.309500E+01	  0.086933866	8.380000E-01
336	  0.087134264	-3.012800E+01	  0.087134264	1.445500E+01	  0.087134264	5.310400E+01	  0.087134264	8.260000E-01
337	  0.087334670	-3.013800E+01	  0.087334670	1.421300E+01	  0.087334670	5.310400E+01	  0.087334670	8.120000E-01
338	  0.087535068	-3.014600E+01	  0.087535068	1.390000E+01	  0.087535068	5.310600E+01	  0.087535068	7.940000E-01
339	  0.087735467	-3.009400E+01	  0.087735467	1.416100E+01	  0.087735467	5.312100E+01	  0.087735467	8.130000E-01
340	  0.087935872	-3.012900E+01	  0.087935872	1.391100E+01	  0.087935872	5.311200E+01	  0.087935872	7.960000E-01
341	  0.088136271	-3.010800E+01	  0.088136271	1.377200E+01	  0.088136271	5.312200E+01	  0.088136271	7.900000E-01
342	  0.088336669	-3.008800E+01	  0.088336669	1.365100E+01	  0.088336669	5.313100E+01	  0.088336669	7.850000E-01
343	  0.088537075	-3.006000E+01	  0.088537075	1.359300E+01	  0.088537075	5.314200E+01	  0.088537075	7.850000E-01
344	  0.088737473	-3.006500E+01	  0.088737473	1.357600E+01	  0.088737473	5.314000E+01	  0.088737473	7.830000E-01
345	  0.088937871	-3.004700E+01	  0.088937871	1.324100E+01	  0.088937871	5.315200E+01	  0.088937871	7.660000E-01
346	  0.089138277	-3.003700E+01	  0.089138277	1.300200E+01	  0.089138277	5.315900E+01	  0.089138277	7.530000E-01
347	  0.089338675	-3.003700E+01	  0.089338675	1.318000E+01	  0.089338675	5.315700E+01	  0.089338675	7.640000E-01
348	  0.089539073	-3.001600E+01	  0.089539073	1.283600E+01	  0.089539073	5.316900E+01	  0.089539073	7.460000E-01
349	  0.089739479	-3.003600E+01	  0.089739479	1.295600E+01	  0.089739479	5.316000E+01	  0.089739479	7.510000E-01
350	  0.089939877	-2.999100E+01	  0.089939877	1.263400E+01	  0.089939877	5.318100E+01	  0.089939877	7.370000E-01
351	  0.090140276	-3.000500E+01	  0.090140276	1.232600E+01	  0.090140276	5.318000E+01	  0.090140276	7.180000E-01
352	  0.090340681	-2.997700E+01	  0.090340681	1.222100E+01	  0.090340681	5.319200E+01	  0.090340681	7.140000E-01
353	  0.090541080	-2.994800E+01	  0.090541080	1.229900E+01	  0.090541080	5.320200E+01	  0.090541080	7.210000E-01
354	  0.090741485	-2.994600E+01	  0.090741485	1.190500E+01	  0.090741485	5.320800E+01	  0.090741485	6.990000E-01
355	  0.090941884	-2.998700E+01	  0.090941884	1.180500E+01	  0.090941884	5.319400E+01	  0.090941884	6.900000E-01
356	  0.091142282	-2.995200E+01	  0.091142282	1.192000E+01	  0.091142282	5.320600E+01	  0.091142282	6.990000E-01
357	  0.091342688	-2.995100E+01	  0.091342688	1.154800E+01	  0.091342688	5.321100E+01	  0.091342688	6.780000E-01
358	  0.091543086	-2.991300E+01	  0.091543086	1.155700E+01	  0.091543086	5.322500E+01	  0.091543086	6.810000E-01
359	  0.091743484	-2.991400E+01	  0.091743484	1.155600E+01	  0.091743484	5.322500E+01	  0.091743484	6.810000E-01
360	  0.091943890	-2.990000E+01	  0.091943890	1.121900E+01	  0.091943890	5.323500E+01	  0.091943890	6.630000E-01
361	  0.092144288	-2.990900E+01	  0.092144288	1.109800E+01	  0.092144288	5.323300E+01	  0.092144288	6.550000E-01
362	  0.092344686	-2.990100E+01	  0.092344686	1.110000E+01	  0.092344686	5.323500E+01	  0.092344686	6.560000E-01
363	  0.092545092	-2.985500E+01	  0.092545092	1.092400E+01	  0.092545092	5.325500E+01	  0.092545092	6.490000E-01
364	  0.092745490	-2.989100E+01	  0.092745490	1.088900E+01	  0.092745490	5.324200E+01	  0.092745490	6.440000E-01
365	  0.092945889	-2.986800E+01	  0.092945889	1.066400E+01	  0.092945889	5.325400E+01	  0.092945889	6.330000E-01
366	  0.093146294	-2.985300E+01	  0.093146294	1.045900E+01	  0.093146294	5.326200E+01	  0.093146294	6.220000E-01
367	  0.093346693	-2.982700E+01	  0.093346693	1.039000E+01	  0.093346693	5.327300E+01	  0.093346693	6.200000E-01
368	  0.093547091	-2.985700E+01	  0.093547091	1.028700E+01	  0.093547091	5.326200E+01	  0.093547091	6.120000E-01
369	  0.093747497	-2.984000E+01	  0.093747497	1.015000E+01	  0.093747497	5.327000E+01	  0.093747497	6.050000E-01
370	  0.093947895	-2.981200E+01	  0.093947895	1.022000E+01	  0.093947895	5.328000E+01	  0.093947895	6.110000E-01
371	  0.094148301	-2.984000E+01	  0.094148301	1.004400E+01	  0.094148301	5.327200E+01	  0.094148301	5.990000E-01
372	  0.094348699	-2.980300E+01	  0.094348699	9.985000E+00	  0.094348699	5.328600E+01	  0.094348699	5.980000E-01
373	  0.094549097	-2.977300E+01	  0.094549097	9.618000E+00	  0.094549097	5.330200E+01	  0.094549097	5.780000E-01
374	  0.094749503	-2.978600E+01	  0.094749503	9.773000E+00	  0.094749503	5.329600E+01	  0.094749503	5.870000E-01
375	  0.094949901	-2.979500E+01	  0.094949901	9.585000E+00	  0.094949901	5.329400E+01	  0.094949901	5.750000E-01
376	  0.095150299	-2.978300E+01	  0.095150299	9.343000E+00	  0.095150299	5.330100E+01	  0.095150299	5.610000E-01
377	  0.095350705	-2.978200E+01	  0.095350705	9.335000E+00	  0.095350705	5.330200E+01	  0.095350705	5.610000E-01
378	  0.095551103	-2.974700E+01	  0.095551103	9.130000E+00	  0.095551103	5.331800E+01	  0.095551103	5.510000E-01
379	  0.095751502	-2.974600E+01	  0.095751502	9.106000E+00	  0.095751502	5.331800E+01	  0.095751502	5.500000E-01
380	  0.095951907	-2.973300E+01	  0.095951907	8.872000E+00	  0.095951907	5.332600E+01	  0.095951907	5.360000E-01
381	  0.096152306	-2.974300E+01	  0.096152306	8.690000E+00	  0.096152306	5.332400E+01	  0.096152306	5.250000E-01
382	  0.096352704	-2.971900E+01	  0.096352704	8.518000E+00	  0.096352704	5.333500E+01	  0.096352704	5.160000E-01
383	  0.096553110	-2.971700E+01	  0.096553110	8.502000E+00	  0.096553110	5.333600E+01	  0.096553110	5.150000E-01
384	  0.096753508	-2.970400E+01	  0.096753508	8.311000E+00	  0.096753508	5.334300E+01	  0.096753508	5.050000E-01
385	  0.096953906	-2.970300E+01	  0.096953906	8.142000E+00	  0.096953906	5.334400E+01	  0.096953906	4.940000E-01
386	  0.097154312	-2.970100E+01	  0.097154312	7.939000E+00	  0.097154312	5.334700E+01	  0.097154312	4.820000E-01
387	  0.097354710	-2.969200E+01	  0.097354710	7.817000E+00	  0.097354710	5.335200E+01	  0.097354710	4.760000E-01
388	  0.097555116	-2.970200E+01	  0.097555116	7.741000E+00	  0.097555116	5.334900E+01	  0.097555116	4.700000E-01
389	  0.097755514	-2.968500E+01	  0.097755514	7.576000E+00	  0.097755514	5.335700E+01	  0.097755514	4.610000E-01
390	  0.097955912	-2.969900E+01	  0.097955912	7.317000E+00	  0.097955912	5.335300E+01	  0.097955912	4.450000E-01
391	  0.098156318	-2.967000E+01	  0.098156318	7.508000E+00	  0.098156318	5.336300E+01	  0.098156318	4.580000E-01
392	  0.098356716	-2.964900E+01	  0.098356716	7.442000E+00	  0.098356716	5.337200E+01	  0.098356716	4.550000E-01
393	  0.098557115	-2.963700E+01	  0.098557115	7.176000E+00	  0.098557115	5.337900E+01	  0.098557115	4.400000E-01
394	  0.098757520	-2.961600E+01	  0.098757520	6.900000E+00	  0.098757520	5.339000E+01	  0.098757520	4.240000E-01
395	  0.098957919	-2.964600E+01	  0.098957919	6.727000E+00	  0.098957919	5.337900E+01	  0.098957919	4.120000E-01
396	  0.099158317	-2.961400E+01	  0.099158317	6.624000E+00	  0.099158317	5.339300E+01	  0.099158317	4.070000E-01
397	  0.099358723	-2.959900E+01	  0.099358723	6.390000E+00	  0.099358723	5.340100E+01	  0.099358723	3.940000E-01
398	  0.099559121	-2.964500E+01	  0.099559121	6.632000E+00	  0.099559121	5.338100E+01	  0.099559121	4.060000E-01
399	  0.099759519	-2.960200E+01	  0.099759519	6.272000E+00	  0.099759519	5.340000E+01	  0.099759519	3.860000E-01
400	  0.099959925	-2.960100E+01	  0.099959925	6.127000E+00	  0.099959925	5.340200E+01	  0.099959925	3.770000E-01
401	  0.100160323	-2.958600E+01	  0.100160323	5.888000E+00	  0.100160323	5.341000E+01	  0.100160323	3.630000E-01
402	  0.100360721	-2.953000E+01	  0.100360721	6.117000E+00	  0.100360721	5.343100E+01	  0.100360721	3.800000E-01
403	  0.100561127	-2.958200E+01	  0.100561127	5.745000E+00	  0.100561127	5.341200E+01	  0.100561127	3.550000E-01
404	  0.100761525	-2.957200E+01	  0.100761525	5.595000E+00	  0.100761525	5.341800E+01	  0.100761525	3.460000E-01
405	  0.100961931	-2.955500E+01	  0.100961931	5.504000E+00	  0.100961931	5.342500E+01	  0.100961931	3.410000E-01
406	  0.101162329	-2.955600E+01	  0.101162329	5.338000E+00	  0.101162329	5.342500E+01	  0.101162329	3.310000E-01
407	  0.101362728	-2.953000E+01	  0.101362728	5.059000E+00	  0.101362728	5.343800E+01	  0.101362728	3.140000E-01
408	  0.101563133	-2.952200E+01	  0.101563133	5.212000E+00	  0.101563133	5.344000E+01	  0.101563133	3.240000E-01
409	  0.101763532	-2.954900E+01	  0.101763532	5.114000E+00	  0.101763532	5.343000E+01	  0.101763532	3.170000E-01
410	  0.101963930	-2.953200E+01	  0.101963930	5.162000E+00	  0.101963930	5.343600E+01	  0.101963930	3.210000E-01
411	  0.102164328	-2.954300E+01	  0.102164328	4.847000E+00	  0.102164328	5.343400E+01	  0.102164328	3.010000E-01
412	  0.102364726	-2.950300E+01	  0.102364726	5.241000E+00	  0.102364726	5.344800E+01	  0.102364726	3.270000E-01
413	  0.102565125	-2.952500E+01	  0.102565125	4.490000E+00	  0.102565125	5.344300E+01	  0.102565125	2.790000E-01
414	  0.102765530	-2.950700E+01	  0.102765530	4.253000E+00	  0.102765530	5.345200E+01	  0.102765530	2.650000E-01
415	  0.102965929	-2.955000E+01	  0.102965929	4.213000E+00	  0.102965929	5.343400E+01	  0.102965929	2.610000E-01
416	  0.103166327	-2.950500E+01	  0.103166327	4.222000E+00	  0.103166327	5.345200E+01	  0.103166327	2.630000E-01
417	  0.103366733	-2.945700E+01	  0.103366733	4.104000E+00	  0.103366733	5.347300E+01	  0.103366733	2.570000E-01
418	  0.103567131	-2.949700E+01	  0.103567131	4.165000E+00	  0.103567131	5.345600E+01	  0.103567131	2.600000E-01
419	  0.103767529	-2.944000E+01	  0.103767529	3.843000E+00	  0.103767529	5.348100E+01	  0.103767529	2.420000E-01
420	  0.103967935	-2.946600E+01	  0.103967935	3.726000E+00	  0.103967935	5.347100E+01	  0.103967935	2.330000E-01
421	  0.104168333	-2.943100E+01	  0.104168333	3.620000E+00	  0.104168333	5.348600E+01	  0.104168333	2.280000E-01
422	  0.104368731	-2.944400E+01	  0.104368731	3.479000E+00	  0.104368731	5.348100E+01	  0.104368731	2.190000E-01
423	  0.104569137	-2.945100E+01	  0.104569137	3.184000E+00	  0.104569137	5.347900E+01	  0.104569137	2.000000E-01
424	  0.104769535	-2.946000E+01	  0.104769535	3.077000E+00	  0.104769535	5.347600E+01	  0.104769535	1.930000E-01
425	  0.104969934	-2.948000E+01	  0.104969934	2.965000E+00	  0.104969934	5.346800E+01	  0.104969934	1.850000E-01
426	  0.105170339	-2.947400E+01	  0.105170339	2.990000E+00	  0.105170339	5.347000E+01	  0.105170339	1.870000E-01
427	  0.105370738	-2.940800E+01	  0.105370738	3.000000E+00	  0.105370738	5.349800E+01	  0.105370738	1.890000E-01
428	  0.105571143	-2.942300E+01	  0.105571143	2.460000E+00	  0.105571143	5.349300E+01	  0.105571143	1.550000E-01
429	  0.105771542	-2.943300E+01	  0.105771542	2.750000E+00	  0.105771542	5.348800E+01	  0.105771542	1.730000E-01
430	  0.105971940	-2.945800E+01	  0.105971940	2.431000E+00	  0.105971940	5.347900E+01	  0.105971940	1.520000E-01
431	  0.106172346	-2.942800E+01	  0.106172346	2.353000E+00	  0.106172346	5.349200E+01	  0.106172346	1.480000E-01
432	  0.106372744	-2.942100E+01	  0.106372744	2.167000E+00	  0.106372744	5.349500E+01	  0.106372744	1.360000E-01
433	  0.106573142	-2.941300E+01	  0.106573142	2.175000E+00	  0.106573142	5.349800E+01	  0.106573142	1.370000E-01
434	  0.106773548	-2.937800E+01	  0.106773548	1.923000E+00	  0.106773548	5.351400E+01	  0.106773548	1.220000E-01
435	  0.106973946	-2.940000E+01	  0.106973946	1.852000E+00	  0.106973946	5.350400E+01	  0.106973946	1.170000E-01
436	  0.107174344	-2.938800E+01	  0.107174344	1.499000E+00	  0.107174344	5.351000E+01	  0.107174344	9.500000E-02
437	  0.107374750	-2.938900E+01	  0.107374750	1.901000E+00	  0.107374750	5.350900E+01	  0.107374750	1.200000E-01
438	  0.107575148	-2.941800E+01	  0.107575148	1.451000E+00	  0.107575148	5.349800E+01	  0.107575148	9.100000E-02
439	  0.107775547	-2.936800E+01	  0.107775547	1.549000E+00	  0.107775547	5.351900E+01	  0.107775547	9.800000E-02
440	  0.107975952	-2.937200E+01	  0.107975952	1.028000E+00	  0.107975952	5.351800E+01	  0.107975952	6.500000E-02
441	  0.108176351	-2.937900E+01	  0.108176351	9.860000E-01	  0.108176351	5.351500E+01	  0.108176351	6.200000E-02
442	  0.108376749	-2.937400E+01	  0.108376749	1.006000E+00	  0.108376749	5.351700E+01	  0.108376749	6.300000E-02
443	  0.108577155	-2.936400E+01	  0.108577155	6.720000E-01	  0.108577155	5.352100E+01	  0.108577155	4.200000E-02
444	  0.108777553	-2.935400E+01	  0.108777553	8.600000E-01	  0.108777553	5.352500E+01	  0.108777553	5.400000E-02
445	  0.108977959	-2.936200E+01	  0.108977959	5.290000E-01	  0.108977959	5.352200E+01	  0.108977959	3.300000E-02
446	  0.109178357	-2.934000E+01	  0.109178357	2.780000E-01	  0.109178357	5.353200E+01	  0.109178357	1.700000E-02
447	  0.109378755	-2.930700E+01	  0.109378755	3.930000E-01	  0.109378755	5.354600E+01	  0.109378755	2.500000E-02
448	  0.109579161	-2.935100E+01	  0.109579161	1.760000E-01	  0.109579161	5.352700E+01	  0.109579161	1.100000E-02
449	  0.109779559	-2.930600E+01	  0.109779559	2.490000E-01	  0.109779559	5.354600E+01	  0.109779559	1.600000E-02
450	  0.109979957	-2.931500E+01	  0.109979957	1.430000E-01	  0.109979957	5.354200E+01	  0.109979957	9.000000E-03
451	  0.110180363	-2.938100E+01	  0.110180363	-2.790000E-01	  0.110180363	5.351500E+01	  0.110180363	-1.700000E-02
452	  0.110380761	-2.932900E+01	  0.110380761	-4.820000E-01	  0.110380761	5.353600E+01	  0.110380761	-3.000000E-02
453	  0.110581160	-2.931500E+01	  0.110581160	-3.680000E-01	  0.110581160	5.354200E+01	  0.110581160	-2.300000E-02
454	  0.110781565	-2.932400E+01	  0.110781565	-5.320000E-01	  0.110781565	5.353800E+01	  0.110781565	-3.400000E-02
455	  0.110981964	-2.929400E+01	  0.110981964	-6.410000E-01	  0.110981964	5.355100E+01	  0.110981964	-4.100000E-02
456	  0.111182362	-2.929300E+01	  0.111182362	-6.500000E-01	  0.111182362	5.355100E+01	  0.111182362	-4.100000E-02
457	  0.111382768	-2.934300E+01	  0.111382768	-8.980000E-01	  0.111382768	5.353000E+01	  0.111382768	-5.700000E-02
458	  0.111583166	-2.929600E+01	  0.111583166	-9.500000E-01	  0.111583166	5.355000E+01	  0.111583166	-6.100000E-02
459	  0.111783572	-2.934000E+01	  0.111783572	-1.499000E+00	  0.111783572	5.353000E+01	  0.111783572	-9.500000E-02
460	  0.111983970	-2.933400E+01	  0.111983970	-1.572000E+00	  0.111983970	5.353300E+01	  0.111983970	-1.000000E-01
461	  0.112184368	-2.924600E+01	  0.112184368	-1.383000E+00	  0.112184368	5.357100E+01	  0.112184368	-8.900000E-02
462	  0.112384774	-2.928000E+01	  0.112384774	-1.586000E+00	  0.112384774	5.355600E+01	  0.112384774	-1.010000E-01
463	  0.112585172	-2.930400E+01	  0.112585172	-1.987000E+00	  0.112585172	5.354500E+01	  0.112585172	-1.270000E-01
464	  0.112785570	-2.926900E+01	  0.112785570	-1.784000E+00	  0.112785570	5.356000E+01	  0.112785570	-1.140000E-01
465	  0.112985976	-2.927700E+01	  0.112985976	-1.944000E+00	  0.112985976	5.355600E+01	  0.112985976	-1.250000E-01
466	  0.113186374	-2.931300E+01	  0.113186374	-2.032000E+00	  0.113186374	5.354100E+01	  0.113186374	-1.300000E-01
467	  0.113386773	-2.929200E+01	  0.113386773	-2.243000E+00	  0.113386773	5.354900E+01	  0.113386773	-1.440000E-01
468	  0.113587178	-2.930800E+01	  0.113587178	-2.406000E+00	  0.113587178	5.354200E+01	  0.113587178	-1.540000E-01
469	  0.113787577	-2.929000E+01	  0.113787577	-2.491000E+00	  0.113787577	5.354900E+01	  0.113787577	-1.590000E-01
470	  0.113987975	-2.920900E+01	  0.113987975	-2.710000E+00	  0.113987975	5.358300E+01	  0.113987975	-1.750000E-01
471	  0.114188381	-2.927500E+01	  0.114188381	-2.927000E+00	  0.114188381	5.355400E+01	  0.114188381	-1.880000E-01
472	  0.114388779	-2.927400E+01	  0.114388779	-2.986000E+00	  0.114388779	5.355400E+01	  0.114388779	-1.920000E-01
473	  0.114589177	-2.926300E+01	  0.114589177	-2.919000E+00	  0.114589177	5.355900E+01	  0.114589177	-1.880000E-01
474	  0.114789583	-2.928800E+01	  0.114789583	-2.986000E+00	  0.114789583	5.354800E+01	  0.114789583	-1.910000E-01
475	  0.114989981	-2.925100E+01	  0.114989981	-3.144000E+00	  0.114989981	5.356300E+01	  0.114989981	-2.020000E-01
476	  0.115190387	-2.924000E+01	  0.115190387	-3.525000E+00	  0.115190387	5.356700E+01	  0.115190387	-2.270000E-01
477	  0.115390785	-2.926100E+01	  0.115390785	-3.566000E+00	  0.115390785	5.355700E+01	  0.115390785	-2.290000E-01
478	  0.115591183	-2.925000E+01	  0.115591183	-3.592000E+00	  0.115591183	5.356200E+01	  0.115591183	-2.310000E-01
479	  0.115791589	-2.924600E+01	  0.115791589	-3.737000E+00	  0.115791589	5.356300E+01	  0.115791589	-2.410000E-01
480	  0.115991987	-2.924600E+01	  0.115991987	-3.981000E+00	  0.115991987	5.356200E+01	  0.115991987	-2.560000E-01
481	  0.116192386	-2.925700E+01	  0.116192386	-3.978000E+00	  0.116192386	5.355700E+01	  0.116192386	-2.560000E-01
482	  0.116392791	-2.921400E+01	  0.116392791	-4.182000E+00	  0.116392791	5.357500E+01	  0.116392791	-2.700000E-01
483	  0.116593190	-2.924600E+01	  0.116593190	-4.625000E+00	  0.116593190	5.355900E+01	  0.116593190	-2.980000E-01
484	  0.116793588	-2.925000E+01	  0.116793588	-4.542000E+00	  0.116793588	5.355800E+01	  0.116793588	-2.920000E-01
485	  0.116993994	-2.927700E+01	  0.116993994	-4.517000E+00	  0.116993994	5.354600E+01	  0.116993994	-2.900000E-01
486	  0.117194392	-2.924000E+01	  0.117194392	-4.701000E+00	  0.117194392	5.356100E+01	  0.117194392	-3.030000E-01
487	  0.117394790	-2.925400E+01	  0.117394790	-4.682000E+00	  0.117394790	5.355500E+01	  0.117394790	-3.010000E-01
488	  0.117595196	-2.922800E+01	  0.117595196	-4.843000E+00	  0.117595196	5.356500E+01	  0.117595196	-3.120000E-01
489	  0.117795594	-2.923300E+01	  0.117795594	-4.967000E+00	  0.117795594	5.356200E+01	  0.117795594	-3.200000E-01
490	  0.117995992	-2.924500E+01	  0.117995992	-5.107000E+00	  0.117995992	5.355600E+01	  0.117995992	-3.290000E-01
491	  0.118196398	-2.925500E+01	  0.118196398	-5.327000E+00	  0.118196398	5.355100E+01	  0.118196398	-3.420000E-01
492	  0.118396796	-2.923500E+01	  0.118396796	-5.700000E+00	  0.118396796	5.355700E+01	  0.118396796	-3.670000E-01
