! Anritsu VNA Master:             	Model: MS2036C/10/77
! SN:             	1601066
! /bd0/18may10/top200_1.txt
! Existing Calibration Information:
! TYPE:             	Current Settings	Active Cal Settings
! TIME:             	05/10/2018 01:12:06 PM	05/10/2018 01:05:27 PM
! INTERNAL TEMP:    	51.3 C	49.8 C
! # POINTS:         	492	492
! START FREQ:       	20.000 MHz	20.000 MHz
! STOP FREQ:        	118.396 793 MHz	118.396 793 MHz
! SOURCE POWER:     	High	High
! IFBW:             	50 Hz	50 Hz
! AVG FACTOR:       	  1 	  1 
! REF PLANE 1:      	0 mm	0 mm
! REF PLANE 2:      	0 mm	0 mm
! CAL TYPE:         	Full S22	Full S22
! CAL METHOD:       	SOLT	SOLT
! CAL LINE TYPE:    	Coax	Coax
! DUT PORT 1:       	K-Conn(M)	K-Conn(M)
! DUT PORT 2:       	K-Conn(M)	K-Conn(M)
! CAL STATUS:       	OK: Accuracy High	--
! PROP-V:       	0.700
! CABLE LOSS:       	0.000 dB/m
! REF IMPEDANCE:       	50.0
! Trace Specific Parameters:	TR1	TR2	TR3	TR4
! TRACE.#.Y (GRAPH TYPE)	LOG MAG	PHASE	REAL IMPEDANCE	IMAGINARY IMPEDANCE
! TRACE.#.X 	FREQ.GHZ	FREQ.GHZ	FREQ.GHZ	FREQ.GHZ
! S-PARAMETER	S22	S22	S22	S22
! SMOOTH/APERTURE %	0	0	0	0
! WINDOW	NSL	NSL	NSL	NSL
! GATING	OFF	OFF	OFF	OFF
! FGTD	OFF	OFF	OFF	OFF
Marker Information per Trace:	TR1	TR2	TR3	TR4
!MK1	--	"MK1 TR2:  20.000 MHz,PH:-22.26°"	--	--
!MK2	--	--	"MK2 TR3:  70.100 200 MHz,Z:(29.277 ohm, -50.740 ohm)"	--
!MK3	--	--	--	--
!MK4	--	--	--	--
!MK5	--	--	--	--
!MK6	--	--	--	--
!MK7	--	--	--	--
!MK8	--	--	--	--
PNT	TR1.FREQ.GHZ	TR1.LOG MAG.dB	TR2.FREQ.GHZ	TR2.PHASE.deg	TR3.FREQ.GHZ	TR3.REAL IMPEDANCE.ohm	TR4.FREQ.GHZ	TR4.IMAGINARY IMPEDANCE.ohm
1	  0.020000000	-4.572000E+00	  0.020000000	-2.225600E+01	  0.020000000	1.273920E+02	  0.020000000	-8.756300E+01
2	  0.020200402	-4.569000E+00	  0.020200402	-2.249800E+01	  0.020200402	1.264730E+02	  0.020200402	-8.789000E+01
3	  0.020400802	-4.568000E+00	  0.020400802	-2.271800E+01	  0.020400802	1.256240E+02	  0.020400802	-8.811700E+01
4	  0.020601204	-4.568000E+00	  0.020601204	-2.295500E+01	  0.020601204	1.247110E+02	  0.020601204	-8.833700E+01
5	  0.020801604	-4.567000E+00	  0.020801604	-2.318100E+01	  0.020801604	1.238520E+02	  0.020801604	-8.857900E+01
6	  0.021002004	-4.567000E+00	  0.021002004	-2.339400E+01	  0.021002004	1.230370E+02	  0.021002004	-8.876200E+01
7	  0.021202406	-4.567000E+00	  0.021202406	-2.362700E+01	  0.021202406	1.221490E+02	  0.021202406	-8.893900E+01
8	  0.021402806	-4.565000E+00	  0.021402806	-2.386600E+01	  0.021402806	1.212540E+02	  0.021402806	-8.917000E+01
9	  0.021603208	-4.566000E+00	  0.021603208	-2.409500E+01	  0.021603208	1.203870E+02	  0.021603208	-8.930700E+01
10	  0.021803608	-4.567000E+00	  0.021803608	-2.431100E+01	  0.021803608	1.195760E+02	  0.021803608	-8.943400E+01
11	  0.022004008	-4.567000E+00	  0.022004008	-2.454300E+01	  0.022004008	1.187120E+02	  0.022004008	-8.959500E+01
12	  0.022204408	-4.566000E+00	  0.022204408	-2.477100E+01	  0.022204408	1.178710E+02	  0.022204408	-8.975000E+01
13	  0.022404809	-4.565000E+00	  0.022404809	-2.501200E+01	  0.022404809	1.169870E+02	  0.022404809	-8.989900E+01
14	  0.022605211	-4.567000E+00	  0.022605211	-2.522500E+01	  0.022605211	1.162020E+02	  0.022605211	-8.997300E+01
15	  0.022805611	-4.566000E+00	  0.022805611	-2.546400E+01	  0.022805611	1.153350E+02	  0.022805611	-9.010600E+01
16	  0.023006011	-4.569000E+00	  0.023006011	-2.568900E+01	  0.023006011	1.145150E+02	  0.023006011	-9.015100E+01
17	  0.023206413	-4.567000E+00	  0.023206413	-2.593200E+01	  0.023206413	1.136470E+02	  0.023206413	-9.029100E+01
18	  0.023406813	-4.567000E+00	  0.023406813	-2.615600E+01	  0.023406813	1.128440E+02	  0.023406813	-9.037000E+01
19	  0.023607215	-4.568000E+00	  0.023607215	-2.637300E+01	  0.023607215	1.120740E+02	  0.023607215	-9.043100E+01
20	  0.023807615	-4.568000E+00	  0.023807615	-2.660500E+01	  0.023807615	1.112550E+02	  0.023807615	-9.050600E+01
21	  0.024008015	-4.569000E+00	  0.024008015	-2.682900E+01	  0.024008015	1.104710E+02	  0.024008015	-9.054800E+01
22	  0.024208417	-4.570000E+00	  0.024208417	-2.705500E+01	  0.024208417	1.096810E+02	  0.024208417	-9.057700E+01
23	  0.024408817	-4.569000E+00	  0.024408817	-2.727900E+01	  0.024408817	1.089090E+02	  0.024408817	-9.063400E+01
24	  0.024609219	-4.571000E+00	  0.024609219	-2.751700E+01	  0.024609219	1.080900E+02	  0.024609219	-9.065200E+01
25	  0.024809619	-4.572000E+00	  0.024809619	-2.773400E+01	  0.024809619	1.073460E+02	  0.024809619	-9.065700E+01
26	  0.025010020	-4.572000E+00	  0.025010020	-2.796000E+01	  0.025010020	1.065840E+02	  0.025010020	-9.067700E+01
27	  0.025210422	-4.571000E+00	  0.025210422	-2.817900E+01	  0.025210422	1.058460E+02	  0.025210422	-9.072300E+01
28	  0.025410822	-4.571000E+00	  0.025410822	-2.841700E+01	  0.025410822	1.050520E+02	  0.025410822	-9.073300E+01
29	  0.025611224	-4.573000E+00	  0.025611224	-2.864400E+01	  0.025611224	1.043000E+02	  0.025611224	-9.070500E+01
30	  0.025811624	-4.573000E+00	  0.025811624	-2.887500E+01	  0.025811624	1.035370E+02	  0.025811624	-9.071500E+01
31	  0.026012026	-4.573000E+00	  0.026012026	-2.909700E+01	  0.026012026	1.028140E+02	  0.026012026	-9.070800E+01
32	  0.026212426	-4.574000E+00	  0.026212426	-2.932700E+01	  0.026212426	1.020680E+02	  0.026212426	-9.067500E+01
33	  0.026412826	-4.573000E+00	  0.026412826	-2.955500E+01	  0.026412826	1.013330E+02	  0.026412826	-9.067100E+01
34	  0.026613226	-4.574000E+00	  0.026613226	-2.980100E+01	  0.026613226	1.005480E+02	  0.026613226	-9.064700E+01
35	  0.026813626	-4.575000E+00	  0.026813626	-3.002400E+01	  0.026813626	9.984100E+01	  0.026813626	-9.058900E+01
36	  0.027014028	-4.575000E+00	  0.027014028	-3.025300E+01	  0.027014028	9.912200E+01	  0.027014028	-9.056000E+01
37	  0.027214428	-4.576000E+00	  0.027214428	-3.048100E+01	  0.027214428	9.841100E+01	  0.027214428	-9.050900E+01
38	  0.027414829	-4.577000E+00	  0.027414829	-3.070200E+01	  0.027414829	9.772900E+01	  0.027414829	-9.043800E+01
39	  0.027615231	-4.576000E+00	  0.027615231	-3.093000E+01	  0.027615231	9.702800E+01	  0.027615231	-9.040100E+01
40	  0.027815631	-4.577000E+00	  0.027815631	-3.116200E+01	  0.027815631	9.632000E+01	  0.027815631	-9.034600E+01
41	  0.028016033	-4.578000E+00	  0.028016033	-3.139300E+01	  0.028016033	9.562300E+01	  0.028016033	-9.026800E+01
42	  0.028216433	-4.578000E+00	  0.028216433	-3.161800E+01	  0.028216433	9.494800E+01	  0.028216433	-9.019900E+01
43	  0.028416833	-4.580000E+00	  0.028416833	-3.184400E+01	  0.028416833	9.427800E+01	  0.028416833	-9.009900E+01
44	  0.028617235	-4.580000E+00	  0.028617235	-3.207900E+01	  0.028617235	9.358600E+01	  0.028617235	-9.002100E+01
45	  0.028817635	-4.579000E+00	  0.028817635	-3.230300E+01	  0.028817635	9.292700E+01	  0.028817635	-8.996500E+01
46	  0.029018037	-4.580000E+00	  0.029018037	-3.253000E+01	  0.029018037	9.227000E+01	  0.029018037	-8.986600E+01
47	  0.029218437	-4.580000E+00	  0.029218437	-3.275400E+01	  0.029218437	9.162400E+01	  0.029218437	-8.978400E+01
48	  0.029418837	-4.580000E+00	  0.029418837	-3.298500E+01	  0.029418837	9.096400E+01	  0.029418837	-8.968500E+01
49	  0.029619239	-4.581000E+00	  0.029619239	-3.321400E+01	  0.029619239	9.031400E+01	  0.029619239	-8.958400E+01
50	  0.029819639	-4.580000E+00	  0.029819639	-3.344800E+01	  0.029819639	8.965500E+01	  0.029819639	-8.951000E+01
51	  0.030020041	-4.582000E+00	  0.030020041	-3.367200E+01	  0.030020041	8.903500E+01	  0.030020041	-8.937100E+01
52	  0.030220442	-4.581000E+00	  0.030220442	-3.391000E+01	  0.030220442	8.837500E+01	  0.030220442	-8.926800E+01
53	  0.030420844	-4.583000E+00	  0.030420844	-3.414100E+01	  0.030420844	8.774700E+01	  0.030420844	-8.913400E+01
54	  0.030621244	-4.584000E+00	  0.030621244	-3.436200E+01	  0.030621244	8.714900E+01	  0.030621244	-8.901000E+01
55	  0.030821642	-4.583000E+00	  0.030821642	-3.459000E+01	  0.030821642	8.653300E+01	  0.030821642	-8.890500E+01
56	  0.031022044	-4.585000E+00	  0.031022044	-3.481600E+01	  0.031022044	8.593500E+01	  0.031022044	-8.876000E+01
57	  0.031222444	-4.577000E+00	  0.031222444	-3.500700E+01	  0.031222444	8.540100E+01	  0.031222444	-8.879600E+01
58	  0.031422846	-4.579000E+00	  0.031422846	-3.522900E+01	  0.031422846	8.482200E+01	  0.031422846	-8.863200E+01
59	  0.031623244	-4.580000E+00	  0.031623244	-3.546100E+01	  0.031623244	8.421900E+01	  0.031623244	-8.848700E+01
60	  0.031823646	-4.582000E+00	  0.031823646	-3.568800E+01	  0.031823646	8.363500E+01	  0.031823646	-8.833700E+01
61	  0.032024048	-4.583000E+00	  0.032024048	-3.593700E+01	  0.032024048	8.300400E+01	  0.032024048	-8.816700E+01
62	  0.032224450	-4.583000E+00	  0.032224450	-3.614500E+01	  0.032224450	8.247600E+01	  0.032224450	-8.803500E+01
63	  0.032424849	-4.581000E+00	  0.032424849	-3.638000E+01	  0.032424849	8.187500E+01	  0.032424849	-8.792600E+01
64	  0.032625251	-4.585000E+00	  0.032625251	-3.660600E+01	  0.032625251	8.132300E+01	  0.032625251	-8.773500E+01
65	  0.032825653	-4.584000E+00	  0.032825653	-3.683400E+01	  0.032825653	8.075300E+01	  0.032825653	-8.760200E+01
66	  0.033026051	-4.586000E+00	  0.033026051	-3.706500E+01	  0.033026051	8.019600E+01	  0.033026051	-8.741400E+01
67	  0.033226453	-4.587000E+00	  0.033226453	-3.728900E+01	  0.033226453	7.965200E+01	  0.033226453	-8.725600E+01
68	  0.033426855	-4.587000E+00	  0.033426855	-3.751600E+01	  0.033426855	7.910500E+01	  0.033426855	-8.710600E+01
69	  0.033627257	-4.588000E+00	  0.033627257	-3.774200E+01	  0.033627257	7.856700E+01	  0.033627257	-8.693900E+01
70	  0.033827655	-4.588000E+00	  0.033827655	-3.797300E+01	  0.033827655	7.802000E+01	  0.033827655	-8.677800E+01
71	  0.034028057	-4.589000E+00	  0.034028057	-3.820600E+01	  0.034028057	7.747900E+01	  0.034028057	-8.659600E+01
72	  0.034228459	-4.591000E+00	  0.034228459	-3.843200E+01	  0.034228459	7.695800E+01	  0.034228459	-8.641900E+01
73	  0.034428857	-4.590000E+00	  0.034428857	-3.867300E+01	  0.034428857	7.639500E+01	  0.034428857	-8.626100E+01
74	  0.034629259	-4.591000E+00	  0.034629259	-3.888400E+01	  0.034629259	7.591800E+01	  0.034629259	-8.608700E+01
75	  0.034829661	-4.591000E+00	  0.034829661	-3.912500E+01	  0.034829661	7.537000E+01	  0.034829661	-8.592200E+01
76	  0.035030060	-4.592000E+00	  0.035030060	-3.935800E+01	  0.035030060	7.485400E+01	  0.035030060	-8.572300E+01
77	  0.035230462	-4.592000E+00	  0.035230462	-3.958100E+01	  0.035230462	7.435600E+01	  0.035230462	-8.555800E+01
78	  0.035430863	-4.593000E+00	  0.035430863	-3.981300E+01	  0.035430863	7.384700E+01	  0.035430863	-8.537100E+01
79	  0.035631265	-4.595000E+00	  0.035631265	-4.004400E+01	  0.035631265	7.334800E+01	  0.035631265	-8.517400E+01
80	  0.035831664	-4.594000E+00	  0.035831664	-4.027400E+01	  0.035831664	7.284600E+01	  0.035831664	-8.500800E+01
81	  0.036032066	-4.595000E+00	  0.036032066	-4.050100E+01	  0.036032066	7.236400E+01	  0.036032066	-8.480900E+01
82	  0.036232468	-4.595000E+00	  0.036232468	-4.071100E+01	  0.036232468	7.191600E+01	  0.036232468	-8.464600E+01
83	  0.036432866	-4.597000E+00	  0.036432866	-4.095200E+01	  0.036432866	7.141400E+01	  0.036432866	-8.443800E+01
84	  0.036633268	-4.596000E+00	  0.036633268	-4.117800E+01	  0.036633268	7.093700E+01	  0.036633268	-8.426600E+01
85	  0.036833670	-4.598000E+00	  0.036833670	-4.140100E+01	  0.036833670	7.048300E+01	  0.036833670	-8.406400E+01
86	  0.037034072	-4.597000E+00	  0.037034072	-4.162100E+01	  0.037034072	7.002500E+01	  0.037034072	-8.390000E+01
87	  0.037234470	-4.598000E+00	  0.037234470	-4.184400E+01	  0.037234470	6.957500E+01	  0.037234470	-8.370400E+01
88	  0.037434869	-4.599000E+00	  0.037434869	-4.207400E+01	  0.037434869	6.911400E+01	  0.037434869	-8.350600E+01
89	  0.037635271	-4.600000E+00	  0.037635271	-4.228300E+01	  0.037635271	6.869700E+01	  0.037635271	-8.332400E+01
90	  0.037835669	-4.603000E+00	  0.037835669	-4.251900E+01	  0.037835669	6.824900E+01	  0.037835669	-8.308300E+01
91	  0.038036071	-4.601000E+00	  0.038036071	-4.275200E+01	  0.038036071	6.777800E+01	  0.038036071	-8.291700E+01
92	  0.038236473	-4.603000E+00	  0.038236473	-4.297400E+01	  0.038236473	6.735400E+01	  0.038236473	-8.271000E+01
93	  0.038436871	-4.604000E+00	  0.038436871	-4.319900E+01	  0.038436871	6.692400E+01	  0.038436871	-8.250700E+01
94	  0.038637273	-4.604000E+00	  0.038637273	-4.342500E+01	  0.038637273	6.649100E+01	  0.038637273	-8.231300E+01
95	  0.038837675	-4.604000E+00	  0.038837675	-4.364800E+01	  0.038837675	6.606600E+01	  0.038837675	-8.212800E+01
96	  0.039038073	-4.605000E+00	  0.039038073	-4.387600E+01	  0.039038073	6.564400E+01	  0.039038073	-8.191400E+01
97	  0.039238475	-4.607000E+00	  0.039238475	-4.410900E+01	  0.039238475	6.521700E+01	  0.039238475	-8.169600E+01
98	  0.039438877	-4.607000E+00	  0.039438877	-4.433400E+01	  0.039438877	6.479900E+01	  0.039438877	-8.150200E+01
99	  0.039639279	-4.606000E+00	  0.039639279	-4.454900E+01	  0.039639279	6.440400E+01	  0.039639279	-8.132100E+01
100	  0.039839678	-4.606000E+00	  0.039839678	-4.478700E+01	  0.039839678	6.396900E+01	  0.039839678	-8.111800E+01
101	  0.040040080	-4.607000E+00	  0.040040080	-4.500700E+01	  0.040040080	6.357900E+01	  0.040040080	-8.090900E+01
102	  0.040240481	-4.610000E+00	  0.040240481	-4.522100E+01	  0.040240481	6.321100E+01	  0.040240481	-8.069400E+01
103	  0.040440880	-4.609000E+00	  0.040440880	-4.543700E+01	  0.040440880	6.282400E+01	  0.040440880	-8.051300E+01
104	  0.040641282	-4.610000E+00	  0.040641282	-4.567200E+01	  0.040641282	6.241700E+01	  0.040641282	-8.029500E+01
105	  0.040841684	-4.609000E+00	  0.040841684	-4.589400E+01	  0.040841684	6.202500E+01	  0.040841684	-8.010900E+01
106	  0.041042086	-4.611000E+00	  0.041042086	-4.611800E+01	  0.041042086	6.165000E+01	  0.041042086	-7.988500E+01
107	  0.041242484	-4.613000E+00	  0.041242484	-4.634100E+01	  0.041242484	6.127900E+01	  0.041242484	-7.966700E+01
108	  0.041442886	-4.612000E+00	  0.041442886	-4.657600E+01	  0.041442886	6.087600E+01	  0.041442886	-7.946900E+01
109	  0.041643288	-4.612000E+00	  0.041643288	-4.679800E+01	  0.041643288	6.049900E+01	  0.041643288	-7.927500E+01
110	  0.041843686	-4.613000E+00	  0.041843686	-4.702700E+01	  0.041843686	6.012500E+01	  0.041843686	-7.905400E+01
111	  0.042044088	-4.614000E+00	  0.042044088	-4.726700E+01	  0.042044088	5.973400E+01	  0.042044088	-7.883100E+01
112	  0.042244490	-4.614000E+00	  0.042244490	-4.748700E+01	  0.042244490	5.937700E+01	  0.042244490	-7.862900E+01
113	  0.042444889	-4.615000E+00	  0.042444889	-4.772700E+01	  0.042444889	5.899200E+01	  0.042444889	-7.840600E+01
114	  0.042645290	-4.614000E+00	  0.042645290	-4.794300E+01	  0.042645290	5.863800E+01	  0.042645290	-7.822300E+01
115	  0.042845692	-4.616000E+00	  0.042845692	-4.817800E+01	  0.042845692	5.827600E+01	  0.042845692	-7.798500E+01
116	  0.043046094	-4.615000E+00	  0.043046094	-4.840200E+01	  0.043046094	5.791700E+01	  0.043046094	-7.779400E+01
117	  0.043246493	-4.617000E+00	  0.043246493	-4.864400E+01	  0.043246493	5.754700E+01	  0.043246493	-7.755800E+01
118	  0.043446895	-4.617000E+00	  0.043446895	-4.885100E+01	  0.043446895	5.723000E+01	  0.043446895	-7.736300E+01
119	  0.043647297	-4.618000E+00	  0.043647297	-4.909700E+01	  0.043647297	5.685800E+01	  0.043647297	-7.712900E+01
120	  0.043847695	-4.620000E+00	  0.043847695	-4.932600E+01	  0.043847695	5.651900E+01	  0.043847695	-7.690200E+01
121	  0.044048097	-4.619000E+00	  0.044048097	-4.956200E+01	  0.044048097	5.615400E+01	  0.044048097	-7.670100E+01
122	  0.044248499	-4.620000E+00	  0.044248499	-4.979500E+01	  0.044248499	5.581600E+01	  0.044248499	-7.647200E+01
123	  0.044448901	-4.621000E+00	  0.044448901	-5.002800E+01	  0.044448901	5.547400E+01	  0.044448901	-7.625400E+01
124	  0.044649299	-4.622000E+00	  0.044649299	-5.026200E+01	  0.044649299	5.513600E+01	  0.044649299	-7.602900E+01
125	  0.044849701	-4.622000E+00	  0.044849701	-5.049300E+01	  0.044849701	5.480200E+01	  0.044849701	-7.581400E+01
126	  0.045050103	-4.624000E+00	  0.045050103	-5.073400E+01	  0.045050103	5.446700E+01	  0.045050103	-7.557500E+01
127	  0.045250501	-4.624000E+00	  0.045250501	-5.096100E+01	  0.045250501	5.413900E+01	  0.045250501	-7.537100E+01
128	  0.045450903	-4.624000E+00	  0.045450903	-5.119800E+01	  0.045450903	5.380400E+01	  0.045450903	-7.515100E+01
129	  0.045651305	-4.625000E+00	  0.045651305	-5.144400E+01	  0.045651305	5.346100E+01	  0.045651305	-7.492200E+01
130	  0.045851704	-4.625000E+00	  0.045851704	-5.166500E+01	  0.045851704	5.315900E+01	  0.045851704	-7.471100E+01
131	  0.046052102	-4.625000E+00	  0.046052102	-5.190800E+01	  0.046052102	5.282000E+01	  0.046052102	-7.449300E+01
132	  0.046252504	-4.625000E+00	  0.046252504	-5.213100E+01	  0.046252504	5.251600E+01	  0.046252504	-7.428700E+01
133	  0.046452906	-4.626000E+00	  0.046452906	-5.237300E+01	  0.046452906	5.219500E+01	  0.046452906	-7.405300E+01
134	  0.046653304	-4.626000E+00	  0.046653304	-5.259100E+01	  0.046653304	5.190200E+01	  0.046653304	-7.385300E+01
135	  0.046853706	-4.628000E+00	  0.046853706	-5.283700E+01	  0.046853706	5.158200E+01	  0.046853706	-7.361700E+01
136	  0.047054108	-4.628000E+00	  0.047054108	-5.307100E+01	  0.047054108	5.127500E+01	  0.047054108	-7.340000E+01
137	  0.047254506	-4.629000E+00	  0.047254506	-5.330500E+01	  0.047254506	5.097500E+01	  0.047254506	-7.317800E+01
138	  0.047454908	-4.628000E+00	  0.047454908	-5.353600E+01	  0.047454908	5.067300E+01	  0.047454908	-7.296800E+01
139	  0.047655310	-4.630000E+00	  0.047655310	-5.377200E+01	  0.047655310	5.038000E+01	  0.047655310	-7.273700E+01
140	  0.047855709	-4.628000E+00	  0.047855709	-5.400200E+01	  0.047855709	5.007700E+01	  0.047855709	-7.254000E+01
141	  0.048056111	-4.630000E+00	  0.048056111	-5.423300E+01	  0.048056111	4.979600E+01	  0.048056111	-7.231400E+01
142	  0.048256513	-4.633000E+00	  0.048256513	-5.446300E+01	  0.048256513	4.952500E+01	  0.048256513	-7.208000E+01
143	  0.048456915	-4.632000E+00	  0.048456915	-5.470600E+01	  0.048456915	4.921800E+01	  0.048456915	-7.186500E+01
144	  0.048657313	-4.632000E+00	  0.048657313	-5.493500E+01	  0.048657313	4.893800E+01	  0.048657313	-7.165400E+01
145	  0.048857715	-4.633000E+00	  0.048857715	-5.516100E+01	  0.048857715	4.866500E+01	  0.048857715	-7.144400E+01
146	  0.049058117	-4.634000E+00	  0.049058117	-5.540600E+01	  0.049058117	4.837700E+01	  0.049058117	-7.121000E+01
147	  0.049258515	-4.633000E+00	  0.049258515	-5.564600E+01	  0.049258515	4.808700E+01	  0.049258515	-7.099500E+01
148	  0.049458917	-4.635000E+00	  0.049458917	-5.587200E+01	  0.049458917	4.782500E+01	  0.049458917	-7.077900E+01
149	  0.049659319	-4.635000E+00	  0.049659319	-5.609700E+01	  0.049659319	4.756500E+01	  0.049659319	-7.057000E+01
150	  0.049859721	-4.635000E+00	  0.049859721	-5.632900E+01	  0.049859721	4.729300E+01	  0.049859721	-7.036000E+01
151	  0.050060119	-4.638000E+00	  0.050060119	-5.657000E+01	  0.050060119	4.702900E+01	  0.050060119	-7.012100E+01
152	  0.050260521	-4.635000E+00	  0.050260521	-5.679000E+01	  0.050260521	4.676300E+01	  0.050260521	-6.993800E+01
153	  0.050460923	-4.636000E+00	  0.050460923	-5.702200E+01	  0.050460923	4.650100E+01	  0.050460923	-6.972700E+01
154	  0.050661322	-4.638000E+00	  0.050661322	-5.727000E+01	  0.050661322	4.623700E+01	  0.050661322	-6.948300E+01
155	  0.050861724	-4.636000E+00	  0.050861724	-5.748800E+01	  0.050861724	4.598100E+01	  0.050861724	-6.930100E+01
156	  0.051062126	-4.640000E+00	  0.051062126	-5.772200E+01	  0.051062126	4.574300E+01	  0.051062126	-6.906300E+01
157	  0.051262524	-4.639000E+00	  0.051262524	-5.795900E+01	  0.051262524	4.548100E+01	  0.051262524	-6.885000E+01
158	  0.051462926	-4.639000E+00	  0.051462926	-5.820000E+01	  0.051462926	4.521400E+01	  0.051462926	-6.863900E+01
159	  0.051663328	-4.641000E+00	  0.051663328	-5.841900E+01	  0.051663328	4.499400E+01	  0.051663328	-6.842300E+01
160	  0.051863730	-4.641000E+00	  0.051863730	-5.865000E+01	  0.051863730	4.474300E+01	  0.051863730	-6.821900E+01
161	  0.052064128	-4.642000E+00	  0.052064128	-5.889100E+01	  0.052064128	4.449600E+01	  0.052064128	-6.799200E+01
162	  0.052264530	-4.642000E+00	  0.052264530	-5.912800E+01	  0.052264530	4.424300E+01	  0.052264530	-6.778300E+01
163	  0.052464932	-4.641000E+00	  0.052464932	-5.935800E+01	  0.052464932	4.400100E+01	  0.052464932	-6.758000E+01
164	  0.052665330	-4.642000E+00	  0.052665330	-5.959100E+01	  0.052665330	4.376500E+01	  0.052665330	-6.736700E+01
165	  0.052865732	-4.642000E+00	  0.052865732	-5.981900E+01	  0.052865732	4.353400E+01	  0.052865732	-6.715900E+01
166	  0.053066134	-4.641000E+00	  0.053066134	-6.004800E+01	  0.053066134	4.329300E+01	  0.053066134	-6.696500E+01
167	  0.053266536	-4.642000E+00	  0.053266536	-6.028100E+01	  0.053266536	4.306600E+01	  0.053266536	-6.674900E+01
168	  0.053466935	-4.643000E+00	  0.053466935	-6.052200E+01	  0.053466935	4.283000E+01	  0.053466935	-6.652900E+01
169	  0.053667337	-4.644000E+00	  0.053667337	-6.074600E+01	  0.053667337	4.261300E+01	  0.053667337	-6.632400E+01
170	  0.053867739	-4.646000E+00	  0.053867739	-6.098600E+01	  0.053867739	4.238900E+01	  0.053867739	-6.609800E+01
171	  0.054068137	-4.645000E+00	  0.054068137	-6.121100E+01	  0.054068137	4.216300E+01	  0.054068137	-6.590600E+01
172	  0.054268539	-4.644000E+00	  0.054268539	-6.144400E+01	  0.054268539	4.193600E+01	  0.054268539	-6.570300E+01
173	  0.054468941	-4.646000E+00	  0.054468941	-6.167900E+01	  0.054468941	4.172200E+01	  0.054468941	-6.548500E+01
174	  0.054669335	-4.646000E+00	  0.054669335	-6.191300E+01	  0.054669335	4.149900E+01	  0.054669335	-6.527800E+01
175	  0.054869737	-4.647000E+00	  0.054869737	-6.213500E+01	  0.054869737	4.129200E+01	  0.054869737	-6.508100E+01
176	  0.055070139	-4.648000E+00	  0.055070139	-6.235300E+01	  0.055070139	4.109700E+01	  0.055070139	-6.488100E+01
177	  0.055270538	-4.648000E+00	  0.055270538	-6.258800E+01	  0.055270538	4.087800E+01	  0.055270538	-6.467700E+01
178	  0.055470940	-4.649000E+00	  0.055470940	-6.283300E+01	  0.055470940	4.066000E+01	  0.055470940	-6.445500E+01
179	  0.055671342	-4.649000E+00	  0.055671342	-6.305500E+01	  0.055671342	4.045500E+01	  0.055671342	-6.426400E+01
180	  0.055871744	-4.649000E+00	  0.055871744	-6.329100E+01	  0.055871744	4.024200E+01	  0.055871744	-6.405800E+01
181	  0.056072142	-4.650000E+00	  0.056072142	-6.351700E+01	  0.056072142	4.004500E+01	  0.056072142	-6.385600E+01
182	  0.056272544	-4.653000E+00	  0.056272544	-6.375700E+01	  0.056272544	3.985000E+01	  0.056272544	-6.363000E+01
183	  0.056472946	-4.652000E+00	  0.056472946	-6.397500E+01	  0.056472946	3.965200E+01	  0.056472946	-6.344700E+01
184	  0.056673344	-4.651000E+00	  0.056673344	-6.420800E+01	  0.056673344	3.944300E+01	  0.056673344	-6.325100E+01
185	  0.056873746	-4.656000E+00	  0.056873746	-6.444100E+01	  0.056873746	3.926800E+01	  0.056873746	-6.302400E+01
186	  0.057074148	-4.654000E+00	  0.057074148	-6.465500E+01	  0.057074148	3.907700E+01	  0.057074148	-6.284600E+01
187	  0.057274550	-4.656000E+00	  0.057274550	-6.490900E+01	  0.057274550	3.887100E+01	  0.057274550	-6.261800E+01
188	  0.057474948	-4.656000E+00	  0.057474948	-6.512800E+01	  0.057474948	3.868600E+01	  0.057474948	-6.243000E+01
189	  0.057675350	-4.656000E+00	  0.057675350	-6.536000E+01	  0.057675350	3.849000E+01	  0.057675350	-6.223200E+01
190	  0.057875752	-4.658000E+00	  0.057875752	-6.560100E+01	  0.057875752	3.829900E+01	  0.057875752	-6.201700E+01
191	  0.058076151	-4.659000E+00	  0.058076151	-6.583500E+01	  0.058076151	3.810900E+01	  0.058076151	-6.181400E+01
192	  0.058276553	-4.660000E+00	  0.058276553	-6.606000E+01	  0.058276553	3.793300E+01	  0.058276553	-6.161600E+01
193	  0.058476955	-4.660000E+00	  0.058476955	-6.630700E+01	  0.058476955	3.773000E+01	  0.058476955	-6.140900E+01
194	  0.058677353	-4.662000E+00	  0.058677353	-6.651700E+01	  0.058677353	3.757300E+01	  0.058677353	-6.122100E+01
195	  0.058877755	-4.663000E+00	  0.058877755	-6.675600E+01	  0.058877755	3.738700E+01	  0.058877755	-6.101300E+01
196	  0.059078157	-4.663000E+00	  0.059078157	-6.699100E+01	  0.059078157	3.720400E+01	  0.059078157	-6.081300E+01
197	  0.059278559	-4.663000E+00	  0.059278559	-6.722600E+01	  0.059278559	3.701800E+01	  0.059278559	-6.061700E+01
198	  0.059478957	-4.665000E+00	  0.059478957	-6.745200E+01	  0.059478957	3.685100E+01	  0.059478957	-6.041800E+01
199	  0.059679359	-4.667000E+00	  0.059679359	-6.768300E+01	  0.059679359	3.668500E+01	  0.059679359	-6.021400E+01
200	  0.059879761	-4.666000E+00	  0.059879761	-6.791500E+01	  0.059879761	3.650200E+01	  0.059879761	-6.002500E+01
201	  0.060080159	-4.668000E+00	  0.060080159	-6.813600E+01	  0.060080159	3.634100E+01	  0.060080159	-5.983500E+01
202	  0.060280561	-4.668000E+00	  0.060280561	-6.836900E+01	  0.060280561	3.616600E+01	  0.060280561	-5.964100E+01
203	  0.060480963	-4.668000E+00	  0.060480963	-6.859000E+01	  0.060480963	3.600000E+01	  0.060480963	-5.945700E+01
204	  0.060681365	-4.669000E+00	  0.060681365	-6.883400E+01	  0.060681365	3.582600E+01	  0.060681365	-5.924800E+01
205	  0.060881764	-4.669000E+00	  0.060881764	-6.906700E+01	  0.060881764	3.565200E+01	  0.060881764	-5.905800E+01
206	  0.061082166	-4.670000E+00	  0.061082166	-6.928300E+01	  0.061082166	3.550100E+01	  0.061082166	-5.887400E+01
207	  0.061282568	-4.671000E+00	  0.061282568	-6.951100E+01	  0.061282568	3.534200E+01	  0.061282568	-5.868200E+01
208	  0.061482966	-4.673000E+00	  0.061482966	-6.975500E+01	  0.061482966	3.517700E+01	  0.061482966	-5.847200E+01
209	  0.061683368	-4.674000E+00	  0.061683368	-6.998300E+01	  0.061683368	3.501900E+01	  0.061683368	-5.828300E+01
210	  0.061883770	-4.676000E+00	  0.061883770	-7.021100E+01	  0.061883770	3.486400E+01	  0.061883770	-5.809000E+01
211	  0.062084168	-4.677000E+00	  0.062084168	-7.044800E+01	  0.062084168	3.470600E+01	  0.062084168	-5.789100E+01
212	  0.062284570	-4.677000E+00	  0.062284570	-7.067100E+01	  0.062284570	3.454900E+01	  0.062284570	-5.771000E+01
213	  0.062484972	-4.671000E+00	  0.062484972	-7.083100E+01	  0.062484972	3.440600E+01	  0.062484972	-5.760900E+01
214	  0.062685370	-4.672000E+00	  0.062685370	-7.107500E+01	  0.062685370	3.424500E+01	  0.062685370	-5.740600E+01
215	  0.062885776	-4.672000E+00	  0.062885776	-7.132600E+01	  0.062885776	3.407200E+01	  0.062885776	-5.720400E+01
216	  0.063086174	-4.674000E+00	  0.063086174	-7.152100E+01	  0.063086174	3.395200E+01	  0.063086174	-5.703700E+01
217	  0.063286573	-4.675000E+00	  0.063286573	-7.175500E+01	  0.063286573	3.379700E+01	  0.063286573	-5.684700E+01
218	  0.063486971	-4.676000E+00	  0.063486971	-7.199900E+01	  0.063486971	3.364100E+01	  0.063486971	-5.664600E+01
219	  0.063687377	-4.672000E+00	  0.063687377	-7.221300E+01	  0.063687377	3.347900E+01	  0.063687377	-5.649200E+01
220	  0.063887775	-4.672000E+00	  0.063887775	-7.244900E+01	  0.063887775	3.332200E+01	  0.063887775	-5.630500E+01
221	  0.064088173	-4.673000E+00	  0.064088173	-7.267900E+01	  0.064088173	3.317700E+01	  0.064088173	-5.611800E+01
222	  0.064288579	-4.675000E+00	  0.064288579	-7.290200E+01	  0.064288579	3.304100E+01	  0.064288579	-5.593400E+01
223	  0.064488977	-4.675000E+00	  0.064488977	-7.313700E+01	  0.064488977	3.289000E+01	  0.064488977	-5.574900E+01
224	  0.064689375	-4.677000E+00	  0.064689375	-7.335800E+01	  0.064689375	3.276300E+01	  0.064689375	-5.556300E+01
225	  0.064889781	-4.676000E+00	  0.064889781	-7.359600E+01	  0.064889781	3.260400E+01	  0.064889781	-5.538300E+01
226	  0.065090179	-4.681000E+00	  0.065090179	-7.382200E+01	  0.065090179	3.248900E+01	  0.065090179	-5.518500E+01
227	  0.065290578	-4.680000E+00	  0.065290578	-7.407500E+01	  0.065290578	3.232600E+01	  0.065290578	-5.499000E+01
228	  0.065490983	-4.681000E+00	  0.065490983	-7.429000E+01	  0.065490983	3.219800E+01	  0.065490983	-5.481900E+01
229	  0.065691382	-4.679000E+00	  0.065691382	-7.451400E+01	  0.065691382	3.205000E+01	  0.065691382	-5.465300E+01
230	  0.065891780	-4.681000E+00	  0.065891780	-7.472800E+01	  0.065891780	3.193000E+01	  0.065891780	-5.447700E+01
231	  0.066092186	-4.682000E+00	  0.066092186	-7.498600E+01	  0.066092186	3.178000E+01	  0.066092186	-5.427300E+01
232	  0.066292584	-4.683000E+00	  0.066292584	-7.520600E+01	  0.066292584	3.165200E+01	  0.066292584	-5.410000E+01
233	  0.066492982	-4.682000E+00	  0.066492982	-7.545300E+01	  0.066492982	3.149900E+01	  0.066492982	-5.391400E+01
234	  0.066693388	-4.682000E+00	  0.066693388	-7.566600E+01	  0.066693388	3.137600E+01	  0.066693388	-5.374700E+01
235	  0.066893786	-4.684000E+00	  0.066893786	-7.591800E+01	  0.066893786	3.124000E+01	  0.066893786	-5.354600E+01
236	  0.067094192	-4.685000E+00	  0.067094192	-7.613700E+01	  0.067094192	3.111800E+01	  0.067094192	-5.337400E+01
237	  0.067294590	-4.685000E+00	  0.067294590	-7.635700E+01	  0.067294590	3.099100E+01	  0.067294590	-5.320600E+01
238	  0.067494988	-4.685000E+00	  0.067494988	-7.658000E+01	  0.067494988	3.086300E+01	  0.067494988	-5.303600E+01
239	  0.067695394	-4.689000E+00	  0.067695394	-7.681100E+01	  0.067695394	3.074900E+01	  0.067695394	-5.284700E+01
240	  0.067895792	-4.691000E+00	  0.067895792	-7.704500E+01	  0.067895792	3.062600E+01	  0.067895792	-5.266300E+01
241	  0.068096191	-4.688000E+00	  0.068096191	-7.727100E+01	  0.068096191	3.048300E+01	  0.068096191	-5.250400E+01
242	  0.068296596	-4.690000E+00	  0.068296596	-7.751000E+01	  0.068296596	3.036500E+01	  0.068296596	-5.231300E+01
243	  0.068496995	-4.691000E+00	  0.068496995	-7.774500E+01	  0.068496995	3.023700E+01	  0.068496995	-5.213500E+01
244	  0.068697393	-4.690000E+00	  0.068697393	-7.797600E+01	  0.068697393	3.010800E+01	  0.068697393	-5.196300E+01
245	  0.068897791	-4.693000E+00	  0.068897791	-7.820800E+01	  0.068897791	2.999300E+01	  0.068897791	-5.178200E+01
246	  0.069098189	-4.692000E+00	  0.069098189	-7.843200E+01	  0.069098189	2.987000E+01	  0.069098189	-5.161600E+01
247	  0.069298595	-4.692000E+00	  0.069298595	-7.866600E+01	  0.069298595	2.974200E+01	  0.069298595	-5.144300E+01
248	  0.069498993	-4.695000E+00	  0.069498993	-7.891500E+01	  0.069498993	2.962700E+01	  0.069498993	-5.124600E+01
249	  0.069699399	-4.696000E+00	  0.069699399	-7.911800E+01	  0.069699399	2.952300E+01	  0.069699399	-5.109400E+01
250	  0.069899797	-4.694000E+00	  0.069899797	-7.935600E+01	  0.069899797	2.938800E+01	  0.069899797	-5.092500E+01
251	  0.070100196	-4.697000E+00	  0.070100196	-7.959400E+01	  0.070100196	2.927700E+01	  0.070100196	-5.074000E+01
252	  0.070300601	-4.698000E+00	  0.070300601	-7.984400E+01	  0.070300601	2.915500E+01	  0.070300601	-5.055100E+01
253	  0.070501000	-4.697000E+00	  0.070501000	-8.008300E+01	  0.070501000	2.902500E+01	  0.070501000	-5.038100E+01
254	  0.070701398	-4.700000E+00	  0.070701398	-8.030900E+01	  0.070701398	2.892800E+01	  0.070701398	-5.020400E+01
255	  0.070901804	-4.697000E+00	  0.070901804	-8.053900E+01	  0.070901804	2.879800E+01	  0.070901804	-5.004500E+01
256	  0.071102202	-4.698000E+00	  0.071102202	-8.077500E+01	  0.071102202	2.868400E+01	  0.071102202	-4.987100E+01
257	  0.071302600	-4.702000E+00	  0.071302600	-8.101200E+01	  0.071302600	2.858400E+01	  0.071302600	-4.968700E+01
258	  0.071503006	-4.703000E+00	  0.071503006	-8.123500E+01	  0.071503006	2.847900E+01	  0.071503006	-4.952100E+01
259	  0.071703404	-4.702000E+00	  0.071703404	-8.146700E+01	  0.071703404	2.836000E+01	  0.071703404	-4.935700E+01
260	  0.071903802	-4.702000E+00	  0.071903802	-8.169100E+01	  0.071903802	2.825000E+01	  0.071903802	-4.919600E+01
261	  0.072104208	-4.701000E+00	  0.072104208	-8.194400E+01	  0.072104208	2.812400E+01	  0.072104208	-4.901700E+01
262	  0.072304606	-4.705000E+00	  0.072304606	-8.215300E+01	  0.072304606	2.804000E+01	  0.072304606	-4.885600E+01
263	  0.072505005	-4.702000E+00	  0.072505005	-8.239000E+01	  0.072505005	2.791700E+01	  0.072505005	-4.869400E+01
264	  0.072705410	-4.704000E+00	  0.072705410	-8.261000E+01	  0.072705410	2.782100E+01	  0.072705410	-4.853100E+01
265	  0.072905809	-4.708000E+00	  0.072905809	-8.285600E+01	  0.072905809	2.772300E+01	  0.072905809	-4.834500E+01
266	  0.073106214	-4.706000E+00	  0.073106214	-8.307900E+01	  0.073106214	2.761100E+01	  0.073106214	-4.819200E+01
267	  0.073306613	-4.708000E+00	  0.073306613	-8.329400E+01	  0.073306613	2.752200E+01	  0.073306613	-4.803400E+01
268	  0.073507011	-4.709000E+00	  0.073507011	-8.352500E+01	  0.073507011	2.741900E+01	  0.073507011	-4.786900E+01
269	  0.073707417	-4.713000E+00	  0.073707417	-8.376800E+01	  0.073707417	2.732500E+01	  0.073707417	-4.768600E+01
270	  0.073907815	-4.710000E+00	  0.073907815	-8.397700E+01	  0.073907815	2.721800E+01	  0.073907815	-4.754700E+01
271	  0.074108213	-4.712000E+00	  0.074108213	-8.422700E+01	  0.074108213	2.711300E+01	  0.074108213	-4.736700E+01
272	  0.074308619	-4.713000E+00	  0.074308619	-8.444900E+01	  0.074308619	2.702200E+01	  0.074308619	-4.720700E+01
273	  0.074509017	-4.715000E+00	  0.074509017	-8.467900E+01	  0.074509017	2.692700E+01	  0.074509017	-4.704200E+01
274	  0.074709415	-4.716000E+00	  0.074709415	-8.490600E+01	  0.074709415	2.683100E+01	  0.074709415	-4.688100E+01
275	  0.074909821	-4.716000E+00	  0.074909821	-8.513000E+01	  0.074909821	2.673200E+01	  0.074909821	-4.672700E+01
276	  0.075110219	-4.720000E+00	  0.075110219	-8.537000E+01	  0.075110219	2.664700E+01	  0.075110219	-4.654900E+01
277	  0.075310618	-4.718000E+00	  0.075310618	-8.558500E+01	  0.075310618	2.654800E+01	  0.075310618	-4.640500E+01
278	  0.075511023	-4.722000E+00	  0.075511023	-8.582600E+01	  0.075511023	2.646100E+01	  0.075511023	-4.622900E+01
279	  0.075711422	-4.720000E+00	  0.075711422	-8.605900E+01	  0.075711422	2.635200E+01	  0.075711422	-4.607500E+01
280	  0.075911827	-4.718000E+00	  0.075911827	-8.627700E+01	  0.075911827	2.625300E+01	  0.075911827	-4.593000E+01
281	  0.076112226	-4.723000E+00	  0.076112226	-8.650700E+01	  0.076112226	2.617800E+01	  0.076112226	-4.575900E+01
282	  0.076312624	-4.724000E+00	  0.076312624	-8.675600E+01	  0.076312624	2.607700E+01	  0.076312624	-4.558800E+01
283	  0.076513030	-4.722000E+00	  0.076513030	-8.696300E+01	  0.076513030	2.598400E+01	  0.076513030	-4.545200E+01
284	  0.076713428	-4.724000E+00	  0.076713428	-8.720500E+01	  0.076713428	2.589200E+01	  0.076713428	-4.528300E+01
285	  0.076913826	-4.724000E+00	  0.076913826	-8.743000E+01	  0.076913826	2.580400E+01	  0.076913826	-4.512900E+01
286	  0.077114232	-4.725000E+00	  0.077114232	-8.766000E+01	  0.077114232	2.571200E+01	  0.077114232	-4.497300E+01
287	  0.077314630	-4.724000E+00	  0.077314630	-8.789600E+01	  0.077314630	2.561200E+01	  0.077314630	-4.481700E+01
288	  0.077515028	-4.725000E+00	  0.077515028	-8.813000E+01	  0.077515028	2.552500E+01	  0.077515028	-4.465600E+01
289	  0.077715434	-4.728000E+00	  0.077715434	-8.835800E+01	  0.077715434	2.544600E+01	  0.077715434	-4.449700E+01
290	  0.077915832	-4.727000E+00	  0.077915832	-8.860400E+01	  0.077915832	2.534400E+01	  0.077915832	-4.433500E+01
291	  0.078116231	-4.728000E+00	  0.078116231	-8.883100E+01	  0.078116231	2.526000E+01	  0.078116231	-4.418100E+01
292	  0.078316636	-4.726000E+00	  0.078316636	-8.905800E+01	  0.078316636	2.516700E+01	  0.078316636	-4.403300E+01
293	  0.078517035	-4.728000E+00	  0.078517035	-8.927900E+01	  0.078517035	2.509000E+01	  0.078517035	-4.388200E+01
294	  0.078717433	-4.729000E+00	  0.078717433	-8.952000E+01	  0.078717433	2.499900E+01	  0.078717433	-4.372200E+01
295	  0.078917839	-4.731000E+00	  0.078917839	-8.974200E+01	  0.078917839	2.492500E+01	  0.078917839	-4.356900E+01
296	  0.079118237	-4.732000E+00	  0.079118237	-8.995500E+01	  0.079118237	2.485000E+01	  0.079118237	-4.342500E+01
297	  0.079318643	-4.733000E+00	  0.079318643	-9.021000E+01	  0.079318643	2.475600E+01	  0.079318643	-4.325700E+01
298	  0.079519041	-4.735000E+00	  0.079519041	-9.043400E+01	  0.079519041	2.468200E+01	  0.079519041	-4.310500E+01
299	  0.079719439	-4.735000E+00	  0.079719439	-9.065200E+01	  0.079719439	2.460200E+01	  0.079719439	-4.296200E+01
300	  0.079919845	-4.736000E+00	  0.079919845	-9.089000E+01	  0.079919845	2.452100E+01	  0.079919845	-4.280300E+01
301	  0.080120243	-4.737000E+00	  0.080120243	-9.112100E+01	  0.080120243	2.444000E+01	  0.080120243	-4.265100E+01
302	  0.080320641	-4.738000E+00	  0.080320641	-9.134100E+01	  0.080320641	2.436300E+01	  0.080320641	-4.250700E+01
303	  0.080521047	-4.739000E+00	  0.080521047	-9.158300E+01	  0.080521047	2.428100E+01	  0.080521047	-4.234800E+01
304	  0.080721445	-4.741000E+00	  0.080721445	-9.180700E+01	  0.080721445	2.420800E+01	  0.080721445	-4.219900E+01
305	  0.080921844	-4.744000E+00	  0.080921844	-9.203000E+01	  0.080921844	2.414200E+01	  0.080921844	-4.204800E+01
306	  0.081122249	-4.745000E+00	  0.081122249	-9.227800E+01	  0.081122249	2.405800E+01	  0.081122249	-4.188700E+01
307	  0.081322648	-4.744000E+00	  0.081322648	-9.248600E+01	  0.081322648	2.398000E+01	  0.081322648	-4.175600E+01
308	  0.081523046	-4.747000E+00	  0.081523046	-9.272600E+01	  0.081523046	2.390900E+01	  0.081523046	-4.159600E+01
309	  0.081723452	-4.747000E+00	  0.081723452	-9.295100E+01	  0.081723452	2.383300E+01	  0.081723452	-4.145100E+01
310	  0.081923850	-4.747000E+00	  0.081923850	-9.318800E+01	  0.081923850	2.374900E+01	  0.081923850	-4.130200E+01
311	  0.082124248	-4.749000E+00	  0.082124248	-9.342100E+01	  0.082124248	2.368100E+01	  0.082124248	-4.114800E+01
312	  0.082324654	-4.749000E+00	  0.082324654	-9.364400E+01	  0.082324654	2.360300E+01	  0.082324654	-4.100800E+01
313	  0.082525052	-4.751000E+00	  0.082525052	-9.388300E+01	  0.082525052	2.353400E+01	  0.082525052	-4.085000E+01
314	  0.082725458	-4.751000E+00	  0.082725458	-9.410400E+01	  0.082725458	2.345900E+01	  0.082725458	-4.071200E+01
315	  0.082925856	-4.751000E+00	  0.082925856	-9.433300E+01	  0.082925856	2.338200E+01	  0.082925856	-4.056900E+01
316	  0.083126254	-4.751000E+00	  0.083126254	-9.457200E+01	  0.083126254	2.330300E+01	  0.083126254	-4.041900E+01
317	  0.083326660	-4.755000E+00	  0.083326660	-9.479600E+01	  0.083326660	2.324700E+01	  0.083326660	-4.026900E+01
318	  0.083527058	-4.757000E+00	  0.083527058	-9.503300E+01	  0.083527058	2.317700E+01	  0.083527058	-4.011800E+01
319	  0.083727457	-4.754000E+00	  0.083727457	-9.526600E+01	  0.083727457	2.308900E+01	  0.083727457	-3.997900E+01
320	  0.083927862	-4.756000E+00	  0.083927862	-9.550400E+01	  0.083927862	2.302000E+01	  0.083927862	-3.982700E+01
321	  0.084128261	-4.758000E+00	  0.084128261	-9.573600E+01	  0.084128261	2.295500E+01	  0.084128261	-3.967900E+01
322	  0.084328659	-4.758000E+00	  0.084328659	-9.597000E+01	  0.084328659	2.288200E+01	  0.084328659	-3.953300E+01
323	  0.084529065	-4.759000E+00	  0.084529065	-9.620400E+01	  0.084529065	2.281200E+01	  0.084529065	-3.938700E+01
324	  0.084729463	-4.761000E+00	  0.084729463	-9.643200E+01	  0.084729463	2.274900E+01	  0.084729463	-3.924300E+01
325	  0.084929854	-4.757000E+00	  0.084929854	-9.668500E+01	  0.084929854	2.265300E+01	  0.084929854	-3.909700E+01
326	  0.085130259	-4.760000E+00	  0.085130259	-9.691000E+01	  0.085130259	2.259700E+01	  0.085130259	-3.895200E+01
327	  0.085330658	-4.759000E+00	  0.085330658	-9.714200E+01	  0.085330658	2.252000E+01	  0.085330658	-3.881200E+01
328	  0.085531056	-4.761000E+00	  0.085531056	-9.737800E+01	  0.085531056	2.245700E+01	  0.085531056	-3.866500E+01
329	  0.085731462	-4.761000E+00	  0.085731462	-9.761900E+01	  0.085731462	2.238500E+01	  0.085731462	-3.851700E+01
330	  0.085931860	-4.763000E+00	  0.085931860	-9.784200E+01	  0.085931860	2.232700E+01	  0.085931860	-3.837700E+01
331	  0.086132258	-4.763000E+00	  0.086132258	-9.808300E+01	  0.086132258	2.225500E+01	  0.086132258	-3.823200E+01
332	  0.086332664	-4.764000E+00	  0.086332664	-9.831000E+01	  0.086332664	2.219300E+01	  0.086332664	-3.809200E+01
333	  0.086533062	-4.765000E+00	  0.086533062	-9.854100E+01	  0.086533062	2.212700E+01	  0.086533062	-3.795100E+01
334	  0.086733460	-4.767000E+00	  0.086733460	-9.875800E+01	  0.086733460	2.207200E+01	  0.086733460	-3.781600E+01
335	  0.086933866	-4.768000E+00	  0.086933866	-9.901100E+01	  0.086933866	2.200100E+01	  0.086933866	-3.766400E+01
336	  0.087134264	-4.767000E+00	  0.087134264	-9.923400E+01	  0.087134264	2.193300E+01	  0.087134264	-3.753200E+01
337	  0.087334670	-4.771000E+00	  0.087334670	-9.947400E+01	  0.087334670	2.188100E+01	  0.087334670	-3.738100E+01
338	  0.087535068	-4.772000E+00	  0.087535068	-9.970400E+01	  0.087535068	2.181900E+01	  0.087535068	-3.724200E+01
339	  0.087735467	-4.773000E+00	  0.087735467	-9.993100E+01	  0.087735467	2.175900E+01	  0.087735467	-3.710600E+01
340	  0.087935872	-4.772000E+00	  0.087935872	-1.001680E+02	  0.087935872	2.169100E+01	  0.087935872	-3.696500E+01
341	  0.088136271	-4.777000E+00	  0.088136271	-1.003840E+02	  0.088136271	2.164700E+01	  0.088136271	-3.683000E+01
342	  0.088336669	-4.774000E+00	  0.088336669	-1.006240E+02	  0.088336669	2.156900E+01	  0.088336669	-3.669300E+01
343	  0.088537075	-4.781000E+00	  0.088537075	-1.008600E+02	  0.088537075	2.153300E+01	  0.088537075	-3.654100E+01
344	  0.088737473	-4.776000E+00	  0.088737473	-1.010920E+02	  0.088737473	2.145100E+01	  0.088737473	-3.641300E+01
345	  0.088937871	-4.782000E+00	  0.088937871	-1.013030E+02	  0.088937871	2.141600E+01	  0.088937871	-3.627900E+01
346	  0.089138277	-4.780000E+00	  0.089138277	-1.015640E+02	  0.089138277	2.133700E+01	  0.089138277	-3.613000E+01
347	  0.089338675	-4.786000E+00	  0.089338675	-1.017930E+02	  0.089338675	2.129800E+01	  0.089338675	-3.598600E+01
348	  0.089539073	-4.782000E+00	  0.089539073	-1.020170E+02	  0.089539073	2.122500E+01	  0.089539073	-3.586200E+01
349	  0.089739479	-4.788000E+00	  0.089739479	-1.022630E+02	  0.089739479	2.118200E+01	  0.089739479	-3.570800E+01
350	  0.089939877	-4.785000E+00	  0.089939877	-1.025040E+02	  0.089939877	2.110600E+01	  0.089939877	-3.557400E+01
351	  0.090140276	-4.789000E+00	  0.090140276	-1.027190E+02	  0.090140276	2.106500E+01	  0.090140276	-3.544200E+01
352	  0.090340681	-4.786000E+00	  0.090340681	-1.029660E+02	  0.090340681	2.099000E+01	  0.090340681	-3.530500E+01
353	  0.090541080	-4.789000E+00	  0.090541080	-1.032010E+02	  0.090541080	2.094200E+01	  0.090541080	-3.516400E+01
354	  0.090741485	-4.789000E+00	  0.090741485	-1.034440E+02	  0.090741485	2.087700E+01	  0.090741485	-3.502500E+01
355	  0.090941884	-4.789000E+00	  0.090941884	-1.036740E+02	  0.090941884	2.082100E+01	  0.090941884	-3.489200E+01
356	  0.091142282	-4.794000E+00	  0.091142282	-1.038940E+02	  0.091142282	2.078500E+01	  0.091142282	-3.475800E+01
357	  0.091342688	-4.791000E+00	  0.091342688	-1.041470E+02	  0.091342688	2.070900E+01	  0.091342688	-3.461900E+01
358	  0.091543086	-4.797000E+00	  0.091543086	-1.043650E+02	  0.091543086	2.067500E+01	  0.091543086	-3.448500E+01
359	  0.091743484	-4.791000E+00	  0.091743484	-1.046050E+02	  0.091743484	2.059500E+01	  0.091743484	-3.435800E+01
360	  0.091943890	-4.797000E+00	  0.091943890	-1.048320E+02	  0.091943890	2.056000E+01	  0.091943890	-3.422000E+01
361	  0.092144288	-4.795000E+00	  0.092144288	-1.050720E+02	  0.092144288	2.049500E+01	  0.092144288	-3.408600E+01
362	  0.092344686	-4.798000E+00	  0.092344686	-1.053090E+02	  0.092344686	2.044800E+01	  0.092344686	-3.394900E+01
363	  0.092545092	-4.800000E+00	  0.092545092	-1.055420E+02	  0.092545092	2.040000E+01	  0.092545092	-3.381400E+01
364	  0.092745490	-4.800000E+00	  0.092745490	-1.057790E+02	  0.092745490	2.034200E+01	  0.092745490	-3.368100E+01
365	  0.092945889	-4.801000E+00	  0.092945889	-1.060210E+02	  0.092945889	2.028800E+01	  0.092945889	-3.354300E+01
366	  0.093146294	-4.802000E+00	  0.093146294	-1.062400E+02	  0.093146294	2.023900E+01	  0.093146294	-3.341900E+01
367	  0.093346693	-4.802000E+00	  0.093346693	-1.064850E+02	  0.093346693	2.018500E+01	  0.093346693	-3.328100E+01
368	  0.093547091	-4.804000E+00	  0.093547091	-1.067340E+02	  0.093547091	2.013100E+01	  0.093547091	-3.314000E+01
369	  0.093747497	-4.805000E+00	  0.093747497	-1.069520E+02	  0.093747497	2.008500E+01	  0.093747497	-3.301600E+01
370	  0.093947895	-4.805000E+00	  0.093947895	-1.072000E+02	  0.093947895	2.003000E+01	  0.093947895	-3.287800E+01
371	  0.094148301	-4.806000E+00	  0.094148301	-1.074340E+02	  0.094148301	1.997900E+01	  0.094148301	-3.274700E+01
372	  0.094348699	-4.809000E+00	  0.094348699	-1.076610E+02	  0.094348699	1.993900E+01	  0.094348699	-3.261700E+01
373	  0.094549097	-4.807000E+00	  0.094549097	-1.078940E+02	  0.094549097	1.987700E+01	  0.094549097	-3.249200E+01
374	  0.094749503	-4.806000E+00	  0.094749503	-1.081250E+02	  0.094749503	1.982200E+01	  0.094749503	-3.236600E+01
375	  0.094949901	-4.810000E+00	  0.094949901	-1.083550E+02	  0.094949901	1.978600E+01	  0.094949901	-3.223300E+01
376	  0.095150299	-4.809000E+00	  0.095150299	-1.086020E+02	  0.095150299	1.972600E+01	  0.095150299	-3.209900E+01
377	  0.095350705	-4.812000E+00	  0.095350705	-1.088340E+02	  0.095350705	1.968500E+01	  0.095350705	-3.196900E+01
378	  0.095551103	-4.812000E+00	  0.095551103	-1.090780E+02	  0.095551103	1.963400E+01	  0.095551103	-3.183400E+01
379	  0.095751502	-4.813000E+00	  0.095751502	-1.093110E+02	  0.095751502	1.958800E+01	  0.095751502	-3.170500E+01
380	  0.095951907	-4.815000E+00	  0.095951907	-1.095510E+02	  0.095951907	1.954100E+01	  0.095951907	-3.157300E+01
381	  0.096152306	-4.813000E+00	  0.096152306	-1.097860E+02	  0.096152306	1.948200E+01	  0.096152306	-3.144800E+01
382	  0.096352704	-4.816000E+00	  0.096352704	-1.100120E+02	  0.096352704	1.944800E+01	  0.096352704	-3.132000E+01
383	  0.096553110	-4.818000E+00	  0.096553110	-1.102560E+02	  0.096553110	1.940200E+01	  0.096553110	-3.118600E+01
384	  0.096753508	-4.817000E+00	  0.096753508	-1.104870E+02	  0.096753508	1.934800E+01	  0.096753508	-3.106400E+01
385	  0.096953906	-4.821000E+00	  0.096953906	-1.107220E+02	  0.096953906	1.931500E+01	  0.096953906	-3.093100E+01
386	  0.097154312	-4.820000E+00	  0.097154312	-1.109550E+02	  0.097154312	1.926200E+01	  0.097154312	-3.080700E+01
387	  0.097354710	-4.820000E+00	  0.097354710	-1.112030E+02	  0.097354710	1.921100E+01	  0.097354710	-3.067400E+01
388	  0.097555116	-4.821000E+00	  0.097555116	-1.114190E+02	  0.097555116	1.916900E+01	  0.097555116	-3.055800E+01
389	  0.097755514	-4.822000E+00	  0.097755514	-1.116590E+02	  0.097755514	1.912400E+01	  0.097755514	-3.042700E+01
390	  0.097955912	-4.824000E+00	  0.097955912	-1.118940E+02	  0.097955912	1.908300E+01	  0.097955912	-3.030000E+01
391	  0.098156318	-4.824000E+00	  0.098156318	-1.121350E+02	  0.098156318	1.903700E+01	  0.098156318	-3.017000E+01
392	  0.098356716	-4.824000E+00	  0.098356716	-1.123680E+02	  0.098356716	1.899100E+01	  0.098356716	-3.004700E+01
393	  0.098557115	-4.824000E+00	  0.098557115	-1.126060E+02	  0.098557115	1.894300E+01	  0.098557115	-2.992000E+01
394	  0.098757520	-4.823000E+00	  0.098757520	-1.128410E+02	  0.098757520	1.889200E+01	  0.098757520	-2.979700E+01
395	  0.098957919	-4.825000E+00	  0.098957919	-1.130800E+02	  0.098957919	1.885100E+01	  0.098957919	-2.966900E+01
396	  0.099158317	-4.825000E+00	  0.099158317	-1.132960E+02	  0.099158317	1.881200E+01	  0.099158317	-2.955400E+01
397	  0.099358723	-4.827000E+00	  0.099358723	-1.135310E+02	  0.099358723	1.877200E+01	  0.099358723	-2.942800E+01
398	  0.099559121	-4.826000E+00	  0.099559121	-1.137800E+02	  0.099559121	1.872200E+01	  0.099559121	-2.929800E+01
399	  0.099759519	-4.829000E+00	  0.099759519	-1.140210E+02	  0.099759519	1.868400E+01	  0.099759519	-2.916900E+01
400	  0.099959925	-4.825000E+00	  0.099959925	-1.142310E+02	  0.099959925	1.863100E+01	  0.099959925	-2.906400E+01
401	  0.100160323	-4.829000E+00	  0.100160323	-1.144830E+02	  0.100160323	1.859600E+01	  0.100160323	-2.892700E+01
402	  0.100360721	-4.830000E+00	  0.100360721	-1.147040E+02	  0.100360721	1.855800E+01	  0.100360721	-2.881100E+01
403	  0.100561127	-4.832000E+00	  0.100561127	-1.149290E+02	  0.100561127	1.852600E+01	  0.100561127	-2.869100E+01
404	  0.100761525	-4.833000E+00	  0.100761525	-1.151760E+02	  0.100761525	1.848100E+01	  0.100761525	-2.856200E+01
405	  0.100961931	-4.832000E+00	  0.100961931	-1.154100E+02	  0.100961931	1.843700E+01	  0.100961931	-2.844100E+01
406	  0.101162329	-4.838000E+00	  0.101162329	-1.156610E+02	  0.101162329	1.841000E+01	  0.101162329	-2.830500E+01
407	  0.101362728	-4.837000E+00	  0.101362728	-1.158860E+02	  0.101362728	1.836500E+01	  0.101362728	-2.819000E+01
408	  0.101563133	-4.839000E+00	  0.101563133	-1.161440E+02	  0.101563133	1.832900E+01	  0.101563133	-2.805300E+01
409	  0.101763532	-4.838000E+00	  0.101763532	-1.163680E+02	  0.101763532	1.828500E+01	  0.101763532	-2.793900E+01
410	  0.101963930	-4.838000E+00	  0.101963930	-1.166150E+02	  0.101963930	1.824000E+01	  0.101963930	-2.781200E+01
411	  0.102164328	-4.844000E+00	  0.102164328	-1.168360E+02	  0.102164328	1.822100E+01	  0.102164328	-2.769200E+01
412	  0.102364726	-4.844000E+00	  0.102364726	-1.170550E+02	  0.102364726	1.818200E+01	  0.102364726	-2.758000E+01
413	  0.102565125	-4.848000E+00	  0.102565125	-1.172990E+02	  0.102565125	1.815300E+01	  0.102565125	-2.745100E+01
414	  0.102765530	-4.845000E+00	  0.102765530	-1.175440E+02	  0.102765530	1.810100E+01	  0.102765530	-2.733000E+01
415	  0.102965929	-4.851000E+00	  0.102965929	-1.177870E+02	  0.102965929	1.807800E+01	  0.102965929	-2.719900E+01
416	  0.103166327	-4.847000E+00	  0.103166327	-1.180160E+02	  0.103166327	1.802700E+01	  0.103166327	-2.708700E+01
417	  0.103366733	-4.852000E+00	  0.103366733	-1.182450E+02	  0.103366733	1.800400E+01	  0.103366733	-2.696500E+01
418	  0.103567131	-4.851000E+00	  0.103567131	-1.184910E+02	  0.103567131	1.795800E+01	  0.103567131	-2.684300E+01
419	  0.103767529	-4.855000E+00	  0.103767529	-1.187500E+02	  0.103767529	1.793000E+01	  0.103767529	-2.670700E+01
420	  0.103967935	-4.854000E+00	  0.103967935	-1.189670E+02	  0.103967935	1.789100E+01	  0.103967935	-2.659800E+01
421	  0.104168333	-4.858000E+00	  0.104168333	-1.192170E+02	  0.104168333	1.786100E+01	  0.104168333	-2.646900E+01
422	  0.104368731	-4.857000E+00	  0.104368731	-1.194640E+02	  0.104368731	1.781900E+01	  0.104368731	-2.634500E+01
423	  0.104569137	-4.859000E+00	  0.104569137	-1.197050E+02	  0.104569137	1.778600E+01	  0.104569137	-2.622200E+01
424	  0.104769535	-4.860000E+00	  0.104769535	-1.199170E+02	  0.104769535	1.775400E+01	  0.104769535	-2.611500E+01
425	  0.104969934	-4.860000E+00	  0.104969934	-1.201630E+02	  0.104969934	1.771400E+01	  0.104969934	-2.599200E+01
426	  0.105170339	-4.862000E+00	  0.105170339	-1.204060E+02	  0.105170339	1.768200E+01	  0.105170339	-2.586900E+01
427	  0.105370738	-4.865000E+00	  0.105370738	-1.206470E+02	  0.105370738	1.765500E+01	  0.105370738	-2.574500E+01
428	  0.105571143	-4.864000E+00	  0.105571143	-1.209100E+02	  0.105571143	1.760800E+01	  0.105571143	-2.561600E+01
429	  0.105771542	-4.867000E+00	  0.105771542	-1.211250E+02	  0.105771542	1.758400E+01	  0.105771542	-2.550600E+01
430	  0.105971940	-4.865000E+00	  0.105971940	-1.213670E+02	  0.105971940	1.754100E+01	  0.105971940	-2.538800E+01
431	  0.106172346	-4.869000E+00	  0.106172346	-1.215940E+02	  0.106172346	1.751800E+01	  0.106172346	-2.527200E+01
432	  0.106372744	-4.868000E+00	  0.106372744	-1.218260E+02	  0.106372744	1.747800E+01	  0.106372744	-2.515900E+01
433	  0.106573142	-4.866000E+00	  0.106573142	-1.220890E+02	  0.106573142	1.743200E+01	  0.106573142	-2.503000E+01
434	  0.106773548	-4.866000E+00	  0.106773548	-1.223260E+02	  0.106773548	1.739700E+01	  0.106773548	-2.491400E+01
435	  0.106973946	-4.872000E+00	  0.106973946	-1.225600E+02	  0.106973946	1.738100E+01	  0.106973946	-2.479300E+01
436	  0.107174344	-4.872000E+00	  0.107174344	-1.227960E+02	  0.107174344	1.734500E+01	  0.107174344	-2.467700E+01
437	  0.107374750	-4.872000E+00	  0.107374750	-1.230360E+02	  0.107374750	1.730900E+01	  0.107374750	-2.456000E+01
438	  0.107575148	-4.871000E+00	  0.107575148	-1.232670E+02	  0.107575148	1.727400E+01	  0.107575148	-2.444700E+01
439	  0.107775547	-4.876000E+00	  0.107775547	-1.235260E+02	  0.107775547	1.725000E+01	  0.107775547	-2.431700E+01
440	  0.107975952	-4.875000E+00	  0.107975952	-1.237500E+02	  0.107975952	1.721300E+01	  0.107975952	-2.420800E+01
441	  0.108176351	-4.873000E+00	  0.108176351	-1.239900E+02	  0.108176351	1.717400E+01	  0.108176351	-2.409300E+01
442	  0.108376749	-4.878000E+00	  0.108376749	-1.242430E+02	  0.108376749	1.715200E+01	  0.108376749	-2.396600E+01
443	  0.108577155	-4.878000E+00	  0.108577155	-1.244750E+02	  0.108577155	1.712000E+01	  0.108577155	-2.385300E+01
444	  0.108777553	-4.877000E+00	  0.108777553	-1.247090E+02	  0.108777553	1.708400E+01	  0.108777553	-2.374000E+01
445	  0.108977959	-4.878000E+00	  0.108977959	-1.249680E+02	  0.108977959	1.704900E+01	  0.108977959	-2.361500E+01
446	  0.109178357	-4.878000E+00	  0.109178357	-1.251980E+02	  0.109178357	1.701800E+01	  0.109178357	-2.350300E+01
447	  0.109378755	-4.885000E+00	  0.109378755	-1.254420E+02	  0.109378755	1.700700E+01	  0.109378755	-2.337900E+01
448	  0.109579161	-4.880000E+00	  0.109579161	-1.256820E+02	  0.109579161	1.695800E+01	  0.109579161	-2.326800E+01
449	  0.109779559	-4.884000E+00	  0.109779559	-1.259180E+02	  0.109779559	1.693600E+01	  0.109779559	-2.315200E+01
450	  0.109979957	-4.885000E+00	  0.109979957	-1.261590E+02	  0.109979957	1.690900E+01	  0.109979957	-2.303500E+01
451	  0.110180363	-4.888000E+00	  0.110180363	-1.263850E+02	  0.110180363	1.688500E+01	  0.110180363	-2.292500E+01
452	  0.110380761	-4.885000E+00	  0.110380761	-1.266200E+02	  0.110380761	1.684600E+01	  0.110380761	-2.281400E+01
453	  0.110581160	-4.890000E+00	  0.110581160	-1.268840E+02	  0.110581160	1.682500E+01	  0.110581160	-2.268400E+01
454	  0.110781565	-4.892000E+00	  0.110781565	-1.271180E+02	  0.110781565	1.680200E+01	  0.110781565	-2.257100E+01
455	  0.110981964	-4.891000E+00	  0.110981964	-1.273770E+02	  0.110981964	1.676400E+01	  0.110981964	-2.244900E+01
456	  0.111182362	-4.895000E+00	  0.111182362	-1.275810E+02	  0.111182362	1.674900E+01	  0.111182362	-2.234800E+01
457	  0.111382768	-4.895000E+00	  0.111382768	-1.278350E+02	  0.111382768	1.671600E+01	  0.111382768	-2.222800E+01
458	  0.111583166	-4.899000E+00	  0.111583166	-1.280780E+02	  0.111583166	1.669800E+01	  0.111583166	-2.210900E+01
459	  0.111783572	-4.898000E+00	  0.111783572	-1.283210E+02	  0.111783572	1.666200E+01	  0.111783572	-2.199600E+01
460	  0.111983970	-4.898000E+00	  0.111983970	-1.285430E+02	  0.111983970	1.663500E+01	  0.111983970	-2.189100E+01
461	  0.112184368	-4.899000E+00	  0.112184368	-1.288050E+02	  0.112184368	1.660400E+01	  0.112184368	-2.176700E+01
462	  0.112384774	-4.902000E+00	  0.112384774	-1.290470E+02	  0.112384774	1.658300E+01	  0.112384774	-2.165000E+01
463	  0.112585172	-4.904000E+00	  0.112585172	-1.292890E+02	  0.112585172	1.656000E+01	  0.112585172	-2.153400E+01
464	  0.112785570	-4.905000E+00	  0.112785570	-1.295260E+02	  0.112785570	1.653300E+01	  0.112785570	-2.142300E+01
465	  0.112985976	-4.908000E+00	  0.112985976	-1.297520E+02	  0.112985976	1.651600E+01	  0.112985976	-2.131400E+01
466	  0.113186374	-4.909000E+00	  0.113186374	-1.299940E+02	  0.113186374	1.648800E+01	  0.113186374	-2.120100E+01
467	  0.113386773	-4.908000E+00	  0.113386773	-1.302340E+02	  0.113386773	1.645400E+01	  0.113386773	-2.109000E+01
468	  0.113587178	-4.909000E+00	  0.113587178	-1.304470E+02	  0.113587178	1.643400E+01	  0.113587178	-2.098900E+01
469	  0.113787577	-4.911000E+00	  0.113787577	-1.307110E+02	  0.113787577	1.640900E+01	  0.113787577	-2.086400E+01
470	  0.113987975	-4.913000E+00	  0.113987975	-1.309410E+02	  0.113987975	1.638700E+01	  0.113987975	-2.075600E+01
471	  0.114188381	-4.909000E+00	  0.114188381	-1.311890E+02	  0.114188381	1.634400E+01	  0.114188381	-2.064400E+01
472	  0.114388779	-4.913000E+00	  0.114388779	-1.314370E+02	  0.114388779	1.632700E+01	  0.114388779	-2.052600E+01
473	  0.114589177	-4.914000E+00	  0.114589177	-1.316620E+02	  0.114589177	1.630400E+01	  0.114589177	-2.042200E+01
474	  0.114789583	-4.915000E+00	  0.114789583	-1.319110E+02	  0.114789583	1.628000E+01	  0.114789583	-2.030500E+01
475	  0.114989981	-4.915000E+00	  0.114989981	-1.321310E+02	  0.114989981	1.625200E+01	  0.114989981	-2.020400E+01
476	  0.115190387	-4.918000E+00	  0.115190387	-1.323790E+02	  0.115190387	1.623400E+01	  0.115190387	-2.008700E+01
477	  0.115390785	-4.919000E+00	  0.115390785	-1.326090E+02	  0.115390785	1.621100E+01	  0.115390785	-1.998000E+01
478	  0.115591183	-4.919000E+00	  0.115591183	-1.328390E+02	  0.115591183	1.618500E+01	  0.115591183	-1.987500E+01
479	  0.115791589	-4.919000E+00	  0.115791589	-1.331020E+02	  0.115791589	1.615500E+01	  0.115791589	-1.975400E+01
480	  0.115991987	-4.921000E+00	  0.115991987	-1.333420E+02	  0.115991987	1.613600E+01	  0.115991987	-1.964200E+01
481	  0.116192386	-4.922000E+00	  0.116192386	-1.335680E+02	  0.116192386	1.611400E+01	  0.116192386	-1.953800E+01
482	  0.116392791	-4.921000E+00	  0.116392791	-1.337980E+02	  0.116392791	1.608700E+01	  0.116392791	-1.943300E+01
483	  0.116593190	-4.922000E+00	  0.116593190	-1.340620E+02	  0.116593190	1.605900E+01	  0.116593190	-1.931200E+01
484	  0.116793588	-4.925000E+00	  0.116793588	-1.342940E+02	  0.116793588	1.604200E+01	  0.116793588	-1.920500E+01
485	  0.116993994	-4.925000E+00	  0.116993994	-1.345310E+02	  0.116993994	1.601700E+01	  0.116993994	-1.909700E+01
486	  0.117194392	-4.927000E+00	  0.117194392	-1.347670E+02	  0.117194392	1.600000E+01	  0.117194392	-1.898700E+01
487	  0.117394790	-4.926000E+00	  0.117394790	-1.350090E+02	  0.117394790	1.597100E+01	  0.117394790	-1.887800E+01
488	  0.117595196	-4.926000E+00	  0.117595196	-1.352680E+02	  0.117595196	1.594200E+01	  0.117595196	-1.876100E+01
489	  0.117795594	-4.928000E+00	  0.117795594	-1.354930E+02	  0.117795594	1.592600E+01	  0.117795594	-1.865800E+01
490	  0.117995992	-4.930000E+00	  0.117995992	-1.357250E+02	  0.117995992	1.590800E+01	  0.117995992	-1.855100E+01
491	  0.118196398	-4.930000E+00	  0.118196398	-1.359700E+02	  0.118196398	1.588400E+01	  0.118196398	-1.844000E+01
492	  0.118396796	-4.934000E+00	  0.118396796	-1.362160E+02	  0.118396796	1.587000E+01	  0.118396796	-1.832700E+01
