! Anritsu VNA Master:             	Model: MS2036C/10/77
! SN:             	1601066
! /bd0/18may09/b252.ew.m1.txt
! Existing Calibration Information:
! TYPE:             	Current Settings	Active Cal Settings
! TIME:             	05/09/2018 09:24:18 PM	05/09/2018 09:20:00 PM
! INTERNAL TEMP:    	50.8 C	51.0 C
! # POINTS:         	494	494
! START FREQ:       	20.000 MHz	20.000 MHz
! STOP FREQ:        	118.797 594 MHz	118.797 594 MHz
! SOURCE POWER:     	High	High
! IFBW:             	50 Hz	50 Hz
! AVG FACTOR:       	  1 	  1 
! REF PLANE 1:      	0 mm	0 mm
! REF PLANE 2:      	0 mm	0 mm
! CAL TYPE:         	Full S22	Full S22
! CAL METHOD:       	SOLT	SOLT
! CAL LINE TYPE:    	Coax	Coax
! DUT PORT 1:       	K-Conn(M)	K-Conn(M)
! DUT PORT 2:       	K-Conn(M)	K-Conn(M)
! CAL STATUS:       	OK: Accuracy High	--
! PROP-V:       	0.700
! CABLE LOSS:       	0.000 dB/m
! REF IMPEDANCE:       	50.0
! Trace Specific Parameters:	TR1	TR2	TR3	TR4
! TRACE.#.Y (GRAPH TYPE)	LOG MAG	PHASE	REAL IMPEDANCE	IMAGINARY IMPEDANCE
! TRACE.#.X 	FREQ.GHZ	FREQ.GHZ	FREQ.GHZ	FREQ.GHZ
! S-PARAMETER	S22	S22	S22	S22
! SMOOTH/APERTURE %	0	0	0	0
! WINDOW	NSL	NSL	NSL	NSL
! GATING	OFF	OFF	OFF	OFF
! FGTD	OFF	OFF	OFF	OFF
Marker Information per Trace:	TR1	TR2	TR3	TR4
!MK1	--	"MK1 TR2:  20.000 MHz,PH:-125.57°"	--	--
!MK2	--	--	"MK2 TR3:  70.100 200 MHz,Z:(17.525 ohm, -1.147 ohm)"	--
!MK3	--	--	--	--
!MK4	--	--	--	--
!MK5	--	--	--	--
!MK6	--	--	--	--
!MK7	--	--	--	--
!MK8	--	--	--	--
PNT	TR1.FREQ.GHZ	TR1.LOG MAG.dB	TR2.FREQ.GHZ	TR2.PHASE.deg	TR3.FREQ.GHZ	TR3.REAL IMPEDANCE.ohm	TR4.FREQ.GHZ	TR4.IMAGINARY IMPEDANCE.ohm
1	  0.020000000	-6.270000E-01	  0.020000000	-1.255690E+02	  0.020000000	2.280000E+00	  0.020000000	-2.567100E+01
2	  0.020200402	-6.280000E-01	  0.020200402	-1.270160E+02	  0.020200402	2.255000E+00	  0.020200402	-2.487900E+01
3	  0.020400802	-6.300000E-01	  0.020400802	-1.284910E+02	  0.020400802	2.234000E+00	  0.020400802	-2.408200E+01
4	  0.020601204	-6.320000E-01	  0.020601204	-1.299690E+02	  0.020601204	2.215000E+00	  0.020601204	-2.329400E+01
5	  0.020801604	-6.360000E-01	  0.020801604	-1.314780E+02	  0.020801604	2.203000E+00	  0.020801604	-2.249800E+01
6	  0.021002004	-6.380000E-01	  0.021002004	-1.330100E+02	  0.021002004	2.183000E+00	  0.021002004	-2.170000E+01
7	  0.021202406	-6.420000E-01	  0.021202406	-1.345290E+02	  0.021202406	2.171000E+00	  0.021202406	-2.091700E+01
8	  0.021402806	-6.430000E-01	  0.021402806	-1.360560E+02	  0.021402806	2.152000E+00	  0.021402806	-2.014000E+01
9	  0.021603208	-6.450000E-01	  0.021603208	-1.375750E+02	  0.021603208	2.135000E+00	  0.021603208	-1.937500E+01
10	  0.021803608	-6.490000E-01	  0.021803608	-1.390940E+02	  0.021803608	2.128000E+00	  0.021803608	-1.861700E+01
11	  0.022004008	-6.540000E-01	  0.022004008	-1.406370E+02	  0.022004008	2.121000E+00	  0.022004008	-1.785500E+01
12	  0.022204408	-6.600000E-01	  0.022204408	-1.421880E+02	  0.022204408	2.121000E+00	  0.022204408	-1.709600E+01
13	  0.022404809	-6.640000E-01	  0.022404809	-1.437620E+02	  0.022404809	2.115000E+00	  0.022404809	-1.633400E+01
14	  0.022605211	-6.660000E-01	  0.022605211	-1.453520E+02	  0.022605211	2.104000E+00	  0.022605211	-1.557000E+01
15	  0.022805611	-6.700000E-01	  0.022805611	-1.469440E+02	  0.022805611	2.099000E+00	  0.022805611	-1.481200E+01
16	  0.023006011	-6.740000E-01	  0.023006011	-1.485220E+02	  0.023006011	2.095000E+00	  0.023006011	-1.406700E+01
17	  0.023206413	-6.780000E-01	  0.023206413	-1.501180E+02	  0.023206413	2.091000E+00	  0.023206413	-1.332000E+01
18	  0.023406813	-6.840000E-01	  0.023406813	-1.517050E+02	  0.023406813	2.094000E+00	  0.023406813	-1.258200E+01
19	  0.023607215	-6.910000E-01	  0.023607215	-1.533060E+02	  0.023607215	2.101000E+00	  0.023607215	-1.184200E+01
20	  0.023807615	-7.010000E-01	  0.023807615	-1.549260E+02	  0.023807615	2.116000E+00	  0.023807615	-1.109900E+01
21	  0.024008015	-7.090000E-01	  0.024008015	-1.565660E+02	  0.024008015	2.129000E+00	  0.024008015	-1.035100E+01
22	  0.024208417	-7.160000E-01	  0.024208417	-1.582220E+02	  0.024208417	2.137000E+00	  0.024208417	-9.601000E+00
23	  0.024408817	-7.230000E-01	  0.024408817	-1.598790E+02	  0.024408817	2.145000E+00	  0.024408817	-8.854000E+00
24	  0.024609219	-7.310000E-01	  0.024609219	-1.615510E+02	  0.024609219	2.160000E+00	  0.024609219	-8.105000E+00
25	  0.024809619	-7.410000E-01	  0.024809619	-1.632070E+02	  0.024809619	2.178000E+00	  0.024809619	-7.366000E+00
26	  0.025010020	-7.510000E-01	  0.025010020	-1.648790E+02	  0.025010020	2.199000E+00	  0.025010020	-6.623000E+00
27	  0.025210422	-7.610000E-01	  0.025210422	-1.665610E+02	  0.025210422	2.221000E+00	  0.025210422	-5.879000E+00
28	  0.025410822	-7.740000E-01	  0.025410822	-1.682430E+02	  0.025410822	2.251000E+00	  0.025410822	-5.137000E+00
29	  0.025611224	-7.860000E-01	  0.025611224	-1.699490E+02	  0.025611224	2.280000E+00	  0.025611224	-4.387000E+00
30	  0.025811624	-7.980000E-01	  0.025811624	-1.716830E+02	  0.025811624	2.308000E+00	  0.025811624	-3.627000E+00
31	  0.026012026	-8.080000E-01	  0.026012026	-1.734000E+02	  0.026012026	2.333000E+00	  0.026012026	-2.876000E+00
32	  0.026212426	-8.220000E-01	  0.026212426	-1.751330E+02	  0.026212426	2.368000E+00	  0.026212426	-2.119000E+00
33	  0.026412826	-8.350000E-01	  0.026412826	-1.768800E+02	  0.026412826	2.405000E+00	  0.026412826	-1.358000E+00
34	  0.026613226	-8.500000E-01	  0.026613226	-1.786300E+02	  0.026613226	2.446000E+00	  0.026613226	-5.960000E-01
35	  0.026813626	-8.670000E-01	  0.026813626	1.796040E+02	  0.026813626	2.493000E+00	  0.026813626	1.720000E-01
36	  0.027014028	-8.820000E-01	  0.027014028	1.778410E+02	  0.027014028	2.537000E+00	  0.027014028	9.390000E-01
37	  0.027214428	-9.000000E-01	  0.027214428	1.760700E+02	  0.027214428	2.591000E+00	  0.027214428	1.710000E+00
38	  0.027414829	-9.170000E-01	  0.027414829	1.742840E+02	  0.027414829	2.644000E+00	  0.027414829	2.488000E+00
39	  0.027615231	-9.340000E-01	  0.027615231	1.724850E+02	  0.027615231	2.698000E+00	  0.027615231	3.273000E+00
40	  0.027815631	-9.520000E-01	  0.027815631	1.706780E+02	  0.027815631	2.757000E+00	  0.027815631	4.063000E+00
41	  0.028016033	-9.710000E-01	  0.028016033	1.688560E+02	  0.028016033	2.820000E+00	  0.028016033	4.862000E+00
42	  0.028216433	-9.930000E-01	  0.028216433	1.670240E+02	  0.028216433	2.891000E+00	  0.028216433	5.667000E+00
43	  0.028416833	-1.013000E+00	  0.028416833	1.651850E+02	  0.028416833	2.964000E+00	  0.028416833	6.477000E+00
44	  0.028617235	-1.034000E+00	  0.028617235	1.633450E+02	  0.028617235	3.036000E+00	  0.028617235	7.292000E+00
45	  0.028817635	-1.056000E+00	  0.028817635	1.615050E+02	  0.028817635	3.116000E+00	  0.028817635	8.109000E+00
46	  0.029018037	-1.079000E+00	  0.029018037	1.596450E+02	  0.029018037	3.203000E+00	  0.029018037	8.940000E+00
47	  0.029218437	-1.104000E+00	  0.029218437	1.577800E+02	  0.029218437	3.296000E+00	  0.029218437	9.777000E+00
48	  0.029418837	-1.131000E+00	  0.029418837	1.558940E+02	  0.029418837	3.398000E+00	  0.029418837	1.062800E+01
49	  0.029619239	-1.155000E+00	  0.029619239	1.539950E+02	  0.029619239	3.498000E+00	  0.029619239	1.149100E+01
50	  0.029819639	-1.183000E+00	  0.029819639	1.520900E+02	  0.029819639	3.609000E+00	  0.029819639	1.236300E+01
51	  0.030020041	-1.211000E+00	  0.030020041	1.501740E+02	  0.030020041	3.726000E+00	  0.030020041	1.324600E+01
52	  0.030220442	-1.238000E+00	  0.030220442	1.482530E+02	  0.030220442	3.845000E+00	  0.030220442	1.413900E+01
53	  0.030420844	-1.268000E+00	  0.030420844	1.463400E+02	  0.030420844	3.975000E+00	  0.030420844	1.503600E+01
54	  0.030621244	-1.299000E+00	  0.030621244	1.444220E+02	  0.030621244	4.116000E+00	  0.030621244	1.594300E+01
55	  0.030821642	-1.333000E+00	  0.030821642	1.424920E+02	  0.030821642	4.268000E+00	  0.030821642	1.686500E+01
56	  0.031022044	-1.366000E+00	  0.031022044	1.405290E+02	  0.031022044	4.425000E+00	  0.031022044	1.781200E+01
57	  0.031222444	-1.392000E+00	  0.031222444	1.386010E+02	  0.031222444	4.565000E+00	  0.031222444	1.875400E+01
58	  0.031422846	-1.428000E+00	  0.031422846	1.366230E+02	  0.031422846	4.744000E+00	  0.031422846	1.973000E+01
59	  0.031623244	-1.464000E+00	  0.031623244	1.346350E+02	  0.031623244	4.934000E+00	  0.031623244	2.072300E+01
60	  0.031823646	-1.501000E+00	  0.031823646	1.326500E+02	  0.031823646	5.133000E+00	  0.031823646	2.172700E+01
61	  0.032024048	-1.540000E+00	  0.032024048	1.306530E+02	  0.032024048	5.345000E+00	  0.032024048	2.275100E+01
62	  0.032224450	-1.579000E+00	  0.032224450	1.286520E+02	  0.032224450	5.571000E+00	  0.032224450	2.379200E+01
63	  0.032424849	-1.620000E+00	  0.032424849	1.266490E+02	  0.032424849	5.812000E+00	  0.032424849	2.484800E+01
64	  0.032625251	-1.659000E+00	  0.032625251	1.246380E+02	  0.032625251	6.056000E+00	  0.032625251	2.592600E+01
65	  0.032825653	-1.701000E+00	  0.032825653	1.225920E+02	  0.032825653	6.327000E+00	  0.032825653	2.704000E+01
66	  0.033026051	-1.742000E+00	  0.033026051	1.205440E+02	  0.033026051	6.605000E+00	  0.033026051	2.817400E+01
67	  0.033226453	-1.784000E+00	  0.033226453	1.185140E+02	  0.033226453	6.903000E+00	  0.033226453	2.931700E+01
68	  0.033426855	-1.828000E+00	  0.033426855	1.164640E+02	  0.033426855	7.224000E+00	  0.033426855	3.049300E+01
69	  0.033627257	-1.872000E+00	  0.033627257	1.144520E+02	  0.033627257	7.557000E+00	  0.033627257	3.166700E+01
70	  0.033827655	-1.918000E+00	  0.033827655	1.124110E+02	  0.033827655	7.918000E+00	  0.033827655	3.288200E+01
71	  0.034028057	-1.965000E+00	  0.034028057	1.103650E+02	  0.034028057	8.307000E+00	  0.034028057	3.412200E+01
72	  0.034228459	-2.012000E+00	  0.034228459	1.082960E+02	  0.034228459	8.716000E+00	  0.034228459	3.540300E+01
73	  0.034428857	-2.060000E+00	  0.034428857	1.062250E+02	  0.034428857	9.156000E+00	  0.034428857	3.671200E+01
74	  0.034629259	-2.109000E+00	  0.034629259	1.041590E+02	  0.034629259	9.621000E+00	  0.034629259	3.804700E+01
75	  0.034829661	-2.159000E+00	  0.034829661	1.020770E+02	  0.034829661	1.012600E+01	  0.034829661	3.942000E+01
76	  0.035030060	-2.209000E+00	  0.035030060	9.998800E+01	  0.035030060	1.066100E+01	  0.035030060	4.083100E+01
77	  0.035230462	-2.261000E+00	  0.035230462	9.791600E+01	  0.035230462	1.123700E+01	  0.035230462	4.226100E+01
78	  0.035430863	-2.315000E+00	  0.035430863	9.585300E+01	  0.035430863	1.185700E+01	  0.035430863	4.371700E+01
79	  0.035631265	-2.370000E+00	  0.035631265	9.376000E+01	  0.035631265	1.252600E+01	  0.035631265	4.523000E+01
80	  0.035831664	-2.425000E+00	  0.035831664	9.169500E+01	  0.035831664	1.323300E+01	  0.035831664	4.675900E+01
81	  0.036032066	-2.479000E+00	  0.036032066	8.959900E+01	  0.036032066	1.399100E+01	  0.036032066	4.835300E+01
82	  0.036232468	-2.537000E+00	  0.036232468	8.751400E+01	  0.036232468	1.482000E+01	  0.036232468	4.997200E+01
83	  0.036432866	-2.589000E+00	  0.036432866	8.540700E+01	  0.036432866	1.568000E+01	  0.036432866	5.166300E+01
84	  0.036633268	-2.647000E+00	  0.036633268	8.331400E+01	  0.036633268	1.663300E+01	  0.036633268	5.337500E+01
85	  0.036833670	-2.706000E+00	  0.036833670	8.123200E+01	  0.036833670	1.765900E+01	  0.036833670	5.512000E+01
86	  0.037034072	-2.765000E+00	  0.037034072	7.912300E+01	  0.037034072	1.877400E+01	  0.037034072	5.693300E+01
87	  0.037234470	-2.824000E+00	  0.037234470	7.703000E+01	  0.037234470	1.996500E+01	  0.037234470	5.878000E+01
88	  0.037434869	-2.884000E+00	  0.037434869	7.492800E+01	  0.037434869	2.125700E+01	  0.037434869	6.068100E+01
89	  0.037635271	-2.942000E+00	  0.037635271	7.285000E+01	  0.037635271	2.262800E+01	  0.037635271	6.261000E+01
90	  0.037835669	-3.003000E+00	  0.037835669	7.076100E+01	  0.037835669	2.412600E+01	  0.037835669	6.459100E+01
91	  0.038036071	-3.061000E+00	  0.038036071	6.866200E+01	  0.038036071	2.574200E+01	  0.038036071	6.663600E+01
92	  0.038236473	-3.119000E+00	  0.038236473	6.649800E+01	  0.038236473	2.753000E+01	  0.038236473	6.880300E+01
93	  0.038436871	-3.183000E+00	  0.038436871	6.436400E+01	  0.038436871	2.949500E+01	  0.038436871	7.095800E+01
94	  0.038637273	-3.248000E+00	  0.038637273	6.224100E+01	  0.038637273	3.163300E+01	  0.038637273	7.313300E+01
95	  0.038837675	-3.309000E+00	  0.038837675	6.014400E+01	  0.038837675	3.390300E+01	  0.038837675	7.532800E+01
96	  0.039038073	-3.369000E+00	  0.039038073	5.805600E+01	  0.039038073	3.634500E+01	  0.039038073	7.755200E+01
97	  0.039238475	-3.431000E+00	  0.039238475	5.595500E+01	  0.039238475	3.904500E+01	  0.039238475	7.978900E+01
98	  0.039438877	-3.494000E+00	  0.039438877	5.387900E+01	  0.039438877	4.195200E+01	  0.039438877	8.200000E+01
99	  0.039639279	-3.557000E+00	  0.039639279	5.178300E+01	  0.039639279	4.514100E+01	  0.039639279	8.422600E+01
100	  0.039839678	-3.619000E+00	  0.039839678	4.969800E+01	  0.039839678	4.859200E+01	  0.039839678	8.641700E+01
101	  0.040040080	-3.679000E+00	  0.040040080	4.759600E+01	  0.040040080	5.236200E+01	  0.040040080	8.859200E+01
102	  0.040240481	-3.737000E+00	  0.040240481	4.550000E+01	  0.040240481	5.643700E+01	  0.040240481	9.071600E+01
103	  0.040440880	-3.800000E+00	  0.040440880	4.342300E+01	  0.040440880	6.087000E+01	  0.040440880	9.264900E+01
104	  0.040641282	-3.862000E+00	  0.040641282	4.136500E+01	  0.040641282	6.563600E+01	  0.040641282	9.441400E+01
105	  0.040841684	-3.921000E+00	  0.040841684	3.930200E+01	  0.040841684	7.079000E+01	  0.040841684	9.601000E+01
106	  0.041042086	-3.982000E+00	  0.041042086	3.726800E+01	  0.041042086	7.628700E+01	  0.041042086	9.729800E+01
107	  0.041242484	-4.043000E+00	  0.041242484	3.520200E+01	  0.041242484	8.228600E+01	  0.041242484	9.829700E+01
108	  0.041442886	-4.106000E+00	  0.041442886	3.313500E+01	  0.041442886	8.872300E+01	  0.041442886	9.884700E+01
109	  0.041643288	-4.164000E+00	  0.041643288	3.108200E+01	  0.041643288	9.550500E+01	  0.041643288	9.900500E+01
110	  0.041843686	-4.224000E+00	  0.041843686	2.902800E+01	  0.041843686	1.026950E+02	  0.041843686	9.853300E+01
111	  0.042044088	-4.281000E+00	  0.042044088	2.699000E+01	  0.042044088	1.101660E+02	  0.042044088	9.743200E+01
112	  0.042244490	-4.339000E+00	  0.042244490	2.496400E+01	  0.042244490	1.178730E+02	  0.042244490	9.555100E+01
113	  0.042444889	-4.398000E+00	  0.042444889	2.295400E+01	  0.042444889	1.256870E+02	  0.042444889	9.278000E+01
114	  0.042645290	-4.457000E+00	  0.042645290	2.092800E+01	  0.042645290	1.336220E+02	  0.042645290	8.904100E+01
115	  0.042845692	-4.514000E+00	  0.042845692	1.891600E+01	  0.042845692	1.414210E+02	  0.042845692	8.435600E+01
116	  0.043046094	-4.570000E+00	  0.043046094	1.690900E+01	  0.043046094	1.489440E+02	  0.043046094	7.864100E+01
117	  0.043246493	-4.629000E+00	  0.043246493	1.489500E+01	  0.043246493	1.560040E+02	  0.043246493	7.179500E+01
118	  0.043446895	-4.684000E+00	  0.043446895	1.289700E+01	  0.043446895	1.623860E+02	  0.043446895	6.405200E+01
119	  0.043647297	-4.736000E+00	  0.043647297	1.091300E+01	  0.043647297	1.679750E+02	  0.043647297	5.553000E+01
120	  0.043847695	-4.793000E+00	  0.043847695	8.948000E+00	  0.043847695	1.723600E+02	  0.043847695	4.620300E+01
121	  0.044048097	-4.847000E+00	  0.044048097	6.983000E+00	  0.044048097	1.756680E+02	  0.044048097	3.635900E+01
122	  0.044248499	-4.900000E+00	  0.044248499	5.015000E+00	  0.044248499	1.777570E+02	  0.044248499	2.613400E+01
123	  0.044448901	-4.953000E+00	  0.044448901	3.089000E+00	  0.044448901	1.785360E+02	  0.044448901	1.599200E+01
124	  0.044649299	-5.005000E+00	  0.044649299	1.162000E+00	  0.044649299	1.781000E+02	  0.044649299	5.937000E+00
125	  0.044849701	-5.054000E+00	  0.044849701	-7.690000E-01	  0.044849701	1.765700E+02	  0.044849701	-3.854000E+00
126	  0.045050103	-5.102000E+00	  0.045050103	-2.701000E+00	  0.045050103	1.739900E+02	  0.045050103	-1.318700E+01
127	  0.045250501	-5.150000E+00	  0.045250501	-4.613000E+00	  0.045250501	1.705000E+02	  0.045250501	-2.182300E+01
128	  0.045450903	-5.197000E+00	  0.045450903	-6.516000E+00	  0.045450903	1.662530E+02	  0.045450903	-2.972400E+01
129	  0.045651305	-5.243000E+00	  0.045651305	-8.397000E+00	  0.045651305	1.614300E+02	  0.045651305	-3.677300E+01
130	  0.045851704	-5.291000E+00	  0.045851704	-1.026300E+01	  0.045851704	1.561460E+02	  0.045851704	-4.296300E+01
131	  0.046052102	-5.336000E+00	  0.046052102	-1.211300E+01	  0.046052102	1.506240E+02	  0.046052102	-4.834500E+01
132	  0.046252504	-5.380000E+00	  0.046252504	-1.397300E+01	  0.046252504	1.449110E+02	  0.046252504	-5.303200E+01
133	  0.046452906	-5.423000E+00	  0.046452906	-1.580500E+01	  0.046452906	1.391830E+02	  0.046452906	-5.693500E+01
134	  0.046653304	-5.467000E+00	  0.046653304	-1.763800E+01	  0.046653304	1.334420E+02	  0.046653304	-6.018500E+01
135	  0.046853706	-5.509000E+00	  0.046853706	-1.946200E+01	  0.046853706	1.277990E+02	  0.046853706	-6.283300E+01
136	  0.047054108	-5.550000E+00	  0.047054108	-2.127800E+01	  0.047054108	1.222990E+02	  0.047054108	-6.493500E+01
137	  0.047254506	-5.587000E+00	  0.047254506	-2.310800E+01	  0.047254506	1.169540E+02	  0.047254506	-6.666100E+01
138	  0.047454908	-5.622000E+00	  0.047454908	-2.489700E+01	  0.047454908	1.119010E+02	  0.047454908	-6.793800E+01
139	  0.047655310	-5.659000E+00	  0.047655310	-2.668300E+01	  0.047655310	1.070280E+02	  0.047655310	-6.879300E+01
140	  0.047855709	-5.693000E+00	  0.047855709	-2.843400E+01	  0.047855709	1.024600E+02	  0.047855709	-6.935400E+01
141	  0.048056111	-5.730000E+00	  0.048056111	-3.018400E+01	  0.048056111	9.808800E+01	  0.048056111	-6.958800E+01
142	  0.048256513	-5.763000E+00	  0.048256513	-3.192600E+01	  0.048256513	9.395300E+01	  0.048256513	-6.965900E+01
143	  0.048456915	-5.795000E+00	  0.048456915	-3.366700E+01	  0.048456915	9.002100E+01	  0.048456915	-6.952300E+01
144	  0.048657313	-5.826000E+00	  0.048657313	-3.540800E+01	  0.048657313	8.628800E+01	  0.048657313	-6.922000E+01
145	  0.048857715	-5.852000E+00	  0.048857715	-3.713800E+01	  0.048857715	8.276800E+01	  0.048857715	-6.883200E+01
146	  0.049058117	-5.880000E+00	  0.049058117	-3.885500E+01	  0.049058117	7.945400E+01	  0.049058117	-6.829500E+01
147	  0.049258515	-5.903000E+00	  0.049258515	-4.052100E+01	  0.049258515	7.640300E+01	  0.049258515	-6.769900E+01
148	  0.049458917	-5.930000E+00	  0.049458917	-4.221400E+01	  0.049458917	7.346500E+01	  0.049458917	-6.696900E+01
149	  0.049659319	-5.955000E+00	  0.049659319	-4.389500E+01	  0.049659319	7.069800E+01	  0.049659319	-6.618500E+01
150	  0.049859721	-5.980000E+00	  0.049859721	-4.558000E+01	  0.049859721	6.807300E+01	  0.049859721	-6.532600E+01
151	  0.050060119	-6.002000E+00	  0.050060119	-4.722700E+01	  0.050060119	6.563500E+01	  0.050060119	-6.446200E+01
152	  0.050260521	-6.023000E+00	  0.050260521	-4.887900E+01	  0.050260521	6.331500E+01	  0.050260521	-6.356200E+01
153	  0.050460923	-6.038000E+00	  0.050460923	-5.052800E+01	  0.050460923	6.110100E+01	  0.050460923	-6.266800E+01
154	  0.050661322	-6.056000E+00	  0.050661322	-5.217400E+01	  0.050661322	5.901200E+01	  0.050661322	-6.172400E+01
155	  0.050861724	-6.072000E+00	  0.050861724	-5.378900E+01	  0.050861724	5.706000E+01	  0.050861724	-6.078100E+01
156	  0.051062126	-6.091000E+00	  0.051062126	-5.541800E+01	  0.051062126	5.520100E+01	  0.051062126	-5.978600E+01
157	  0.051262524	-6.105000E+00	  0.051262524	-5.702100E+01	  0.051262524	5.345000E+01	  0.051262524	-5.881900E+01
158	  0.051462926	-6.121000E+00	  0.051462926	-5.859700E+01	  0.051462926	5.181800E+01	  0.051462926	-5.784500E+01
159	  0.051663328	-6.134000E+00	  0.051663328	-6.019400E+01	  0.051663328	5.023200E+01	  0.051663328	-5.687300E+01
160	  0.051863730	-6.145000E+00	  0.051863730	-6.178100E+01	  0.051863730	4.872900E+01	  0.051863730	-5.590500E+01
161	  0.052064128	-6.157000E+00	  0.052064128	-6.336400E+01	  0.052064128	4.730200E+01	  0.052064128	-5.493000E+01
162	  0.052264530	-6.163000E+00	  0.052264530	-6.492700E+01	  0.052264530	4.594200E+01	  0.052264530	-5.399400E+01
163	  0.052464932	-6.173000E+00	  0.052464932	-6.648800E+01	  0.052464932	4.465700E+01	  0.052464932	-5.303900E+01
164	  0.052665330	-6.182000E+00	  0.052665330	-6.802500E+01	  0.052665330	4.344800E+01	  0.052665330	-5.210000E+01
165	  0.052865732	-6.192000E+00	  0.052865732	-6.955300E+01	  0.052865732	4.230600E+01	  0.052865732	-5.116200E+01
166	  0.053066134	-6.204000E+00	  0.053066134	-7.107300E+01	  0.053066134	4.123100E+01	  0.053066134	-5.021800E+01
167	  0.053266536	-6.206000E+00	  0.053266536	-7.259500E+01	  0.053266536	4.016300E+01	  0.053266536	-4.932600E+01
168	  0.053466935	-6.218000E+00	  0.053466935	-7.412900E+01	  0.053466935	3.917000E+01	  0.053466935	-4.838800E+01
169	  0.053667337	-6.223000E+00	  0.053667337	-7.564700E+01	  0.053667337	3.820800E+01	  0.053667337	-4.748900E+01
170	  0.053867739	-6.225000E+00	  0.053867739	-7.715600E+01	  0.053867739	3.728000E+01	  0.053867739	-4.661400E+01
171	  0.054068137	-6.230000E+00	  0.054068137	-7.866100E+01	  0.054068137	3.640400E+01	  0.054068137	-4.573600E+01
172	  0.054268539	-6.237000E+00	  0.054268539	-8.014800E+01	  0.054268539	3.558400E+01	  0.054268539	-4.486400E+01
173	  0.054468941	-6.244000E+00	  0.054468941	-8.162500E+01	  0.054468941	3.480200E+01	  0.054468941	-4.400600E+01
174	  0.054669335	-6.248000E+00	  0.054669335	-8.310400E+01	  0.054669335	3.404600E+01	  0.054669335	-4.316000E+01
175	  0.054869737	-6.252000E+00	  0.054869737	-8.457300E+01	  0.054869737	3.332000E+01	  0.054869737	-4.233000E+01
176	  0.055070139	-6.256000E+00	  0.055070139	-8.602900E+01	  0.055070139	3.263400E+01	  0.055070139	-4.151000E+01
177	  0.055270538	-6.262000E+00	  0.055270538	-8.749700E+01	  0.055270538	3.197400E+01	  0.055270538	-4.068700E+01
178	  0.055470940	-6.265000E+00	  0.055470940	-8.893800E+01	  0.055470940	3.134300E+01	  0.055470940	-3.989200E+01
179	  0.055671342	-6.263000E+00	  0.055671342	-9.040000E+01	  0.055671342	3.070900E+01	  0.055671342	-3.911000E+01
180	  0.055871744	-6.264000E+00	  0.055871744	-9.185100E+01	  0.055871744	3.011900E+01	  0.055871744	-3.832600E+01
181	  0.056072142	-6.268000E+00	  0.056072142	-9.327300E+01	  0.056072142	2.956800E+01	  0.056072142	-3.756100E+01
182	  0.056272544	-6.271000E+00	  0.056272544	-9.470800E+01	  0.056272544	2.903500E+01	  0.056272544	-3.679500E+01
183	  0.056472946	-6.271000E+00	  0.056472946	-9.610700E+01	  0.056472946	2.852100E+01	  0.056472946	-3.606400E+01
184	  0.056673344	-6.272000E+00	  0.056673344	-9.749600E+01	  0.056673344	2.803600E+01	  0.056673344	-3.533900E+01
185	  0.056873746	-6.272000E+00	  0.056873746	-9.889200E+01	  0.056873746	2.756300E+01	  0.056873746	-3.462100E+01
186	  0.057074148	-6.271000E+00	  0.057074148	-1.002990E+02	  0.057074148	2.710000E+01	  0.057074148	-3.390300E+01
187	  0.057274550	-6.272000E+00	  0.057274550	-1.016850E+02	  0.057274550	2.666800E+01	  0.057274550	-3.319800E+01
188	  0.057474948	-6.271000E+00	  0.057474948	-1.030650E+02	  0.057474948	2.624400E+01	  0.057474948	-3.250800E+01
189	  0.057675350	-6.271000E+00	  0.057675350	-1.044480E+02	  0.057675350	2.584000E+01	  0.057675350	-3.181800E+01
190	  0.057875752	-6.274000E+00	  0.057875752	-1.058160E+02	  0.057875752	2.546300E+01	  0.057875752	-3.113700E+01
191	  0.058076151	-6.277000E+00	  0.058076151	-1.071840E+02	  0.058076151	2.510100E+01	  0.058076151	-3.046000E+01
192	  0.058276553	-6.275000E+00	  0.058276553	-1.085360E+02	  0.058276553	2.474300E+01	  0.058276553	-2.980500E+01
193	  0.058476955	-6.275000E+00	  0.058476955	-1.098430E+02	  0.058476955	2.441100E+01	  0.058476955	-2.917400E+01
194	  0.058677353	-6.273000E+00	  0.058677353	-1.112010E+02	  0.058677353	2.407300E+01	  0.058677353	-2.852800E+01
195	  0.058877755	-6.274000E+00	  0.058877755	-1.125350E+02	  0.058877755	2.376200E+01	  0.058877755	-2.789200E+01
196	  0.059078157	-6.270000E+00	  0.059078157	-1.138570E+02	  0.059078157	2.344700E+01	  0.059078157	-2.727500E+01
197	  0.059278559	-6.271000E+00	  0.059278559	-1.151510E+02	  0.059278559	2.316600E+01	  0.059278559	-2.666700E+01
198	  0.059478957	-6.272000E+00	  0.059478957	-1.164730E+02	  0.059478957	2.289000E+01	  0.059478957	-2.605000E+01
199	  0.059679359	-6.270000E+00	  0.059679359	-1.177900E+02	  0.059679359	2.261700E+01	  0.059679359	-2.544400E+01
200	  0.059879761	-6.271000E+00	  0.059879761	-1.190740E+02	  0.059879761	2.236400E+01	  0.059879761	-2.485600E+01
201	  0.060080159	-6.275000E+00	  0.060080159	-1.203460E+02	  0.060080159	2.213500E+01	  0.060080159	-2.427100E+01
202	  0.060280561	-6.276000E+00	  0.060280561	-1.216160E+02	  0.060280561	2.190200E+01	  0.060280561	-2.369600E+01
203	  0.060480963	-6.278000E+00	  0.060480963	-1.229000E+02	  0.060480963	2.168000E+01	  0.060480963	-2.311700E+01
204	  0.060681365	-6.277000E+00	  0.060681365	-1.241460E+02	  0.060681365	2.146200E+01	  0.060681365	-2.256200E+01
205	  0.060881764	-6.277000E+00	  0.060881764	-1.254180E+02	  0.060881764	2.125200E+01	  0.060881764	-2.199800E+01
206	  0.061082166	-6.276000E+00	  0.061082166	-1.266780E+02	  0.061082166	2.104800E+01	  0.061082166	-2.144400E+01
207	  0.061282568	-6.278000E+00	  0.061282568	-1.279250E+02	  0.061282568	2.086100E+01	  0.061282568	-2.089500E+01
208	  0.061482966	-6.279000E+00	  0.061482966	-1.291460E+02	  0.061482966	2.068000E+01	  0.061482966	-2.036300E+01
209	  0.061683368	-6.281000E+00	  0.061683368	-1.303740E+02	  0.061683368	2.050900E+01	  0.061683368	-1.982900E+01
210	  0.061883770	-6.284000E+00	  0.061883770	-1.315980E+02	  0.061883770	2.034500E+01	  0.061883770	-1.930000E+01
211	  0.062084168	-6.283000E+00	  0.062084168	-1.328080E+02	  0.062084168	2.017900E+01	  0.062084168	-1.878300E+01
212	  0.062284570	-6.282000E+00	  0.062284570	-1.340200E+02	  0.062284570	2.001900E+01	  0.062284570	-1.826900E+01
213	  0.062484972	-6.275000E+00	  0.062484972	-1.351860E+02	  0.062484972	1.985300E+01	  0.062484972	-1.778000E+01
214	  0.062685370	-6.275000E+00	  0.062685370	-1.363660E+02	  0.062685370	1.971200E+01	  0.062685370	-1.728200E+01
215	  0.062885776	-6.273000E+00	  0.062885776	-1.375920E+02	  0.062885776	1.956200E+01	  0.062885776	-1.676900E+01
216	  0.063086174	-6.274000E+00	  0.063086174	-1.387660E+02	  0.063086174	1.943200E+01	  0.063086174	-1.627800E+01
217	  0.063286573	-6.277000E+00	  0.063286573	-1.399420E+02	  0.063286573	1.931400E+01	  0.063286573	-1.578700E+01
218	  0.063486971	-6.279000E+00	  0.063486971	-1.411070E+02	  0.063486971	1.919800E+01	  0.063486971	-1.530400E+01
219	  0.063687377	-6.274000E+00	  0.063687377	-1.422590E+02	  0.063687377	1.906900E+01	  0.063687377	-1.483200E+01
220	  0.063887775	-6.278000E+00	  0.063887775	-1.434500E+02	  0.063887775	1.896500E+01	  0.063887775	-1.434100E+01
221	  0.064088173	-6.277000E+00	  0.064088173	-1.445920E+02	  0.064088173	1.885500E+01	  0.064088173	-1.387500E+01
222	  0.064288579	-6.282000E+00	  0.064288579	-1.457500E+02	  0.064288579	1.876600E+01	  0.064288579	-1.340100E+01
223	  0.064488977	-6.282000E+00	  0.064488977	-1.469140E+02	  0.064488977	1.866300E+01	  0.064488977	-1.292900E+01
224	  0.064689375	-6.282000E+00	  0.064689375	-1.480760E+02	  0.064689375	1.856800E+01	  0.064689375	-1.245900E+01
225	  0.064889781	-6.285000E+00	  0.064889781	-1.492010E+02	  0.064889781	1.848800E+01	  0.064889781	-1.200500E+01
226	  0.065090179	-6.287000E+00	  0.065090179	-1.503260E+02	  0.065090179	1.840800E+01	  0.065090179	-1.155300E+01
227	  0.065290578	-6.287000E+00	  0.065290578	-1.514460E+02	  0.065290578	1.832700E+01	  0.065290578	-1.110500E+01
228	  0.065490983	-6.289000E+00	  0.065490983	-1.525630E+02	  0.065490983	1.825300E+01	  0.065490983	-1.065900E+01
229	  0.065691382	-6.289000E+00	  0.065691382	-1.536860E+02	  0.065691382	1.818000E+01	  0.065691382	-1.021200E+01
230	  0.065891780	-6.291000E+00	  0.065891780	-1.547810E+02	  0.065891780	1.811400E+01	  0.065891780	-9.778000E+00
231	  0.066092186	-6.291000E+00	  0.066092186	-1.559070E+02	  0.066092186	1.804600E+01	  0.066092186	-9.333000E+00
232	  0.066292584	-6.295000E+00	  0.066292584	-1.569960E+02	  0.066292584	1.799400E+01	  0.066292584	-8.902000E+00
233	  0.066492982	-6.295000E+00	  0.066492982	-1.581000E+02	  0.066492982	1.793400E+01	  0.066492982	-8.468000E+00
234	  0.066693388	-6.297000E+00	  0.066693388	-1.591820E+02	  0.066693388	1.788400E+01	  0.066693388	-8.043000E+00
235	  0.066893786	-6.297000E+00	  0.066893786	-1.602590E+02	  0.066893786	1.783200E+01	  0.066893786	-7.621000E+00
236	  0.067094192	-6.299000E+00	  0.067094192	-1.613320E+02	  0.067094192	1.778700E+01	  0.067094192	-7.202000E+00
237	  0.067294590	-6.303000E+00	  0.067294590	-1.623990E+02	  0.067294590	1.775000E+01	  0.067294590	-6.785000E+00
238	  0.067494988	-6.304000E+00	  0.067494988	-1.635000E+02	  0.067494988	1.771000E+01	  0.067494988	-6.356000E+00
239	  0.067695394	-6.307000E+00	  0.067695394	-1.645330E+02	  0.067695394	1.767700E+01	  0.067695394	-5.954000E+00
240	  0.067895792	-6.312000E+00	  0.067895792	-1.656150E+02	  0.067895792	1.765300E+01	  0.067895792	-5.533000E+00
241	  0.068096191	-6.315000E+00	  0.068096191	-1.666700E+02	  0.068096191	1.762500E+01	  0.068096191	-5.124000E+00
242	  0.068296596	-6.317000E+00	  0.068296596	-1.677050E+02	  0.068296596	1.759900E+01	  0.068296596	-4.724000E+00
243	  0.068496995	-6.327000E+00	  0.068496995	-1.687830E+02	  0.068496995	1.759400E+01	  0.068496995	-4.306000E+00
244	  0.068697393	-6.326000E+00	  0.068697393	-1.697970E+02	  0.068697393	1.756700E+01	  0.068697393	-3.916000E+00
245	  0.068897791	-6.328000E+00	  0.068897791	-1.708320E+02	  0.068897791	1.754800E+01	  0.068897791	-3.517000E+00
246	  0.069098189	-6.331000E+00	  0.069098189	-1.718660E+02	  0.069098189	1.753300E+01	  0.069098189	-3.119000E+00
247	  0.069298595	-6.336000E+00	  0.069298595	-1.729100E+02	  0.069298595	1.752700E+01	  0.069298595	-2.718000E+00
248	  0.069498993	-6.339000E+00	  0.069498993	-1.739540E+02	  0.069498993	1.752000E+01	  0.069498993	-2.317000E+00
249	  0.069699399	-6.344000E+00	  0.069699399	-1.749660E+02	  0.069699399	1.751900E+01	  0.069699399	-1.928000E+00
250	  0.069899797	-6.347000E+00	  0.069899797	-1.759740E+02	  0.069899797	1.751700E+01	  0.069899797	-1.541000E+00
251	  0.070100196	-6.354000E+00	  0.070100196	-1.770030E+02	  0.070100196	1.752500E+01	  0.070100196	-1.147000E+00
252	  0.070300601	-6.361000E+00	  0.070300601	-1.779830E+02	  0.070300601	1.753700E+01	  0.070300601	-7.710000E-01
253	  0.070501000	-6.362000E+00	  0.070501000	-1.789640E+02	  0.070501000	1.753600E+01	  0.070501000	-3.960000E-01
254	  0.070701398	-6.366000E+00	  0.070701398	-1.799510E+02	  0.070701398	1.754500E+01	  0.070701398	-1.800000E-02
255	  0.070901804	-6.374000E+00	  0.070901804	1.790280E+02	  0.070901804	1.756600E+01	  0.070901804	3.710000E-01
256	  0.071102202	-6.383000E+00	  0.071102202	1.780490E+02	  0.071102202	1.759400E+01	  0.071102202	7.450000E-01
257	  0.071302600	-6.388000E+00	  0.071302600	1.770630E+02	  0.071302600	1.761200E+01	  0.071302600	1.122000E+00
258	  0.071503006	-6.392000E+00	  0.071503006	1.760850E+02	  0.071503006	1.762900E+01	  0.071503006	1.496000E+00
259	  0.071703404	-6.403000E+00	  0.071703404	1.751330E+02	  0.071703404	1.766700E+01	  0.071703404	1.859000E+00
260	  0.071903802	-6.405000E+00	  0.071903802	1.741560E+02	  0.071903802	1.768300E+01	  0.071903802	2.233000E+00
261	  0.072104208	-6.412000E+00	  0.072104208	1.731860E+02	  0.072104208	1.771500E+01	  0.072104208	2.604000E+00
262	  0.072304606	-6.418000E+00	  0.072304606	1.722390E+02	  0.072304606	1.774700E+01	  0.072304606	2.965000E+00
263	  0.072505005	-6.426000E+00	  0.072505005	1.712820E+02	  0.072505005	1.778500E+01	  0.072505005	3.331000E+00
264	  0.072705410	-6.434000E+00	  0.072705410	1.703140E+02	  0.072705410	1.782800E+01	  0.072705410	3.701000E+00
265	  0.072905809	-6.442000E+00	  0.072905809	1.693630E+02	  0.072905809	1.787000E+01	  0.072905809	4.064000E+00
266	  0.073106214	-6.448000E+00	  0.073106214	1.684330E+02	  0.073106214	1.791100E+01	  0.073106214	4.419000E+00
267	  0.073306613	-6.457000E+00	  0.073306613	1.674690E+02	  0.073306613	1.796100E+01	  0.073306613	4.788000E+00
268	  0.073507011	-6.464000E+00	  0.073507011	1.665400E+02	  0.073507011	1.800900E+01	  0.073507011	5.143000E+00
269	  0.073707417	-6.471000E+00	  0.073707417	1.656050E+02	  0.073707417	1.805700E+01	  0.073707417	5.501000E+00
270	  0.073907815	-6.477000E+00	  0.073907815	1.646890E+02	  0.073907815	1.810400E+01	  0.073907815	5.852000E+00
271	  0.074108213	-6.487000E+00	  0.074108213	1.637620E+02	  0.074108213	1.816700E+01	  0.074108213	6.207000E+00
272	  0.074308619	-6.498000E+00	  0.074308619	1.628210E+02	  0.074308619	1.823300E+01	  0.074308619	6.567000E+00
273	  0.074509017	-6.504000E+00	  0.074509017	1.619290E+02	  0.074509017	1.828500E+01	  0.074509017	6.910000E+00
274	  0.074709415	-6.506000E+00	  0.074709415	1.609920E+02	  0.074709415	1.833200E+01	  0.074709415	7.271000E+00
275	  0.074909821	-6.517000E+00	  0.074909821	1.600760E+02	  0.074909821	1.840500E+01	  0.074909821	7.623000E+00
276	  0.075110219	-6.526000E+00	  0.075110219	1.591610E+02	  0.075110219	1.847300E+01	  0.075110219	7.974000E+00
277	  0.075310618	-6.533000E+00	  0.075310618	1.582720E+02	  0.075310618	1.853900E+01	  0.075310618	8.317000E+00
278	  0.075511023	-6.543000E+00	  0.075511023	1.574080E+02	  0.075511023	1.861200E+01	  0.075511023	8.649000E+00
279	  0.075711422	-6.551000E+00	  0.075711422	1.565110E+02	  0.075711422	1.868500E+01	  0.075711422	8.995000E+00
280	  0.075911827	-6.558000E+00	  0.075911827	1.555870E+02	  0.075911827	1.875800E+01	  0.075911827	9.352000E+00
281	  0.076112226	-6.563000E+00	  0.076112226	1.546980E+02	  0.076112226	1.882500E+01	  0.076112226	9.698000E+00
282	  0.076312624	-6.578000E+00	  0.076312624	1.538090E+02	  0.076312624	1.892200E+01	  0.076312624	1.003900E+01
283	  0.076513030	-6.588000E+00	  0.076513030	1.529250E+02	  0.076513030	1.900800E+01	  0.076513030	1.038100E+01
284	  0.076713428	-6.598000E+00	  0.076713428	1.520290E+02	  0.076713428	1.909700E+01	  0.076713428	1.072800E+01
285	  0.076913826	-6.606000E+00	  0.076913826	1.511760E+02	  0.076913826	1.918000E+01	  0.076913826	1.105900E+01
286	  0.077114232	-6.617000E+00	  0.077114232	1.502820E+02	  0.077114232	1.927700E+01	  0.077114232	1.140600E+01
287	  0.077314630	-6.632000E+00	  0.077314630	1.494250E+02	  0.077314630	1.938200E+01	  0.077314630	1.173600E+01
288	  0.077515028	-6.640000E+00	  0.077515028	1.485490E+02	  0.077515028	1.947300E+01	  0.077515028	1.207800E+01
289	  0.077715434	-6.654000E+00	  0.077715434	1.476840E+02	  0.077715434	1.958200E+01	  0.077715434	1.241300E+01
290	  0.077915832	-6.664000E+00	  0.077915832	1.468070E+02	  0.077915832	1.968300E+01	  0.077915832	1.275500E+01
291	  0.078116231	-6.674000E+00	  0.078116231	1.459580E+02	  0.078116231	1.978500E+01	  0.078116231	1.308700E+01
292	  0.078316636	-6.689000E+00	  0.078316636	1.450780E+02	  0.078316636	1.990500E+01	  0.078316636	1.342800E+01
293	  0.078517035	-6.699000E+00	  0.078517035	1.442180E+02	  0.078517035	2.001400E+01	  0.078517035	1.376500E+01
294	  0.078717433	-6.715000E+00	  0.078717433	1.433590E+02	  0.078717433	2.014000E+01	  0.078717433	1.409800E+01
295	  0.078917839	-6.729000E+00	  0.078917839	1.425080E+02	  0.078917839	2.026300E+01	  0.078917839	1.443000E+01
296	  0.079118237	-6.745000E+00	  0.079118237	1.416720E+02	  0.079118237	2.039100E+01	  0.079118237	1.475400E+01
297	  0.079318643	-6.759000E+00	  0.079318643	1.408480E+02	  0.079318643	2.051700E+01	  0.079318643	1.507600E+01
298	  0.079519041	-6.769000E+00	  0.079519041	1.399960E+02	  0.079519041	2.063700E+01	  0.079519041	1.541200E+01
299	  0.079719439	-6.789000E+00	  0.079719439	1.391520E+02	  0.079719439	2.078500E+01	  0.079719439	1.573800E+01
300	  0.079919845	-6.802000E+00	  0.079919845	1.383210E+02	  0.079919845	2.091400E+01	  0.079919845	1.606500E+01
301	  0.080120243	-6.816000E+00	  0.080120243	1.374750E+02	  0.080120243	2.105300E+01	  0.080120243	1.639600E+01
302	  0.080320641	-6.833000E+00	  0.080320641	1.366460E+02	  0.080320641	2.120000E+01	  0.080320641	1.671900E+01
303	  0.080521047	-6.855000E+00	  0.080521047	1.358450E+02	  0.080521047	2.135900E+01	  0.080521047	1.702700E+01
304	  0.080721445	-6.869000E+00	  0.080721445	1.350200E+02	  0.080721445	2.150300E+01	  0.080721445	1.735200E+01
305	  0.080921844	-6.889000E+00	  0.080921844	1.342120E+02	  0.080921844	2.166300E+01	  0.080921844	1.766500E+01
306	  0.081122249	-6.907000E+00	  0.081122249	1.333970E+02	  0.081122249	2.182200E+01	  0.081122249	1.798200E+01
307	  0.081322648	-6.922000E+00	  0.081322648	1.326090E+02	  0.081322648	2.197300E+01	  0.081322648	1.829200E+01
308	  0.081523046	-6.943000E+00	  0.081523046	1.317930E+02	  0.081523046	2.214600E+01	  0.081523046	1.860700E+01
309	  0.081723452	-6.954000E+00	  0.081723452	1.309910E+02	  0.081723452	2.229200E+01	  0.081723452	1.892700E+01
310	  0.081923850	-6.973000E+00	  0.081923850	1.301880E+02	  0.081923850	2.246400E+01	  0.081923850	1.923900E+01
311	  0.082124248	-6.991000E+00	  0.082124248	1.294110E+02	  0.082124248	2.263200E+01	  0.082124248	1.954200E+01
312	  0.082324654	-7.010000E+00	  0.082324654	1.286530E+02	  0.082324654	2.280100E+01	  0.082324654	1.983600E+01
313	  0.082525052	-7.033000E+00	  0.082525052	1.279030E+02	  0.082525052	2.298300E+01	  0.082525052	2.012300E+01
314	  0.082725458	-7.055000E+00	  0.082725458	1.271290E+02	  0.082725458	2.316900E+01	  0.082725458	2.042100E+01
315	  0.082925856	-7.075000E+00	  0.082925856	1.263600E+02	  0.082925856	2.335300E+01	  0.082925856	2.071800E+01
316	  0.083126254	-7.095000E+00	  0.083126254	1.255890E+02	  0.083126254	2.354000E+01	  0.083126254	2.101700E+01
317	  0.083326660	-7.112000E+00	  0.083326660	1.248520E+02	  0.083326660	2.371600E+01	  0.083326660	2.130400E+01
318	  0.083527058	-7.137000E+00	  0.083527058	1.241170E+02	  0.083527058	2.391500E+01	  0.083527058	2.158200E+01
319	  0.083727457	-7.163000E+00	  0.083727457	1.233550E+02	  0.083727457	2.412500E+01	  0.083727457	2.187000E+01
320	  0.083927862	-7.181000E+00	  0.083927862	1.226310E+02	  0.083927862	2.431000E+01	  0.083927862	2.215000E+01
321	  0.084128261	-7.205000E+00	  0.084128261	1.219030E+02	  0.084128261	2.451400E+01	  0.084128261	2.242600E+01
322	  0.084328659	-7.223000E+00	  0.084328659	1.211870E+02	  0.084328659	2.470400E+01	  0.084328659	2.270300E+01
323	  0.084529065	-7.246000E+00	  0.084529065	1.204420E+02	  0.084529065	2.491300E+01	  0.084529065	2.298600E+01
324	  0.084729463	-7.268000E+00	  0.084729463	1.197180E+02	  0.084729463	2.512100E+01	  0.084729463	2.326100E+01
325	  0.084929854	-7.291000E+00	  0.084929854	1.189790E+02	  0.084929854	2.533700E+01	  0.084929854	2.354100E+01
326	  0.085130259	-7.314000E+00	  0.085130259	1.182800E+02	  0.085130259	2.554900E+01	  0.085130259	2.380300E+01
327	  0.085330658	-7.330000E+00	  0.085330658	1.175650E+02	  0.085330658	2.574600E+01	  0.085330658	2.408200E+01
328	  0.085531056	-7.352000E+00	  0.085531056	1.168350E+02	  0.085531056	2.596700E+01	  0.085531056	2.435800E+01
329	  0.085731462	-7.376000E+00	  0.085731462	1.161400E+02	  0.085731462	2.619000E+01	  0.085731462	2.461600E+01
330	  0.085931860	-7.396000E+00	  0.085931860	1.154320E+02	  0.085931860	2.640500E+01	  0.085931860	2.488600E+01
331	  0.086132258	-7.422000E+00	  0.086132258	1.147630E+02	  0.086132258	2.663200E+01	  0.086132258	2.512900E+01
332	  0.086332664	-7.444000E+00	  0.086332664	1.140460E+02	  0.086332664	2.686500E+01	  0.086332664	2.539700E+01
333	  0.086533062	-7.466000E+00	  0.086533062	1.133680E+02	  0.086533062	2.708700E+01	  0.086533062	2.565000E+01
334	  0.086733460	-7.481000E+00	  0.086733460	1.126690E+02	  0.086733460	2.730000E+01	  0.086733460	2.592200E+01
335	  0.086933866	-7.504000E+00	  0.086933866	1.119790E+02	  0.086933866	2.753800E+01	  0.086933866	2.617500E+01
336	  0.087134264	-7.527000E+00	  0.087134264	1.113120E+02	  0.087134264	2.777200E+01	  0.087134264	2.641900E+01
337	  0.087334670	-7.553000E+00	  0.087334670	1.106120E+02	  0.087334670	2.802500E+01	  0.087334670	2.667200E+01
338	  0.087535068	-7.571000E+00	  0.087535068	1.099470E+02	  0.087535068	2.825100E+01	  0.087535068	2.692100E+01
339	  0.087735467	-7.597000E+00	  0.087735467	1.092810E+02	  0.087735467	2.850000E+01	  0.087735467	2.715800E+01
340	  0.087935872	-7.618000E+00	  0.087935872	1.086580E+02	  0.087935872	2.872900E+01	  0.087935872	2.738400E+01
341	  0.088136271	-7.642000E+00	  0.088136271	1.079520E+02	  0.088136271	2.899100E+01	  0.088136271	2.764000E+01
342	  0.088336669	-7.664000E+00	  0.088336669	1.073130E+02	  0.088336669	2.923500E+01	  0.088336669	2.786700E+01
343	  0.088537075	-7.686000E+00	  0.088537075	1.066800E+02	  0.088537075	2.947700E+01	  0.088537075	2.809300E+01
344	  0.088737473	-7.704000E+00	  0.088737473	1.060120E+02	  0.088737473	2.972100E+01	  0.088737473	2.834200E+01
345	  0.088937871	-7.725000E+00	  0.088937871	1.053570E+02	  0.088937871	2.997300E+01	  0.088937871	2.857800E+01
346	  0.089138277	-7.758000E+00	  0.089138277	1.047300E+02	  0.089138277	3.025600E+01	  0.089138277	2.877500E+01
347	  0.089338675	-7.772000E+00	  0.089338675	1.041150E+02	  0.089338675	3.048100E+01	  0.089338675	2.900600E+01
348	  0.089539073	-7.804000E+00	  0.089539073	1.034880E+02	  0.089539073	3.076600E+01	  0.089539073	2.920400E+01
349	  0.089739479	-7.825000E+00	  0.089739479	1.028580E+02	  0.089739479	3.102400E+01	  0.089739479	2.942400E+01
350	  0.089939877	-7.852000E+00	  0.089939877	1.022490E+02	  0.089939877	3.129200E+01	  0.089939877	2.962400E+01
351	  0.090140276	-7.875000E+00	  0.090140276	1.016650E+02	  0.090140276	3.154800E+01	  0.090140276	2.981700E+01
352	  0.090340681	-7.901000E+00	  0.090340681	1.010170E+02	  0.090340681	3.183200E+01	  0.090340681	3.003200E+01
353	  0.090541080	-7.923000E+00	  0.090541080	1.004410E+02	  0.090541080	3.208600E+01	  0.090541080	3.022400E+01
354	  0.090741485	-7.953000E+00	  0.090741485	9.984700E+01	  0.090741485	3.237100E+01	  0.090741485	3.040200E+01
355	  0.090941884	-7.981000E+00	  0.090941884	9.927100E+01	  0.090941884	3.264900E+01	  0.090941884	3.057600E+01
356	  0.091142282	-8.004000E+00	  0.091142282	9.869300E+01	  0.091142282	3.291200E+01	  0.091142282	3.076200E+01
357	  0.091342688	-8.039000E+00	  0.091342688	9.809200E+01	  0.091342688	3.322300E+01	  0.091342688	3.092700E+01
358	  0.091543086	-8.064000E+00	  0.091543086	9.751800E+01	  0.091543086	3.349700E+01	  0.091543086	3.110300E+01
359	  0.091743484	-8.089000E+00	  0.091743484	9.693600E+01	  0.091743484	3.377700E+01	  0.091743484	3.128100E+01
360	  0.091943890	-8.112000E+00	  0.091943890	9.636000E+01	  0.091943890	3.405200E+01	  0.091943890	3.145900E+01
361	  0.092144288	-8.136000E+00	  0.092144288	9.576100E+01	  0.092144288	3.434300E+01	  0.092144288	3.164300E+01
362	  0.092344686	-8.159000E+00	  0.092344686	9.522300E+01	  0.092344686	3.461100E+01	  0.092344686	3.180100E+01
363	  0.092545092	-8.186000E+00	  0.092545092	9.467400E+01	  0.092545092	3.489300E+01	  0.092545092	3.195400E+01
364	  0.092745490	-8.217000E+00	  0.092745490	9.415600E+01	  0.092745490	3.517800E+01	  0.092745490	3.208200E+01
365	  0.092945889	-8.243000E+00	  0.092945889	9.359700E+01	  0.092945889	3.547000E+01	  0.092945889	3.223600E+01
366	  0.093146294	-8.265000E+00	  0.093146294	9.307300E+01	  0.093146294	3.573600E+01	  0.093146294	3.238700E+01
367	  0.093346693	-8.286000E+00	  0.093346693	9.254900E+01	  0.093346693	3.600400E+01	  0.093346693	3.253900E+01
368	  0.093547091	-8.312000E+00	  0.093547091	9.201400E+01	  0.093547091	3.629200E+01	  0.093547091	3.267900E+01
369	  0.093747497	-8.335000E+00	  0.093747497	9.147700E+01	  0.093747497	3.657600E+01	  0.093747497	3.282500E+01
370	  0.093947895	-8.358000E+00	  0.093947895	9.098200E+01	  0.093947895	3.684300E+01	  0.093947895	3.295500E+01
371	  0.094148301	-8.383000E+00	  0.094148301	9.047900E+01	  0.094148301	3.712100E+01	  0.094148301	3.307900E+01
372	  0.094348699	-8.410000E+00	  0.094348699	8.998000E+01	  0.094348699	3.740500E+01	  0.094348699	3.319500E+01
373	  0.094549097	-8.427000E+00	  0.094549097	8.950700E+01	  0.094549097	3.765500E+01	  0.094549097	3.332700E+01
374	  0.094749503	-8.452000E+00	  0.094749503	8.901700E+01	  0.094749503	3.793200E+01	  0.094749503	3.344300E+01
375	  0.094949901	-8.473000E+00	  0.094949901	8.852900E+01	  0.094949901	3.820300E+01	  0.094949901	3.356600E+01
376	  0.095150299	-8.489000E+00	  0.095150299	8.806700E+01	  0.095150299	3.845000E+01	  0.095150299	3.369300E+01
377	  0.095350705	-8.510000E+00	  0.095350705	8.758700E+01	  0.095350705	3.872100E+01	  0.095350705	3.381000E+01
378	  0.095551103	-8.529000E+00	  0.095551103	8.711200E+01	  0.095551103	3.898600E+01	  0.095551103	3.392900E+01
379	  0.095751502	-8.548000E+00	  0.095751502	8.667500E+01	  0.095751502	3.923600E+01	  0.095751502	3.403200E+01
380	  0.095951907	-8.563000E+00	  0.095951907	8.620700E+01	  0.095951907	3.949200E+01	  0.095951907	3.415700E+01
381	  0.096152306	-8.585000E+00	  0.096152306	8.576900E+01	  0.096152306	3.975100E+01	  0.096152306	3.425100E+01
382	  0.096352704	-8.600000E+00	  0.096352704	8.531900E+01	  0.096352704	4.000100E+01	  0.096352704	3.436800E+01
383	  0.096553110	-8.611000E+00	  0.096553110	8.488900E+01	  0.096553110	4.023600E+01	  0.096553110	3.448900E+01
384	  0.096753508	-8.627000E+00	  0.096753508	8.446500E+01	  0.096753508	4.048100E+01	  0.096753508	3.458900E+01
385	  0.096953906	-8.639000E+00	  0.096953906	8.405400E+01	  0.096953906	4.071100E+01	  0.096953906	3.469700E+01
386	  0.097154312	-8.656000E+00	  0.097154312	8.358600E+01	  0.097154312	4.098100E+01	  0.097154312	3.481000E+01
387	  0.097354710	-8.664000E+00	  0.097354710	8.313900E+01	  0.097354710	4.122300E+01	  0.097354710	3.494200E+01
388	  0.097555116	-8.682000E+00	  0.097555116	8.274500E+01	  0.097555116	4.146500E+01	  0.097555116	3.502000E+01
389	  0.097755514	-8.694000E+00	  0.097755514	8.233200E+01	  0.097755514	4.170300E+01	  0.097755514	3.512300E+01
390	  0.097955912	-8.701000E+00	  0.097955912	8.190200E+01	  0.097955912	4.194000E+01	  0.097955912	3.524800E+01
391	  0.098156318	-8.712000E+00	  0.098156318	8.150600E+01	  0.098156318	4.217000E+01	  0.098156318	3.534800E+01
392	  0.098356716	-8.720000E+00	  0.098356716	8.108500E+01	  0.098356716	4.241000E+01	  0.098356716	3.546300E+01
393	  0.098557115	-8.732000E+00	  0.098557115	8.064900E+01	  0.098557115	4.266400E+01	  0.098557115	3.557300E+01
394	  0.098757520	-8.731000E+00	  0.098757520	8.022300E+01	  0.098757520	4.289100E+01	  0.098757520	3.571800E+01
395	  0.098957919	-8.742000E+00	  0.098957919	7.980000E+01	  0.098957919	4.314300E+01	  0.098957919	3.582100E+01
396	  0.099158317	-8.746000E+00	  0.099158317	7.940200E+01	  0.099158317	4.336700E+01	  0.099158317	3.594000E+01
397	  0.099358723	-8.749000E+00	  0.099358723	7.898400E+01	  0.099358723	4.360000E+01	  0.099358723	3.607100E+01
398	  0.099559121	-8.752000E+00	  0.099559121	7.857300E+01	  0.099559121	4.383400E+01	  0.099559121	3.619500E+01
399	  0.099759519	-8.755000E+00	  0.099759519	7.815300E+01	  0.099759519	4.407500E+01	  0.099759519	3.632100E+01
400	  0.099959925	-8.747000E+00	  0.099959925	7.777600E+01	  0.099959925	4.427000E+01	  0.099959925	3.647300E+01
401	  0.100160323	-8.747000E+00	  0.100160323	7.729600E+01	  0.100160323	4.454000E+01	  0.100160323	3.663100E+01
402	  0.100360721	-8.748000E+00	  0.100360721	7.690600E+01	  0.100360721	4.476600E+01	  0.100360721	3.675400E+01
403	  0.100561127	-8.747000E+00	  0.100561127	7.650700E+01	  0.100561127	4.499400E+01	  0.100561127	3.688500E+01
404	  0.100761525	-8.728000E+00	  0.100761525	7.606300E+01	  0.100761525	4.521200E+01	  0.100761525	3.710000E+01
405	  0.100961931	-8.726000E+00	  0.100961931	7.567700E+01	  0.100961931	4.543500E+01	  0.100961931	3.723100E+01
406	  0.101162329	-8.721000E+00	  0.101162329	7.517800E+01	  0.101162329	4.572100E+01	  0.101162329	3.740800E+01
407	  0.101362728	-8.716000E+00	  0.101362728	7.481000E+01	  0.101362728	4.593100E+01	  0.101362728	3.754600E+01
408	  0.101563133	-8.715000E+00	  0.101563133	7.439100E+01	  0.101563133	4.618300E+01	  0.101563133	3.767800E+01
409	  0.101763532	-8.702000E+00	  0.101763532	7.398600E+01	  0.101763532	4.640400E+01	  0.101763532	3.785700E+01
410	  0.101963930	-8.695000E+00	  0.101963930	7.345600E+01	  0.101963930	4.671600E+01	  0.101963930	3.804900E+01
411	  0.102164328	-8.685000E+00	  0.102164328	7.303300E+01	  0.102164328	4.696000E+01	  0.102164328	3.822100E+01
412	  0.102364726	-8.672000E+00	  0.102364726	7.258000E+01	  0.102364726	4.721800E+01	  0.102364726	3.841600E+01
413	  0.102565125	-8.662000E+00	  0.102565125	7.214800E+01	  0.102565125	4.747200E+01	  0.102565125	3.858900E+01
414	  0.102765530	-8.650000E+00	  0.102765530	7.172300E+01	  0.102765530	4.772200E+01	  0.102765530	3.876700E+01
415	  0.102965929	-8.636000E+00	  0.102965929	7.125700E+01	  0.102965929	4.799700E+01	  0.102965929	3.896700E+01
416	  0.103166327	-8.621000E+00	  0.103166327	7.080200E+01	  0.103166327	4.826600E+01	  0.103166327	3.916800E+01
417	  0.103366733	-8.615000E+00	  0.103366733	7.032700E+01	  0.103366733	4.856900E+01	  0.103366733	3.933600E+01
418	  0.103567131	-8.599000E+00	  0.103567131	6.981400E+01	  0.103567131	4.888200E+01	  0.103567131	3.955700E+01
419	  0.103767529	-8.592000E+00	  0.103767529	6.933700E+01	  0.103767529	4.919300E+01	  0.103767529	3.972600E+01
420	  0.103967935	-8.572000E+00	  0.103967935	6.884000E+01	  0.103967935	4.949600E+01	  0.103967935	3.996000E+01
421	  0.104168333	-8.556000E+00	  0.104168333	6.834700E+01	  0.104168333	4.980900E+01	  0.104168333	4.017100E+01
422	  0.104368731	-8.547000E+00	  0.104368731	6.784500E+01	  0.104368731	5.014400E+01	  0.104368731	4.035900E+01
423	  0.104569137	-8.525000E+00	  0.104569137	6.739500E+01	  0.104569137	5.042300E+01	  0.104569137	4.058600E+01
424	  0.104769535	-8.502000E+00	  0.104769535	6.682000E+01	  0.104769535	5.079500E+01	  0.104769535	4.085400E+01
425	  0.104969934	-8.496000E+00	  0.104969934	6.634400E+01	  0.104969934	5.113100E+01	  0.104969934	4.101600E+01
426	  0.105170339	-8.468000E+00	  0.105170339	6.577300E+01	  0.105170339	5.150200E+01	  0.105170339	4.130700E+01
427	  0.105370738	-8.457000E+00	  0.105370738	6.522100E+01	  0.105370738	5.189400E+01	  0.105370738	4.151000E+01
428	  0.105571143	-8.447000E+00	  0.105571143	6.465000E+01	  0.105571143	5.230900E+01	  0.105571143	4.171000E+01
429	  0.105771542	-8.428000E+00	  0.105771542	6.411400E+01	  0.105771542	5.268700E+01	  0.105771542	4.194700E+01
430	  0.105971940	-8.415000E+00	  0.105971940	6.354400E+01	  0.105971940	5.310700E+01	  0.105971940	4.216200E+01
431	  0.106172346	-8.395000E+00	  0.106172346	6.297800E+01	  0.106172346	5.351900E+01	  0.106172346	4.240900E+01
432	  0.106372744	-8.373000E+00	  0.106372744	6.238700E+01	  0.106372744	5.395500E+01	  0.106372744	4.266900E+01
433	  0.106573142	-8.357000E+00	  0.106573142	6.181000E+01	  0.106573142	5.439600E+01	  0.106573142	4.289800E+01
434	  0.106773548	-8.338000E+00	  0.106773548	6.119100E+01	  0.106773548	5.487400E+01	  0.106773548	4.314600E+01
435	  0.106973946	-8.321000E+00	  0.106973946	6.059700E+01	  0.106973946	5.534200E+01	  0.106973946	4.337700E+01
436	  0.107174344	-8.304000E+00	  0.107174344	6.004900E+01	  0.107174344	5.577900E+01	  0.107174344	4.359700E+01
437	  0.107374750	-8.289000E+00	  0.107374750	5.940700E+01	  0.107374750	5.630600E+01	  0.107374750	4.382300E+01
438	  0.107575148	-8.268000E+00	  0.107575148	5.881300E+01	  0.107575148	5.679100E+01	  0.107575148	4.407200E+01
439	  0.107775547	-8.256000E+00	  0.107775547	5.819200E+01	  0.107775547	5.732200E+01	  0.107775547	4.427100E+01
440	  0.107975952	-8.232000E+00	  0.107975952	5.755000E+01	  0.107975952	5.786300E+01	  0.107975952	4.454200E+01
441	  0.108176351	-8.220000E+00	  0.108176351	5.693700E+01	  0.108176351	5.840200E+01	  0.108176351	4.473500E+01
442	  0.108376749	-8.204000E+00	  0.108376749	5.626700E+01	  0.108376749	5.899800E+01	  0.108376749	4.495500E+01
443	  0.108577155	-8.184000E+00	  0.108577155	5.559700E+01	  0.108577155	5.960000E+01	  0.108577155	4.519900E+01
444	  0.108777553	-8.173000E+00	  0.108777553	5.496200E+01	  0.108777553	6.018900E+01	  0.108777553	4.537000E+01
445	  0.108977959	-8.150000E+00	  0.108977959	5.426900E+01	  0.108977959	6.083100E+01	  0.108977959	4.562600E+01
446	  0.109178357	-8.145000E+00	  0.109178357	5.359600E+01	  0.109178357	6.148200E+01	  0.109178357	4.576200E+01
447	  0.109378755	-8.126000E+00	  0.109378755	5.288600E+01	  0.109378755	6.216800E+01	  0.109378755	4.598200E+01
448	  0.109579161	-8.114000E+00	  0.109579161	5.225000E+01	  0.109579161	6.279800E+01	  0.109579161	4.613600E+01
449	  0.109779559	-8.099000E+00	  0.109779559	5.152400E+01	  0.109779559	6.352600E+01	  0.109779559	4.632400E+01
450	  0.109979957	-8.083000E+00	  0.109979957	5.084600E+01	  0.109979957	6.421700E+01	  0.109979957	4.649900E+01
451	  0.110180363	-8.075000E+00	  0.110180363	5.011600E+01	  0.110180363	6.497900E+01	  0.110180363	4.662000E+01
452	  0.110380761	-8.069000E+00	  0.110380761	4.940600E+01	  0.110380761	6.573200E+01	  0.110380761	4.671300E+01
453	  0.110581160	-8.059000E+00	  0.110581160	4.865900E+01	  0.110581160	6.653500E+01	  0.110581160	4.682400E+01
454	  0.110781565	-8.041000E+00	  0.110781565	4.790800E+01	  0.110781565	6.735400E+01	  0.110781565	4.697800E+01
455	  0.110981964	-8.036000E+00	  0.110981964	4.719800E+01	  0.110981964	6.814200E+01	  0.110981964	4.703000E+01
456	  0.111182362	-8.036000E+00	  0.111182362	4.642100E+01	  0.111182362	6.901700E+01	  0.111182362	4.703600E+01
457	  0.111382768	-8.022000E+00	  0.111382768	4.567200E+01	  0.111382768	6.987400E+01	  0.111382768	4.712300E+01
458	  0.111583166	-8.021000E+00	  0.111583166	4.491900E+01	  0.111583166	7.074400E+01	  0.111583166	4.710300E+01
459	  0.111783572	-8.018000E+00	  0.111783572	4.408900E+01	  0.111783572	7.171700E+01	  0.111783572	4.707400E+01
460	  0.111983970	-8.014000E+00	  0.111983970	4.325900E+01	  0.111983970	7.270400E+01	  0.111983970	4.703200E+01
461	  0.112184368	-8.017000E+00	  0.112184368	4.249100E+01	  0.112184368	7.362400E+01	  0.112184368	4.692700E+01
462	  0.112384774	-8.010000E+00	  0.112384774	4.166600E+01	  0.112384774	7.463100E+01	  0.112384774	4.686300E+01
463	  0.112585172	-8.005000E+00	  0.112585172	4.088200E+01	  0.112585172	7.559900E+01	  0.112585172	4.677800E+01
464	  0.112785570	-8.013000E+00	  0.112785570	4.005700E+01	  0.112785570	7.661100E+01	  0.112785570	4.654800E+01
465	  0.112985976	-8.005000E+00	  0.112985976	3.918600E+01	  0.112985976	7.771300E+01	  0.112985976	4.641600E+01
466	  0.113186374	-8.013000E+00	  0.113186374	3.835300E+01	  0.113186374	7.875400E+01	  0.113186374	4.614000E+01
467	  0.113386773	-8.022000E+00	  0.113386773	3.750200E+01	  0.113386773	7.981800E+01	  0.113386773	4.581000E+01
468	  0.113587178	-8.022000E+00	  0.113587178	3.659100E+01	  0.113587178	8.098600E+01	  0.113587178	4.551400E+01
469	  0.113787577	-8.026000E+00	  0.113787577	3.572200E+01	  0.113787577	8.209800E+01	  0.113787577	4.516200E+01
470	  0.113987975	-8.038000E+00	  0.113987975	3.487700E+01	  0.113987975	8.316000E+01	  0.113987975	4.471700E+01
471	  0.114188381	-8.046000E+00	  0.114188381	3.398500E+01	  0.114188381	8.429800E+01	  0.114188381	4.425700E+01
472	  0.114388779	-8.056000E+00	  0.114388779	3.312300E+01	  0.114388779	8.539000E+01	  0.114388779	4.375400E+01
473	  0.114589177	-8.068000E+00	  0.114589177	3.217200E+01	  0.114589177	8.658900E+01	  0.114589177	4.315300E+01
474	  0.114789583	-8.079000E+00	  0.114789583	3.123200E+01	  0.114789583	8.777300E+01	  0.114789583	4.252300E+01
475	  0.114989981	-8.098000E+00	  0.114989981	3.032200E+01	  0.114989981	8.887800E+01	  0.114989981	4.179800E+01
476	  0.115190387	-8.114000E+00	  0.115190387	2.936500E+01	  0.115190387	9.004700E+01	  0.115190387	4.103200E+01
477	  0.115390785	-8.129000E+00	  0.115390785	2.841500E+01	  0.115390785	9.120000E+01	  0.115390785	4.023500E+01
478	  0.115591183	-8.149000E+00	  0.115591183	2.748300E+01	  0.115591183	9.228800E+01	  0.115591183	3.936100E+01
479	  0.115791589	-8.167000E+00	  0.115791589	2.656200E+01	  0.115791589	9.335000E+01	  0.115791589	3.846500E+01
480	  0.115991987	-8.191000E+00	  0.115991987	2.558600E+01	  0.115991987	9.443500E+01	  0.115991987	3.744500E+01
481	  0.116192386	-8.213000E+00	  0.116192386	2.460100E+01	  0.116192386	9.550800E+01	  0.116192386	3.637700E+01
482	  0.116392791	-8.240000E+00	  0.116392791	2.358700E+01	  0.116392791	9.655500E+01	  0.116392791	3.520100E+01
483	  0.116593190	-8.268000E+00	  0.116593190	2.254600E+01	  0.116593190	9.759000E+01	  0.116593190	3.394400E+01
484	  0.116793588	-8.304000E+00	  0.116793588	2.157000E+01	  0.116793588	9.845500E+01	  0.116793588	3.265300E+01
485	  0.116993994	-8.332000E+00	  0.116993994	2.054800E+01	  0.116993994	9.937900E+01	  0.116993994	3.132900E+01
486	  0.117194392	-8.376000E+00	  0.117194392	1.948100E+01	  0.117194392	1.001870E+02	  0.117194392	2.980800E+01
487	  0.117394790	-8.412000E+00	  0.117394790	1.842500E+01	  0.117394790	1.009800E+02	  0.117394790	2.831400E+01
488	  0.117595196	-8.452000E+00	  0.117595196	1.739700E+01	  0.117595196	1.016650E+02	  0.117595196	2.680300E+01
489	  0.117795594	-8.500000E+00	  0.117795594	1.631500E+01	  0.117795594	1.022670E+02	  0.117795594	2.514800E+01
490	  0.117995992	-8.542000E+00	  0.117995992	1.521800E+01	  0.117995992	1.028580E+02	  0.117995992	2.348000E+01
491	  0.118196398	-8.589000E+00	  0.118196398	1.411000E+01	  0.118196398	1.033470E+02	  0.118196398	2.175300E+01
492	  0.118396796	-8.644000E+00	  0.118396796	1.300800E+01	  0.118396796	1.036910E+02	  0.118396796	1.998600E+01
493	  0.118597202	-8.696000E+00	  0.118597202	1.184800E+01	  0.118597202	1.040130E+02	  0.118597202	1.814200E+01
494	  0.118797600	-8.757000E+00	  0.118797600	1.077400E+01	  0.118797600	1.041290E+02	  0.118797600	1.638700E+01
