! Anritsu VNA Master:             	Model: MS2036C/10/77
! SN:             	1601066
! /bd0/18may08.cable.cal/bot..49p99.1.txt
! Existing Calibration Information:
! TYPE:             	Current Settings	Active Cal Settings
! TIME:             	05/08/2018 03:36:11 PM	05/08/2018 03:25:16 PM
! INTERNAL TEMP:    	51.8 C	53.3 C
! # POINTS:         	500	500
! START FREQ:       	20.000 MHz	20.000 MHz
! STOP FREQ:        	120.000 MHz	120.000 MHz
! SOURCE POWER:     	High	High
! IFBW:             	50 Hz	50 Hz
! AVG FACTOR:       	  1 	  1 
! REF PLANE 1:      	0 mm	0 mm
! REF PLANE 2:      	0 mm	0 mm
! CAL TYPE:         	Full S11	Full S11
! CAL METHOD:       	SOLT	SOLT
! CAL LINE TYPE:    	Coax	Coax
! DUT PORT 1:       	K-Conn(F)	K-Conn(F)
! DUT PORT 2:       	K-Conn(F)	K-Conn(F)
! CAL STATUS:       	OK: Accuracy High	--
! PROP-V:       	0.700
! CABLE LOSS:       	0.000 dB/m
! REF IMPEDANCE:       	50.0
! Trace Specific Parameters:	TR1	TR2	TR3	TR4
! TRACE.#.Y (GRAPH TYPE)	LOG MAG	PHASE	REAL IMPEDANCE	IMAGINARY IMPEDANCE
! TRACE.#.X 	FREQ.GHZ	FREQ.GHZ	FREQ.GHZ	FREQ.GHZ
! S-PARAMETER	S11	S11	S11	S11
! SMOOTH/APERTURE %	0	0	0	0
! WINDOW	NSL	NSL	NSL	NSL
! GATING	OFF	OFF	OFF	OFF
! FGTD	OFF	OFF	OFF	OFF
Marker Information per Trace:	TR1	TR2	TR3	TR4
!MK1	--	"MK1 TR2:  20.000 MHz,PH:54.89°"	--	--
!MK2	--	--	"MK2 TR3:  70.100 200 MHz,Z:(52.261 ohm, 1.331 ohm)"	--
!MK3	--	--	--	--
!MK4	--	--	--	--
!MK5	--	--	--	--
!MK6	--	--	--	--
!MK7	--	--	--	--
!MK8	--	--	--	--
PNT	TR1.FREQ.GHZ	TR1.LOG MAG.dB	TR2.FREQ.GHZ	TR2.PHASE.deg	TR3.FREQ.GHZ	TR3.REAL IMPEDANCE.ohm	TR4.FREQ.GHZ	TR4.IMAGINARY IMPEDANCE.ohm
1	  0.020000000	-3.953900E+01	  0.020000000	5.488700E+01	  0.020000000	5.060200E+01	  0.020000000	8.730000E-01
2	  0.020200402	-3.953600E+01	  0.020200402	5.490400E+01	  0.020200402	5.060200E+01	  0.020200402	8.730000E-01
3	  0.020400802	-3.948000E+01	  0.020400802	5.480000E+01	  0.020400802	5.060800E+01	  0.020400802	8.780000E-01
4	  0.020601204	-3.945500E+01	  0.020601204	5.431200E+01	  0.020601204	5.061700E+01	  0.020601204	8.750000E-01
5	  0.020801604	-3.940700E+01	  0.020801604	5.460600E+01	  0.020801604	5.061600E+01	  0.020801604	8.830000E-01
6	  0.021002004	-3.933400E+01	  0.021002004	5.461400E+01	  0.021002004	5.062100E+01	  0.021002004	8.910000E-01
7	  0.021202406	-3.928800E+01	  0.021202406	5.446400E+01	  0.021202406	5.062600E+01	  0.021202406	8.940000E-01
8	  0.021402806	-3.921100E+01	  0.021402806	5.427800E+01	  0.021402806	5.063500E+01	  0.021402806	9.000000E-01
9	  0.021603208	-3.915300E+01	  0.021603208	5.442900E+01	  0.021603208	5.063700E+01	  0.021603208	9.080000E-01
10	  0.021803608	-3.908800E+01	  0.021803608	5.398200E+01	  0.021803608	5.064900E+01	  0.021803608	9.100000E-01
11	  0.022004008	-3.904000E+01	  0.022004008	5.383500E+01	  0.022004008	5.065500E+01	  0.022004008	9.130000E-01
12	  0.022204408	-3.899200E+01	  0.022204408	5.397600E+01	  0.022204408	5.065600E+01	  0.022204408	9.200000E-01
13	  0.022404809	-3.896800E+01	  0.022404809	5.353300E+01	  0.022404809	5.066500E+01	  0.022404809	9.170000E-01
14	  0.022605211	-3.883100E+01	  0.022605211	5.358100E+01	  0.022605211	5.067500E+01	  0.022605211	9.330000E-01
15	  0.022805611	-3.876100E+01	  0.022805611	5.332900E+01	  0.022805611	5.068400E+01	  0.022805611	9.370000E-01
16	  0.023006011	-3.874400E+01	  0.023006011	5.373600E+01	  0.023006011	5.067900E+01	  0.023006011	9.440000E-01
17	  0.023206413	-3.861500E+01	  0.023206413	5.347100E+01	  0.023206413	5.069300E+01	  0.023206413	9.550000E-01
18	  0.023406813	-3.856200E+01	  0.023406813	5.367500E+01	  0.023406813	5.069400E+01	  0.023406813	9.640000E-01
19	  0.023607215	-3.853000E+01	  0.023607215	5.292000E+01	  0.023607215	5.071000E+01	  0.023607215	9.580000E-01
20	  0.023807615	-3.847700E+01	  0.023807615	5.328100E+01	  0.023807615	5.070800E+01	  0.023807615	9.680000E-01
21	  0.024008015	-3.840400E+01	  0.024008015	5.357600E+01	  0.024008015	5.070900E+01	  0.024008015	9.800000E-01
22	  0.024208417	-3.832900E+01	  0.024208417	5.251400E+01	  0.024208417	5.073300E+01	  0.024208417	9.760000E-01
23	  0.024408817	-3.834000E+01	  0.024408817	5.300500E+01	  0.024408817	5.072400E+01	  0.024408817	9.810000E-01
24	  0.024609219	-3.824100E+01	  0.024609219	5.324200E+01	  0.024609219	5.072800E+01	  0.024609219	9.950000E-01
25	  0.024809619	-3.815900E+01	  0.024809619	5.297700E+01	  0.024809619	5.073900E+01	  0.024809619	1.001000E+00
26	  0.025010020	-3.810700E+01	  0.025010020	5.252600E+01	  0.025010020	5.075200E+01	  0.025010020	1.001000E+00
27	  0.025210422	-3.809500E+01	  0.025210422	5.275400E+01	  0.025210422	5.074900E+01	  0.025210422	1.006000E+00
28	  0.025410822	-3.793500E+01	  0.025410822	5.319800E+01	  0.025410822	5.075500E+01	  0.025410822	1.031000E+00
29	  0.025611224	-3.797200E+01	  0.025611224	5.242300E+01	  0.025611224	5.076500E+01	  0.025611224	1.016000E+00
30	  0.025811624	-3.792100E+01	  0.025811624	5.275400E+01	  0.025811624	5.076400E+01	  0.025811624	1.026000E+00
31	  0.026012026	-3.789900E+01	  0.026012026	5.273900E+01	  0.026012026	5.076600E+01	  0.026012026	1.029000E+00
32	  0.026212426	-3.775400E+01	  0.026212426	5.243500E+01	  0.026212426	5.078500E+01	  0.026212426	1.042000E+00
33	  0.026412826	-3.773900E+01	  0.026412826	5.277300E+01	  0.026412826	5.078000E+01	  0.026412826	1.049000E+00
34	  0.026613226	-3.765800E+01	  0.026613226	5.237500E+01	  0.026613226	5.079400E+01	  0.026613226	1.053000E+00
35	  0.026813626	-3.761100E+01	  0.026813626	5.218000E+01	  0.026813626	5.080200E+01	  0.026813626	1.056000E+00
36	  0.027014028	-3.753600E+01	  0.027014028	5.240500E+01	  0.027014028	5.080500E+01	  0.027014028	1.069000E+00
37	  0.027214428	-3.751800E+01	  0.027214428	5.233400E+01	  0.027214428	5.080800E+01	  0.027214428	1.070000E+00
38	  0.027414829	-3.744900E+01	  0.027414829	5.209200E+01	  0.027414829	5.081900E+01	  0.027414829	1.075000E+00
39	  0.027615231	-3.741400E+01	  0.027615231	5.204000E+01	  0.027615231	5.082300E+01	  0.027615231	1.079000E+00
40	  0.027815631	-3.737500E+01	  0.027815631	5.158600E+01	  0.027815631	5.083600E+01	  0.027815631	1.077000E+00
41	  0.028016033	-3.731100E+01	  0.028016033	5.177700E+01	  0.028016033	5.083800E+01	  0.028016033	1.088000E+00
42	  0.028216433	-3.731400E+01	  0.028216433	5.180600E+01	  0.028216433	5.083700E+01	  0.028216433	1.088000E+00
43	  0.028416833	-3.724500E+01	  0.028416833	5.130100E+01	  0.028416833	5.085400E+01	  0.028416833	1.090000E+00
44	  0.028617235	-3.717900E+01	  0.028617235	5.158400E+01	  0.028617235	5.085500E+01	  0.028617235	1.102000E+00
45	  0.028817635	-3.717700E+01	  0.028817635	5.136700E+01	  0.028817635	5.085900E+01	  0.028817635	1.099000E+00
46	  0.029018037	-3.711000E+01	  0.029018037	5.128800E+01	  0.029018037	5.086700E+01	  0.029018037	1.107000E+00
47	  0.029218437	-3.703500E+01	  0.029218437	5.113600E+01	  0.029218437	5.087800E+01	  0.029218437	1.114000E+00
48	  0.029418837	-3.698000E+01	  0.029418837	5.126400E+01	  0.029418837	5.088100E+01	  0.029418837	1.124000E+00
49	  0.029619239	-3.693700E+01	  0.029619239	5.096800E+01	  0.029619239	5.089100E+01	  0.029619239	1.125000E+00
50	  0.029819639	-3.688800E+01	  0.029819639	5.091300E+01	  0.029819639	5.089700E+01	  0.029819639	1.130000E+00
51	  0.030020041	-3.688500E+01	  0.030020041	5.059300E+01	  0.030020041	5.090400E+01	  0.030020041	1.126000E+00
52	  0.030220442	-3.682300E+01	  0.030220442	5.051600E+01	  0.030220442	5.091200E+01	  0.030220442	1.133000E+00
53	  0.030420844	-3.677100E+01	  0.030420844	5.035100E+01	  0.030420844	5.092100E+01	  0.030420844	1.137000E+00
54	  0.030621244	-3.674500E+01	  0.030621244	5.029300E+01	  0.030621244	5.092500E+01	  0.030621244	1.140000E+00
55	  0.030821644	-3.666900E+01	  0.030821644	5.028700E+01	  0.030821644	5.093300E+01	  0.030821644	1.150000E+00
56	  0.031022044	-3.664700E+01	  0.031022044	5.018900E+01	  0.031022044	5.093700E+01	  0.031022044	1.151000E+00
57	  0.031222444	-3.658700E+01	  0.031222444	5.041700E+01	  0.031222444	5.093900E+01	  0.031222444	1.163000E+00
58	  0.031422846	-3.657500E+01	  0.031422846	5.036100E+01	  0.031422846	5.094100E+01	  0.031422846	1.164000E+00
59	  0.031623244	-3.644400E+01	  0.031623244	4.960900E+01	  0.031623244	5.097100E+01	  0.031623244	1.169000E+00
60	  0.031823646	-3.642300E+01	  0.031823646	4.927400E+01	  0.031823646	5.098100E+01	  0.031823646	1.166000E+00
61	  0.032024048	-3.638100E+01	  0.032024048	4.931300E+01	  0.032024048	5.098500E+01	  0.032024048	1.173000E+00
62	  0.032224450	-3.635400E+01	  0.032224450	4.934200E+01	  0.032224450	5.098700E+01	  0.032224450	1.177000E+00
63	  0.032424849	-3.631400E+01	  0.032424849	4.960500E+01	  0.032424849	5.098600E+01	  0.032424849	1.187000E+00
64	  0.032625251	-3.628000E+01	  0.032625251	4.972000E+01	  0.032625251	5.098700E+01	  0.032625251	1.194000E+00
65	  0.032825653	-3.626700E+01	  0.032825653	4.932400E+01	  0.032825653	5.099700E+01	  0.032825653	1.189000E+00
66	  0.033026051	-3.620200E+01	  0.033026051	4.947900E+01	  0.033026051	5.100100E+01	  0.033026051	1.200000E+00
67	  0.033226453	-3.621000E+01	  0.033226453	4.933000E+01	  0.033226453	5.100400E+01	  0.033226453	1.197000E+00
68	  0.033426855	-3.614300E+01	  0.033426855	4.900100E+01	  0.033426855	5.101900E+01	  0.033426855	1.200000E+00
69	  0.033627257	-3.608400E+01	  0.033627257	4.909500E+01	  0.033627257	5.102300E+01	  0.033627257	1.210000E+00
70	  0.033827655	-3.608900E+01	  0.033827655	4.844300E+01	  0.033827655	5.103700E+01	  0.033827655	1.198000E+00
71	  0.034028057	-3.606100E+01	  0.034028057	4.901400E+01	  0.034028057	5.102800E+01	  0.034028057	1.212000E+00
72	  0.034228459	-3.595000E+01	  0.034228459	4.852900E+01	  0.034228459	5.105200E+01	  0.034228459	1.219000E+00
73	  0.034428857	-3.599400E+01	  0.034428857	4.856900E+01	  0.034428857	5.104500E+01	  0.034428857	1.214000E+00
74	  0.034629259	-3.590000E+01	  0.034629259	4.874500E+01	  0.034629259	5.105300E+01	  0.034629259	1.231000E+00
75	  0.034829661	-3.585800E+01	  0.034829661	4.834900E+01	  0.034829661	5.106700E+01	  0.034829661	1.229000E+00
76	  0.035030060	-3.586400E+01	  0.035030060	4.808200E+01	  0.035030060	5.107200E+01	  0.035030060	1.223000E+00
77	  0.035230462	-3.581600E+01	  0.035230462	4.829500E+01	  0.035230462	5.107300E+01	  0.035230462	1.234000E+00
78	  0.035430863	-3.582100E+01	  0.035430863	4.818000E+01	  0.035430863	5.107500E+01	  0.035430863	1.231000E+00
79	  0.035631265	-3.570700E+01	  0.035631265	4.827800E+01	  0.035631265	5.108700E+01	  0.035631265	1.250000E+00
80	  0.035831664	-3.569700E+01	  0.035831664	4.786200E+01	  0.035831664	5.109800E+01	  0.035831664	1.244000E+00
81	  0.036032066	-3.564800E+01	  0.036032066	4.780600E+01	  0.036032066	5.110500E+01	  0.036032066	1.250000E+00
82	  0.036232468	-3.563900E+01	  0.036232468	4.763400E+01	  0.036232468	5.111000E+01	  0.036232468	1.248000E+00
83	  0.036432866	-3.561500E+01	  0.036432866	4.777300E+01	  0.036432866	5.111000E+01	  0.036432866	1.254000E+00
84	  0.036633268	-3.556400E+01	  0.036633268	4.772000E+01	  0.036633268	5.111800E+01	  0.036633268	1.260000E+00
85	  0.036833670	-3.552700E+01	  0.036833670	4.744900E+01	  0.036833670	5.112800E+01	  0.036833670	1.260000E+00
86	  0.037034072	-3.548500E+01	  0.037034072	4.747600E+01	  0.037034072	5.113300E+01	  0.037034072	1.267000E+00
87	  0.037234470	-3.548700E+01	  0.037234470	4.693700E+01	  0.037234470	5.114500E+01	  0.037234470	1.256000E+00
88	  0.037434869	-3.544600E+01	  0.037434869	4.740300E+01	  0.037434869	5.114000E+01	  0.037434869	1.272000E+00
89	  0.037635271	-3.540300E+01	  0.037635271	4.735300E+01	  0.037635271	5.114700E+01	  0.037635271	1.277000E+00
90	  0.037835669	-3.536400E+01	  0.037835669	4.700300E+01	  0.037835669	5.116000E+01	  0.037835669	1.276000E+00
91	  0.038036071	-3.532600E+01	  0.038036071	4.688200E+01	  0.038036071	5.116800E+01	  0.038036071	1.279000E+00
92	  0.038236473	-3.524000E+01	  0.038236473	4.709900E+01	  0.038236473	5.117400E+01	  0.038236473	1.297000E+00
93	  0.038436871	-3.527000E+01	  0.038436871	4.707400E+01	  0.038436871	5.117100E+01	  0.038436871	1.292000E+00
94	  0.038637273	-3.525600E+01	  0.038637273	4.676500E+01	  0.038637273	5.118000E+01	  0.038637273	1.287000E+00
95	  0.038837675	-3.520300E+01	  0.038837675	4.669200E+01	  0.038837675	5.118900E+01	  0.038837675	1.294000E+00
96	  0.039038073	-3.513000E+01	  0.039038073	4.664400E+01	  0.039038073	5.120000E+01	  0.039038073	1.304000E+00
97	  0.039238475	-3.515800E+01	  0.039238475	4.670700E+01	  0.039238475	5.119500E+01	  0.039238475	1.301000E+00
98	  0.039438877	-3.511300E+01	  0.039438877	4.670100E+01	  0.039438877	5.120100E+01	  0.039438877	1.308000E+00
99	  0.039639279	-3.504000E+01	  0.039639279	4.623400E+01	  0.039639279	5.122200E+01	  0.039639279	1.309000E+00
100	  0.039839678	-3.504200E+01	  0.039839678	4.583300E+01	  0.039839678	5.123100E+01	  0.039839678	1.300000E+00
101	  0.040040080	-3.506400E+01	  0.040040080	4.601000E+01	  0.040040080	5.122400E+01	  0.040040080	1.301000E+00
102	  0.040240481	-3.497000E+01	  0.040240481	4.607800E+01	  0.040240481	5.123600E+01	  0.040240481	1.317000E+00
103	  0.040440880	-3.494600E+01	  0.040440880	4.581200E+01	  0.040440880	5.124500E+01	  0.040440880	1.315000E+00
104	  0.040641282	-3.491800E+01	  0.040641282	4.602900E+01	  0.040641282	5.124400E+01	  0.040641282	1.324000E+00
105	  0.040841684	-3.483500E+01	  0.040841684	4.578600E+01	  0.040841684	5.126200E+01	  0.040841684	1.332000E+00
106	  0.041042086	-3.485000E+01	  0.041042086	4.548700E+01	  0.041042086	5.126700E+01	  0.041042086	1.323000E+00
107	  0.041242484	-3.477700E+01	  0.041242484	4.546100E+01	  0.041242484	5.127800E+01	  0.041242484	1.334000E+00
108	  0.041442886	-3.476500E+01	  0.041442886	4.548800E+01	  0.041442886	5.127900E+01	  0.041442886	1.336000E+00
109	  0.041643288	-3.477000E+01	  0.041643288	4.527000E+01	  0.041643288	5.128400E+01	  0.041643288	1.330000E+00
110	  0.041843686	-3.470100E+01	  0.041843686	4.507800E+01	  0.041843686	5.129900E+01	  0.041843686	1.337000E+00
111	  0.042044088	-3.468700E+01	  0.042044088	4.523200E+01	  0.042044088	5.129700E+01	  0.042044088	1.343000E+00
112	  0.042244490	-3.465000E+01	  0.042244490	4.502900E+01	  0.042244490	5.130700E+01	  0.042244490	1.344000E+00
113	  0.042444889	-3.467500E+01	  0.042444889	4.463000E+01	  0.042444889	5.131300E+01	  0.042444889	1.331000E+00
114	  0.042645290	-3.457700E+01	  0.042645290	4.500600E+01	  0.042645290	5.131900E+01	  0.042645290	1.355000E+00
115	  0.042845692	-3.459400E+01	  0.042845692	4.504900E+01	  0.042845692	5.131500E+01	  0.042845692	1.353000E+00
116	  0.043046094	-3.454800E+01	  0.043046094	4.485700E+01	  0.043046094	5.132700E+01	  0.043046094	1.356000E+00
117	  0.043246493	-3.451400E+01	  0.043246493	4.496600E+01	  0.043246493	5.133000E+01	  0.043246493	1.364000E+00
118	  0.043446895	-3.445700E+01	  0.043446895	4.461300E+01	  0.043446895	5.134700E+01	  0.043446895	1.365000E+00
119	  0.043647297	-3.450100E+01	  0.043647297	4.454000E+01	  0.043647297	5.134200E+01	  0.043647297	1.356000E+00
120	  0.043847695	-3.443200E+01	  0.043847695	4.448900E+01	  0.043847695	5.135400E+01	  0.043847695	1.366000E+00
121	  0.044048097	-3.439700E+01	  0.044048097	4.431100E+01	  0.044048097	5.136400E+01	  0.044048097	1.368000E+00
122	  0.044248499	-3.441700E+01	  0.044248499	4.397500E+01	  0.044248499	5.136900E+01	  0.044248499	1.357000E+00
123	  0.044448901	-3.439100E+01	  0.044448901	4.452500E+01	  0.044448901	5.135900E+01	  0.044448901	1.374000E+00
124	  0.044649299	-3.432100E+01	  0.044649299	4.419600E+01	  0.044649299	5.137900E+01	  0.044649299	1.377000E+00
125	  0.044849701	-3.429700E+01	  0.044849701	4.381600E+01	  0.044849701	5.139200E+01	  0.044849701	1.372000E+00
126	  0.045050103	-3.430500E+01	  0.045050103	4.374000E+01	  0.045050103	5.139200E+01	  0.045050103	1.369000E+00
127	  0.045250501	-3.430500E+01	  0.045250501	4.375800E+01	  0.045250501	5.139200E+01	  0.045250501	1.369000E+00
128	  0.045450903	-3.426200E+01	  0.045450903	4.355100E+01	  0.045450903	5.140400E+01	  0.045450903	1.371000E+00
129	  0.045651305	-3.413100E+01	  0.045651305	4.357300E+01	  0.045651305	5.142500E+01	  0.045651305	1.393000E+00
130	  0.045851704	-3.417500E+01	  0.045851704	4.351300E+01	  0.045851704	5.141900E+01	  0.045851704	1.385000E+00
131	  0.046052106	-3.411600E+01	  0.046052106	4.345100E+01	  0.046052106	5.143000E+01	  0.046052106	1.393000E+00
132	  0.046252504	-3.418000E+01	  0.046252504	4.332400E+01	  0.046252504	5.142300E+01	  0.046252504	1.379000E+00
133	  0.046452906	-3.407800E+01	  0.046452906	4.307100E+01	  0.046452906	5.144600E+01	  0.046452906	1.389000E+00
134	  0.046653304	-3.410800E+01	  0.046653304	4.324000E+01	  0.046653304	5.143700E+01	  0.046653304	1.389000E+00
135	  0.046853706	-3.404800E+01	  0.046853706	4.307000E+01	  0.046853706	5.145100E+01	  0.046853706	1.394000E+00
136	  0.047054108	-3.401100E+01	  0.047054108	4.307800E+01	  0.047054108	5.145700E+01	  0.047054108	1.401000E+00
137	  0.047254506	-3.394800E+01	  0.047254506	4.294500E+01	  0.047254506	5.147100E+01	  0.047254506	1.408000E+00
138	  0.047454908	-3.396800E+01	  0.047454908	4.307500E+01	  0.047454908	5.146400E+01	  0.047454908	1.408000E+00
139	  0.047655310	-3.394200E+01	  0.047655310	4.271500E+01	  0.047655310	5.147800E+01	  0.047655310	1.403000E+00
140	  0.047855709	-3.391500E+01	  0.047855709	4.258700E+01	  0.047855709	5.148600E+01	  0.047855709	1.404000E+00
141	  0.048056111	-3.392400E+01	  0.048056111	4.264900E+01	  0.048056111	5.148300E+01	  0.048056111	1.404000E+00
142	  0.048256513	-3.387600E+01	  0.048256513	4.266400E+01	  0.048256513	5.149000E+01	  0.048256513	1.413000E+00
143	  0.048456915	-3.389000E+01	  0.048456915	4.230900E+01	  0.048456915	5.149700E+01	  0.048456915	1.401000E+00
144	  0.048657313	-3.385200E+01	  0.048657313	4.227600E+01	  0.048657313	5.150400E+01	  0.048657313	1.406000E+00
145	  0.048857715	-3.380700E+01	  0.048857715	4.202200E+01	  0.048857715	5.151900E+01	  0.048857715	1.407000E+00
146	  0.049058117	-3.379000E+01	  0.049058117	4.200100E+01	  0.049058117	5.152200E+01	  0.049058117	1.409000E+00
147	  0.049258515	-3.375900E+01	  0.049258515	4.207900E+01	  0.049258515	5.152600E+01	  0.049258515	1.417000E+00
148	  0.049458917	-3.375000E+01	  0.049458917	4.176100E+01	  0.049458917	5.153500E+01	  0.049458917	1.410000E+00
149	  0.049659319	-3.376300E+01	  0.049659319	4.153200E+01	  0.049659319	5.153900E+01	  0.049659319	1.401000E+00
150	  0.049859721	-3.370600E+01	  0.049859721	4.140900E+01	  0.049859721	5.155200E+01	  0.049859721	1.408000E+00
151	  0.050060119	-3.370100E+01	  0.050060119	4.146600E+01	  0.050060119	5.155200E+01	  0.050060119	1.410000E+00
152	  0.050260521	-3.367400E+01	  0.050260521	4.142300E+01	  0.050260521	5.155800E+01	  0.050260521	1.413000E+00
153	  0.050460923	-3.365800E+01	  0.050460923	4.140200E+01	  0.050460923	5.156100E+01	  0.050460923	1.415000E+00
154	  0.050661322	-3.360200E+01	  0.050661322	4.134400E+01	  0.050661322	5.157300E+01	  0.050661322	1.423000E+00
155	  0.050861724	-3.360800E+01	  0.050861724	4.091900E+01	  0.050861724	5.158200E+01	  0.050861724	1.410000E+00
156	  0.051062126	-3.362900E+01	  0.051062126	4.070700E+01	  0.051062126	5.158400E+01	  0.051062126	1.401000E+00
157	  0.051262524	-3.357300E+01	  0.051262524	4.040900E+01	  0.051262524	5.160200E+01	  0.051262524	1.402000E+00
158	  0.051462926	-3.358300E+01	  0.051462926	4.040800E+01	  0.051462926	5.160000E+01	  0.051462926	1.401000E+00
159	  0.051663328	-3.356800E+01	  0.051663328	4.057200E+01	  0.051663328	5.159800E+01	  0.051663328	1.408000E+00
160	  0.051863730	-3.351700E+01	  0.051863730	4.037900E+01	  0.051863730	5.161300E+01	  0.051863730	1.411000E+00
161	  0.052064128	-3.348800E+01	  0.052064128	4.029900E+01	  0.052064128	5.162000E+01	  0.052064128	1.413000E+00
162	  0.052264530	-3.345400E+01	  0.052264530	4.025900E+01	  0.052264530	5.162800E+01	  0.052264530	1.418000E+00
163	  0.052464932	-3.343600E+01	  0.052464932	4.018500E+01	  0.052464932	5.163300E+01	  0.052464932	1.419000E+00
164	  0.052665330	-3.338400E+01	  0.052665330	3.993500E+01	  0.052665330	5.164900E+01	  0.052665330	1.420000E+00
165	  0.052865732	-3.338500E+01	  0.052865732	3.979900E+01	  0.052865732	5.165300E+01	  0.052865732	1.416000E+00
166	  0.053066134	-3.334400E+01	  0.053066134	3.975500E+01	  0.053066134	5.166200E+01	  0.053066134	1.422000E+00
167	  0.053266536	-3.334600E+01	  0.053266536	3.958800E+01	  0.053266536	5.166500E+01	  0.053266536	1.417000E+00
168	  0.053466935	-3.333000E+01	  0.053466935	3.952500E+01	  0.053466935	5.167000E+01	  0.053466935	1.418000E+00
169	  0.053667337	-3.329800E+01	  0.053667337	3.915300E+01	  0.053667337	5.168600E+01	  0.053667337	1.412000E+00
170	  0.053867739	-3.328400E+01	  0.053867739	3.949100E+01	  0.053867739	5.168000E+01	  0.053867739	1.424000E+00
171	  0.054068137	-3.329000E+01	  0.054068137	3.898200E+01	  0.054068137	5.169200E+01	  0.054068137	1.408000E+00
172	  0.054268539	-3.326400E+01	  0.054268539	3.920400E+01	  0.054268539	5.169100E+01	  0.054268539	1.419000E+00
173	  0.054468941	-3.324100E+01	  0.054468941	3.912300E+01	  0.054468941	5.169800E+01	  0.054468941	1.421000E+00
174	  0.054669339	-3.323100E+01	  0.054669339	3.893200E+01	  0.054669339	5.170500E+01	  0.054669339	1.417000E+00
175	  0.054869737	-3.318300E+01	  0.054869737	3.900600E+01	  0.054869737	5.171200E+01	  0.054869737	1.427000E+00
176	  0.055070139	-3.316900E+01	  0.055070139	3.885400E+01	  0.055070139	5.171900E+01	  0.055070139	1.425000E+00
177	  0.055270538	-3.317000E+01	  0.055270538	3.854400E+01	  0.055270538	5.172700E+01	  0.055270538	1.415000E+00
178	  0.055470940	-3.313000E+01	  0.055470940	3.858100E+01	  0.055470940	5.173400E+01	  0.055470940	1.423000E+00
179	  0.055671342	-3.313300E+01	  0.055671342	3.849700E+01	  0.055671342	5.173500E+01	  0.055671342	1.420000E+00
180	  0.055871744	-3.310800E+01	  0.055871744	3.835800E+01	  0.055871744	5.174400E+01	  0.055871744	1.420000E+00
181	  0.056072142	-3.307000E+01	  0.056072142	3.810100E+01	  0.056072142	5.175800E+01	  0.056072142	1.419000E+00
182	  0.056272544	-3.307100E+01	  0.056272544	3.788300E+01	  0.056272544	5.176400E+01	  0.056272544	1.412000E+00
183	  0.056472946	-3.304400E+01	  0.056472946	3.793400E+01	  0.056472946	5.176800E+01	  0.056472946	1.418000E+00
184	  0.056673344	-3.298300E+01	  0.056673344	3.774600E+01	  0.056673344	5.178500E+01	  0.056673344	1.422000E+00
185	  0.056873746	-3.299800E+01	  0.056873746	3.765100E+01	  0.056873746	5.178500E+01	  0.056873746	1.417000E+00
186	  0.057074148	-3.295300E+01	  0.057074148	3.729700E+01	  0.057074148	5.180300E+01	  0.057074148	1.413000E+00
187	  0.057274550	-3.295500E+01	  0.057274550	3.751100E+01	  0.057274550	5.179700E+01	  0.057274550	1.420000E+00
188	  0.057474948	-3.295100E+01	  0.057474948	3.724800E+01	  0.057474948	5.180500E+01	  0.057474948	1.412000E+00
189	  0.057675350	-3.289500E+01	  0.057675350	3.685800E+01	  0.057675350	5.182600E+01	  0.057675350	1.409000E+00
190	  0.057875752	-3.289300E+01	  0.057875752	3.712800E+01	  0.057875752	5.182000E+01	  0.057875752	1.418000E+00
191	  0.058076151	-3.289500E+01	  0.058076151	3.687400E+01	  0.058076151	5.182600E+01	  0.058076151	1.409000E+00
192	  0.058276553	-3.284100E+01	  0.058276553	3.642300E+01	  0.058276553	5.184900E+01	  0.058276553	1.404000E+00
193	  0.058476955	-3.283800E+01	  0.058476955	3.675100E+01	  0.058476955	5.184100E+01	  0.058476955	1.415000E+00
194	  0.058677353	-3.281200E+01	  0.058677353	3.629600E+01	  0.058677353	5.185800E+01	  0.058677353	1.405000E+00
195	  0.058877755	-3.276600E+01	  0.058877755	3.633900E+01	  0.058877755	5.186700E+01	  0.058877755	1.414000E+00
196	  0.059078157	-3.280200E+01	  0.059078157	3.639300E+01	  0.059078157	5.185800E+01	  0.059078157	1.410000E+00
197	  0.059278559	-3.278700E+01	  0.059278559	3.620100E+01	  0.059278559	5.186600E+01	  0.059278559	1.406000E+00
198	  0.059478957	-3.276500E+01	  0.059478957	3.603300E+01	  0.059478957	5.187500E+01	  0.059478957	1.404000E+00
199	  0.059679359	-3.273400E+01	  0.059679359	3.589400E+01	  0.059679359	5.188600E+01	  0.059679359	1.405000E+00
200	  0.059879761	-3.272800E+01	  0.059879761	3.607500E+01	  0.059879761	5.188200E+01	  0.059879761	1.412000E+00
201	  0.060080159	-3.269700E+01	  0.060080159	3.580700E+01	  0.060080159	5.189600E+01	  0.060080159	1.408000E+00
202	  0.060280561	-3.266400E+01	  0.060280561	3.535900E+01	  0.060280561	5.191500E+01	  0.060280561	1.398000E+00
203	  0.060480963	-3.264700E+01	  0.060480963	3.570000E+01	  0.060480963	5.191000E+01	  0.060480963	1.413000E+00
204	  0.060681365	-3.263000E+01	  0.060681365	3.532700E+01	  0.060681365	5.192300E+01	  0.060681365	1.403000E+00
205	  0.060881764	-3.267200E+01	  0.060881764	3.507800E+01	  0.060881764	5.192000E+01	  0.060881764	1.388000E+00
206	  0.061082166	-3.263100E+01	  0.061082166	3.492400E+01	  0.061082166	5.193300E+01	  0.061082166	1.389000E+00
207	  0.061282568	-3.262300E+01	  0.061282568	3.500600E+01	  0.061282568	5.193300E+01	  0.061282568	1.393000E+00
208	  0.061482966	-3.256100E+01	  0.061482966	3.488800E+01	  0.061482966	5.195000E+01	  0.061482966	1.400000E+00
209	  0.061683368	-3.254200E+01	  0.061683368	3.468000E+01	  0.061683368	5.195900E+01	  0.061683368	1.396000E+00
210	  0.061883770	-3.252900E+01	  0.061883770	3.470700E+01	  0.061883770	5.196200E+01	  0.061883770	1.399000E+00
211	  0.062084168	-3.252300E+01	  0.062084168	3.450900E+01	  0.062084168	5.196800E+01	  0.062084168	1.393000E+00
212	  0.062284570	-3.246000E+01	  0.062284570	3.431600E+01	  0.062284570	5.198700E+01	  0.062284570	1.397000E+00
213	  0.062484972	-3.242300E+01	  0.062484972	3.439500E+01	  0.062484972	5.199400E+01	  0.062484972	1.406000E+00
214	  0.062685370	-3.245300E+01	  0.062685370	3.425100E+01	  0.062685370	5.199100E+01	  0.062685370	1.396000E+00
215	  0.062885776	-3.243500E+01	  0.062885776	3.426600E+01	  0.062885776	5.199400E+01	  0.062885776	1.399000E+00
216	  0.063086174	-3.242500E+01	  0.063086174	3.406700E+01	  0.063086174	5.200200E+01	  0.063086174	1.394000E+00
217	  0.063286573	-3.235900E+01	  0.063286573	3.402500E+01	  0.063286573	5.201800E+01	  0.063286573	1.403000E+00
218	  0.063486971	-3.237900E+01	  0.063486971	3.390500E+01	  0.063486971	5.201700E+01	  0.063486971	1.396000E+00
219	  0.063687377	-3.231700E+01	  0.063687377	3.377000E+01	  0.063687377	5.203500E+01	  0.063687377	1.401000E+00
220	  0.063887775	-3.234300E+01	  0.063887775	3.340600E+01	  0.063887775	5.203800E+01	  0.063887775	1.384000E+00
221	  0.064088173	-3.233300E+01	  0.064088173	3.367100E+01	  0.064088173	5.203300E+01	  0.064088173	1.395000E+00
222	  0.064288579	-3.230900E+01	  0.064288579	3.327300E+01	  0.064288579	5.204900E+01	  0.064288579	1.385000E+00
223	  0.064488977	-3.231700E+01	  0.064488977	3.356300E+01	  0.064488977	5.204000E+01	  0.064488977	1.394000E+00
224	  0.064689375	-3.225200E+01	  0.064689375	3.335800E+01	  0.064689375	5.206100E+01	  0.064689375	1.397000E+00
225	  0.064889781	-3.226600E+01	  0.064889781	3.287900E+01	  0.064889781	5.206900E+01	  0.064889781	1.377000E+00
226	  0.065090179	-3.227300E+01	  0.065090179	3.289900E+01	  0.065090179	5.206700E+01	  0.065090179	1.377000E+00
227	  0.065290578	-3.220000E+01	  0.065290578	3.288400E+01	  0.065290578	5.208500E+01	  0.065290578	1.389000E+00
228	  0.065490983	-3.216200E+01	  0.065490983	3.268500E+01	  0.065490983	5.209900E+01	  0.065490983	1.388000E+00
229	  0.065691382	-3.219600E+01	  0.065691382	3.276500E+01	  0.065691382	5.208900E+01	  0.065691382	1.385000E+00
230	  0.065891780	-3.217300E+01	  0.065891780	3.225900E+01	  0.065891780	5.210800E+01	  0.065891780	1.370000E+00
231	  0.066092186	-3.214900E+01	  0.066092186	3.237200E+01	  0.066092186	5.211000E+01	  0.066092186	1.378000E+00
232	  0.066292584	-3.214600E+01	  0.066292584	3.216100E+01	  0.066292584	5.211700E+01	  0.066292584	1.371000E+00
233	  0.066492982	-3.218000E+01	  0.066492982	3.217300E+01	  0.066492982	5.210800E+01	  0.066492982	1.366000E+00
234	  0.066693388	-3.209300E+01	  0.066693388	3.219200E+01	  0.066693388	5.212900E+01	  0.066693388	1.381000E+00
235	  0.066893786	-3.211700E+01	  0.066893786	3.189500E+01	  0.066893786	5.213000E+01	  0.066893786	1.366000E+00
236	  0.067094192	-3.204200E+01	  0.067094192	3.207600E+01	  0.067094192	5.214500E+01	  0.067094192	1.385000E+00
237	  0.067294590	-3.205700E+01	  0.067294590	3.161200E+01	  0.067294590	5.215200E+01	  0.067294590	1.365000E+00
238	  0.067494988	-3.204400E+01	  0.067494988	3.150100E+01	  0.067494988	5.215900E+01	  0.067494988	1.363000E+00
239	  0.067695394	-3.203700E+01	  0.067695394	3.111900E+01	  0.067695394	5.217000E+01	  0.067695394	1.349000E+00
240	  0.067895792	-3.204800E+01	  0.067895792	3.125000E+01	  0.067895792	5.216400E+01	  0.067895792	1.352000E+00
241	  0.068096191	-3.198100E+01	  0.068096191	3.116800E+01	  0.068096191	5.218300E+01	  0.068096191	1.360000E+00
242	  0.068296596	-3.194300E+01	  0.068296596	3.129800E+01	  0.068296596	5.218900E+01	  0.068296596	1.371000E+00
243	  0.068496995	-3.195400E+01	  0.068496995	3.090200E+01	  0.068496995	5.219600E+01	  0.068496995	1.354000E+00
244	  0.068697393	-3.189600E+01	  0.068697393	3.050900E+01	  0.068697393	5.222100E+01	  0.068697393	1.348000E+00
245	  0.068897791	-3.195000E+01	  0.068897791	3.071200E+01	  0.068897791	5.220200E+01	  0.068897791	1.347000E+00
246	  0.069098189	-3.191200E+01	  0.069098189	3.071500E+01	  0.069098189	5.221100E+01	  0.069098189	1.354000E+00
247	  0.069298595	-3.187000E+01	  0.069298595	3.040500E+01	  0.069298595	5.223000E+01	  0.069298595	1.348000E+00
248	  0.069498993	-3.193700E+01	  0.069498993	3.006300E+01	  0.069498993	5.222100E+01	  0.069498993	1.324000E+00
249	  0.069699399	-3.185300E+01	  0.069699399	3.009100E+01	  0.069699399	5.224200E+01	  0.069699399	1.339000E+00
250	  0.069899797	-3.183200E+01	  0.069899797	2.991500E+01	  0.069899797	5.225200E+01	  0.069899797	1.335000E+00
251	  0.070100196	-3.181700E+01	  0.070100196	2.974100E+01	  0.070100196	5.226000E+01	  0.070100196	1.330000E+00
252	  0.070300601	-3.182400E+01	  0.070300601	2.975900E+01	  0.070300601	5.225800E+01	  0.070300601	1.330000E+00
253	  0.070501000	-3.178700E+01	  0.070501000	2.966500E+01	  0.070501000	5.227000E+01	  0.070501000	1.332000E+00
254	  0.070701398	-3.179600E+01	  0.070701398	2.939800E+01	  0.070701398	5.227400E+01	  0.070701398	1.320000E+00
255	  0.070901804	-3.179000E+01	  0.070901804	2.921300E+01	  0.070901804	5.228000E+01	  0.070901804	1.314000E+00
256	  0.071102202	-3.180200E+01	  0.071102202	2.923400E+01	  0.071102202	5.227600E+01	  0.071102202	1.312000E+00
257	  0.071302600	-3.173900E+01	  0.071302600	2.919000E+01	  0.071302600	5.229400E+01	  0.071302600	1.321000E+00
258	  0.071503006	-3.172200E+01	  0.071503006	2.911100E+01	  0.071503006	5.230100E+01	  0.071503006	1.320000E+00
259	  0.071703404	-3.172800E+01	  0.071703404	2.893000E+01	  0.071703404	5.230400E+01	  0.071703404	1.312000E+00
260	  0.071903802	-3.168900E+01	  0.071903802	2.870900E+01	  0.071903802	5.231900E+01	  0.071903802	1.309000E+00
261	  0.072104208	-3.169900E+01	  0.072104208	2.843700E+01	  0.072104208	5.232300E+01	  0.072104208	1.296000E+00
262	  0.072304606	-3.170400E+01	  0.072304606	2.824600E+01	  0.072304606	5.232600E+01	  0.072304606	1.287000E+00
263	  0.072505005	-3.165200E+01	  0.072505005	2.835800E+01	  0.072505005	5.233800E+01	  0.072505005	1.300000E+00
264	  0.072705410	-3.163000E+01	  0.072705410	2.816600E+01	  0.072705410	5.234900E+01	  0.072705410	1.296000E+00
265	  0.072905809	-3.163600E+01	  0.072905809	2.837200E+01	  0.072905809	5.234200E+01	  0.072905809	1.303000E+00
266	  0.073106214	-3.162000E+01	  0.073106214	2.814100E+01	  0.073106214	5.235200E+01	  0.073106214	1.296000E+00
267	  0.073306613	-3.160000E+01	  0.073306613	2.771000E+01	  0.073306613	5.236700E+01	  0.073306613	1.281000E+00
268	  0.073507011	-3.158000E+01	  0.073507011	2.785800E+01	  0.073507011	5.237000E+01	  0.073507011	1.291000E+00
269	  0.073707417	-3.156800E+01	  0.073707417	2.777200E+01	  0.073707417	5.237500E+01	  0.073707417	1.289000E+00
270	  0.073907815	-3.154700E+01	  0.073907815	2.765800E+01	  0.073907815	5.238300E+01	  0.073907815	1.287000E+00
271	  0.074108213	-3.152700E+01	  0.074108213	2.744500E+01	  0.074108213	5.239400E+01	  0.074108213	1.281000E+00
272	  0.074308619	-3.156000E+01	  0.074308619	2.740200E+01	  0.074308619	5.238600E+01	  0.074308619	1.274000E+00
273	  0.074509017	-3.154700E+01	  0.074509017	2.713400E+01	  0.074509017	5.239600E+01	  0.074509017	1.265000E+00
274	  0.074709415	-3.152000E+01	  0.074709415	2.711200E+01	  0.074709415	5.240400E+01	  0.074709415	1.268000E+00
275	  0.074909821	-3.151900E+01	  0.074909821	2.708700E+01	  0.074909821	5.240400E+01	  0.074909821	1.267000E+00
276	  0.075110219	-3.148300E+01	  0.075110219	2.694600E+01	  0.075110219	5.241800E+01	  0.075110219	1.267000E+00
277	  0.075310618	-3.144900E+01	  0.075310618	2.662700E+01	  0.075310618	5.243500E+01	  0.075310618	1.258000E+00
278	  0.075511023	-3.144400E+01	  0.075511023	2.661900E+01	  0.075511023	5.243700E+01	  0.075511023	1.259000E+00
279	  0.075711422	-3.147400E+01	  0.075711422	2.640900E+01	  0.075711422	5.243300E+01	  0.075711422	1.245000E+00
280	  0.075911827	-3.141100E+01	  0.075911827	2.623000E+01	  0.075911827	5.245500E+01	  0.075911827	1.247000E+00
281	  0.076112226	-3.141200E+01	  0.076112226	2.620300E+01	  0.076112226	5.245500E+01	  0.076112226	1.245000E+00
282	  0.076312624	-3.139500E+01	  0.076312624	2.622300E+01	  0.076312624	5.246000E+01	  0.076312624	1.249000E+00
283	  0.076513030	-3.134800E+01	  0.076513030	2.627700E+01	  0.076513030	5.247200E+01	  0.076513030	1.258000E+00
284	  0.076713428	-3.135100E+01	  0.076713428	2.606900E+01	  0.076713428	5.247600E+01	  0.076713428	1.249000E+00
285	  0.076913826	-3.136800E+01	  0.076913826	2.557700E+01	  0.076913826	5.248200E+01	  0.076913826	1.225000E+00
286	  0.077114232	-3.131100E+01	  0.077114232	2.543100E+01	  0.077114232	5.250200E+01	  0.077114232	1.227000E+00
287	  0.077314630	-3.130900E+01	  0.077314630	2.550500E+01	  0.077314630	5.250100E+01	  0.077314630	1.230000E+00
288	  0.077515028	-3.128500E+01	  0.077515028	2.546500E+01	  0.077515028	5.250900E+01	  0.077515028	1.232000E+00
289	  0.077715434	-3.126000E+01	  0.077715434	2.538400E+01	  0.077715434	5.251800E+01	  0.077715434	1.232000E+00
290	  0.077915832	-3.126800E+01	  0.077915832	2.519600E+01	  0.077915832	5.252000E+01	  0.077915832	1.222000E+00
291	  0.078116231	-3.122100E+01	  0.078116231	2.518600E+01	  0.078116231	5.253400E+01	  0.078116231	1.229000E+00
292	  0.078316636	-3.125300E+01	  0.078316636	2.504700E+01	  0.078316636	5.252800E+01	  0.078316636	1.218000E+00
293	  0.078517035	-3.124900E+01	  0.078517035	2.481600E+01	  0.078517035	5.253400E+01	  0.078517035	1.208000E+00
294	  0.078717433	-3.124100E+01	  0.078717433	2.469300E+01	  0.078717433	5.253900E+01	  0.078717433	1.204000E+00
295	  0.078917839	-3.116900E+01	  0.078917839	2.466500E+01	  0.078917839	5.256100E+01	  0.078917839	1.213000E+00
296	  0.079118237	-3.116100E+01	  0.079118237	2.459500E+01	  0.079118237	5.256500E+01	  0.079118237	1.211000E+00
297	  0.079318643	-3.120900E+01	  0.079318643	2.429400E+01	  0.079318643	5.255800E+01	  0.079318643	1.190000E+00
298	  0.079519041	-3.110000E+01	  0.079519041	2.431300E+01	  0.079519041	5.259000E+01	  0.079519041	1.207000E+00
299	  0.079719439	-3.115400E+01	  0.079719439	2.430200E+01	  0.079719439	5.257400E+01	  0.079719439	1.199000E+00
300	  0.079919845	-3.112100E+01	  0.079919845	2.400500E+01	  0.079919845	5.259100E+01	  0.079919845	1.190000E+00
301	  0.080120243	-3.115500E+01	  0.080120243	2.393800E+01	  0.080120243	5.258200E+01	  0.080120243	1.182000E+00
302	  0.080320641	-3.113300E+01	  0.080320641	2.391400E+01	  0.080320641	5.258900E+01	  0.080320641	1.184000E+00
303	  0.080521047	-3.109700E+01	  0.080521047	2.359800E+01	  0.080521047	5.260700E+01	  0.080521047	1.174000E+00
304	  0.080721445	-3.107900E+01	  0.080721445	2.338700E+01	  0.080721445	5.261700E+01	  0.080721445	1.167000E+00
305	  0.080921844	-3.108200E+01	  0.080921844	2.344800E+01	  0.080921844	5.261500E+01	  0.080921844	1.169000E+00
306	  0.081122249	-3.101500E+01	  0.081122249	2.320900E+01	  0.081122249	5.264000E+01	  0.081122249	1.168000E+00
307	  0.081322648	-3.103000E+01	  0.081322648	2.341000E+01	  0.081322648	5.263200E+01	  0.081322648	1.175000E+00
308	  0.081523046	-3.104500E+01	  0.081523046	2.310000E+01	  0.081523046	5.263300E+01	  0.081523046	1.158000E+00
309	  0.081723452	-3.103300E+01	  0.081723452	2.297400E+01	  0.081723452	5.264000E+01	  0.081723452	1.154000E+00
310	  0.081923850	-3.100100E+01	  0.081923850	2.293900E+01	  0.081923850	5.265100E+01	  0.081923850	1.157000E+00
311	  0.082124248	-3.098700E+01	  0.082124248	2.265400E+01	  0.082124248	5.266100E+01	  0.082124248	1.145000E+00
312	  0.082324654	-3.097600E+01	  0.082324654	2.248300E+01	  0.082324654	5.266800E+01	  0.082324654	1.139000E+00
313	  0.082525052	-3.097600E+01	  0.082525052	2.236300E+01	  0.082525052	5.267100E+01	  0.082525052	1.133000E+00
314	  0.082725458	-3.094600E+01	  0.082725458	2.219700E+01	  0.082725458	5.268300E+01	  0.082725458	1.129000E+00
315	  0.082925856	-3.097300E+01	  0.082925856	2.226300E+01	  0.082925856	5.267400E+01	  0.082925856	1.129000E+00
316	  0.083126254	-3.092500E+01	  0.083126254	2.210000E+01	  0.083126254	5.269200E+01	  0.083126254	1.127000E+00
317	  0.083326660	-3.090900E+01	  0.083326660	2.183500E+01	  0.083326660	5.270300E+01	  0.083326660	1.117000E+00
318	  0.083527058	-3.094000E+01	  0.083527058	2.181800E+01	  0.083527058	5.269300E+01	  0.083527058	1.112000E+00
319	  0.083727457	-3.089500E+01	  0.083727457	2.153100E+01	  0.083727457	5.271300E+01	  0.083727457	1.104000E+00
320	  0.083927862	-3.090100E+01	  0.083927862	2.181700E+01	  0.083927862	5.270600E+01	  0.083927862	1.117000E+00
321	  0.084128261	-3.087100E+01	  0.084128261	2.158500E+01	  0.084128261	5.272000E+01	  0.084128261	1.110000E+00
322	  0.084328659	-3.085000E+01	  0.084328659	2.159100E+01	  0.084328659	5.272600E+01	  0.084328659	1.113000E+00
323	  0.084529065	-3.085000E+01	  0.084529065	2.143500E+01	  0.084529065	5.273000E+01	  0.084529065	1.105000E+00
324	  0.084729463	-3.080100E+01	  0.084729463	2.119600E+01	  0.084729463	5.275100E+01	  0.084729463	1.100000E+00
325	  0.084929861	-3.082200E+01	  0.084929861	2.092000E+01	  0.084929861	5.274900E+01	  0.084929861	1.084000E+00
326	  0.085130267	-3.078900E+01	  0.085130267	2.116800E+01	  0.085130267	5.275500E+01	  0.085130267	1.101000E+00
327	  0.085330658	-3.082500E+01	  0.085330658	2.087600E+01	  0.085330658	5.274900E+01	  0.085330658	1.081000E+00
328	  0.085531056	-3.078300E+01	  0.085531056	2.072400E+01	  0.085531056	5.276600E+01	  0.085531056	1.080000E+00
329	  0.085731462	-3.076400E+01	  0.085731462	2.069000E+01	  0.085731462	5.277300E+01	  0.085731462	1.080000E+00
330	  0.085931860	-3.077900E+01	  0.085931860	2.026000E+01	  0.085931860	5.277600E+01	  0.085931860	1.057000E+00
331	  0.086132258	-3.078400E+01	  0.086132258	2.024200E+01	  0.086132258	5.277500E+01	  0.086132258	1.056000E+00
332	  0.086332664	-3.074300E+01	  0.086332664	2.027000E+01	  0.086332664	5.278800E+01	  0.086332664	1.062000E+00
333	  0.086533062	-3.077100E+01	  0.086533062	2.029500E+01	  0.086533062	5.277800E+01	  0.086533062	1.060000E+00
334	  0.086733460	-3.072700E+01	  0.086733460	1.988500E+01	  0.086733460	5.280100E+01	  0.086733460	1.045000E+00
335	  0.086933866	-3.075700E+01	  0.086933866	1.992200E+01	  0.086933866	5.279000E+01	  0.086933866	1.043000E+00
336	  0.087134264	-3.072900E+01	  0.087134264	1.986400E+01	  0.087134264	5.280000E+01	  0.087134264	1.044000E+00
337	  0.087334670	-3.071000E+01	  0.087334670	1.963100E+01	  0.087334670	5.281100E+01	  0.087334670	1.034000E+00
338	  0.087535068	-3.070300E+01	  0.087535068	1.958400E+01	  0.087535068	5.281400E+01	  0.087535068	1.033000E+00
339	  0.087735467	-3.071300E+01	  0.087735467	1.948200E+01	  0.087735467	5.281300E+01	  0.087735467	1.027000E+00
340	  0.087935872	-3.068200E+01	  0.087935872	1.926500E+01	  0.087935872	5.282700E+01	  0.087935872	1.019000E+00
341	  0.088136271	-3.067300E+01	  0.088136271	1.927300E+01	  0.088136271	5.283000E+01	  0.088136271	1.021000E+00
342	  0.088336669	-3.064800E+01	  0.088336669	1.903600E+01	  0.088336669	5.284300E+01	  0.088336669	1.012000E+00
343	  0.088537075	-3.062900E+01	  0.088537075	1.917600E+01	  0.088537075	5.284700E+01	  0.088537075	1.021000E+00
344	  0.088737473	-3.062100E+01	  0.088737473	1.891300E+01	  0.088737473	5.285400E+01	  0.088737473	1.009000E+00
345	  0.088937871	-3.060100E+01	  0.088937871	1.893000E+01	  0.088937871	5.286100E+01	  0.088937871	1.012000E+00
346	  0.089138277	-3.060300E+01	  0.089138277	1.887100E+01	  0.089138277	5.286100E+01	  0.089138277	1.009000E+00
347	  0.089338675	-3.060000E+01	  0.089338675	1.850200E+01	  0.089338675	5.286900E+01	  0.089338675	9.910000E-01
348	  0.089539073	-3.060000E+01	  0.089539073	1.827000E+01	  0.089539073	5.287300E+01	  0.089539073	9.790000E-01
349	  0.089739479	-3.063000E+01	  0.089739479	1.841700E+01	  0.089739479	5.286100E+01	  0.089739479	9.830000E-01
350	  0.089939877	-3.058400E+01	  0.089939877	1.797400E+01	  0.089939877	5.288400E+01	  0.089939877	9.650000E-01
351	  0.090140276	-3.057700E+01	  0.090140276	1.820200E+01	  0.090140276	5.288200E+01	  0.090140276	9.780000E-01
352	  0.090340681	-3.056300E+01	  0.090340681	1.799700E+01	  0.090340681	5.289100E+01	  0.090340681	9.690000E-01
353	  0.090541080	-3.054900E+01	  0.090541080	1.788600E+01	  0.090541080	5.289700E+01	  0.090541080	9.650000E-01
354	  0.090741485	-3.052400E+01	  0.090741485	1.791400E+01	  0.090741485	5.290600E+01	  0.090741485	9.690000E-01
355	  0.090941884	-3.054900E+01	  0.090941884	1.747900E+01	  0.090941884	5.290500E+01	  0.090941884	9.440000E-01
356	  0.091142282	-3.052800E+01	  0.091142282	1.767000E+01	  0.091142282	5.290900E+01	  0.091142282	9.560000E-01
357	  0.091342688	-3.053700E+01	  0.091342688	1.741200E+01	  0.091342688	5.291000E+01	  0.091342688	9.420000E-01
358	  0.091543086	-3.052500E+01	  0.091543086	1.722500E+01	  0.091543086	5.291700E+01	  0.091543086	9.330000E-01
359	  0.091743484	-3.051900E+01	  0.091743484	1.721600E+01	  0.091743484	5.291900E+01	  0.091743484	9.330000E-01
360	  0.091943890	-3.048700E+01	  0.091943890	1.695200E+01	  0.091943890	5.293500E+01	  0.091943890	9.230000E-01
361	  0.092144288	-3.049900E+01	  0.092144288	1.695300E+01	  0.092144288	5.293100E+01	  0.092144288	9.220000E-01
362	  0.092344686	-3.052700E+01	  0.092344686	1.687000E+01	  0.092344686	5.292300E+01	  0.092344686	9.140000E-01
363	  0.092545092	-3.046700E+01	  0.092545092	1.674800E+01	  0.092545092	5.294600E+01	  0.092545092	9.150000E-01
364	  0.092745490	-3.045600E+01	  0.092745490	1.667300E+01	  0.092745490	5.295100E+01	  0.092745490	9.120000E-01
365	  0.092945889	-3.047900E+01	  0.092945889	1.648100E+01	  0.092945889	5.294600E+01	  0.092945889	8.990000E-01
366	  0.093146294	-3.045400E+01	  0.093146294	1.635200E+01	  0.093146294	5.295700E+01	  0.093146294	8.950000E-01
367	  0.093346693	-3.043700E+01	  0.093346693	1.619800E+01	  0.093346693	5.296500E+01	  0.093346693	8.890000E-01
368	  0.093547091	-3.042300E+01	  0.093547091	1.596300E+01	  0.093547091	5.297400E+01	  0.093547091	8.780000E-01
369	  0.093747497	-3.043500E+01	  0.093747497	1.600900E+01	  0.093747497	5.296900E+01	  0.093747497	8.790000E-01
370	  0.093947895	-3.042600E+01	  0.093947895	1.612900E+01	  0.093947895	5.297000E+01	  0.093947895	8.860000E-01
371	  0.094148301	-3.041800E+01	  0.094148301	1.578300E+01	  0.094148301	5.297900E+01	  0.094148301	8.690000E-01
372	  0.094348699	-3.040200E+01	  0.094348699	1.582400E+01	  0.094348699	5.298400E+01	  0.094348699	8.730000E-01
373	  0.094549097	-3.043300E+01	  0.094549097	1.572800E+01	  0.094549097	5.297400E+01	  0.094549097	8.640000E-01
374	  0.094749503	-3.039000E+01	  0.094749503	1.551100E+01	  0.094749503	5.299300E+01	  0.094749503	8.570000E-01
375	  0.094949901	-3.039700E+01	  0.094949901	1.536200E+01	  0.094949901	5.299300E+01	  0.094949901	8.480000E-01
376	  0.095150299	-3.037900E+01	  0.095150299	1.526300E+01	  0.095150299	5.300100E+01	  0.095150299	8.450000E-01
377	  0.095350705	-3.036800E+01	  0.095350705	1.508100E+01	  0.095350705	5.300800E+01	  0.095350705	8.360000E-01
378	  0.095551103	-3.037500E+01	  0.095551103	1.499800E+01	  0.095551103	5.300600E+01	  0.095551103	8.310000E-01
379	  0.095751502	-3.035700E+01	  0.095751502	1.485000E+01	  0.095751502	5.301500E+01	  0.095751502	8.250000E-01
380	  0.095951907	-3.034800E+01	  0.095951907	1.487200E+01	  0.095951907	5.301800E+01	  0.095951907	8.270000E-01
381	  0.096152306	-3.033500E+01	  0.096152306	1.474900E+01	  0.096152306	5.302400E+01	  0.096152306	8.220000E-01
382	  0.096352704	-3.032600E+01	  0.096352704	1.461100E+01	  0.096352704	5.303000E+01	  0.096352704	8.150000E-01
383	  0.096553110	-3.031900E+01	  0.096553110	1.432900E+01	  0.096553110	5.303600E+01	  0.096553110	8.000000E-01
384	  0.096753508	-3.034900E+01	  0.096753508	1.430700E+01	  0.096753508	5.302600E+01	  0.096753508	7.960000E-01
385	  0.096953906	-3.032900E+01	  0.096953906	1.411000E+01	  0.096953906	5.303600E+01	  0.096953906	7.880000E-01
386	  0.097154312	-3.034600E+01	  0.097154312	1.411500E+01	  0.097154312	5.303000E+01	  0.097154312	7.860000E-01
387	  0.097354710	-3.030600E+01	  0.097354710	1.410300E+01	  0.097354710	5.304400E+01	  0.097354710	7.890000E-01
388	  0.097555116	-3.030000E+01	  0.097555116	1.348500E+01	  0.097555116	5.305500E+01	  0.097555116	7.560000E-01
389	  0.097755514	-3.029000E+01	  0.097755514	1.363700E+01	  0.097755514	5.305700E+01	  0.097755514	7.650000E-01
390	  0.097955912	-3.030900E+01	  0.097955912	1.356800E+01	  0.097955912	5.305100E+01	  0.097955912	7.600000E-01
391	  0.098156318	-3.027100E+01	  0.098156318	1.354000E+01	  0.098156318	5.306500E+01	  0.098156318	7.620000E-01
392	  0.098356716	-3.028300E+01	  0.098356716	1.342400E+01	  0.098356716	5.306200E+01	  0.098356716	7.540000E-01
393	  0.098557115	-3.027500E+01	  0.098557115	1.348400E+01	  0.098557115	5.306400E+01	  0.098557115	7.580000E-01
394	  0.098757520	-3.025900E+01	  0.098757520	1.316000E+01	  0.098757520	5.307500E+01	  0.098757520	7.420000E-01
395	  0.098957919	-3.026400E+01	  0.098957919	1.301300E+01	  0.098957919	5.307500E+01	  0.098957919	7.330000E-01
396	  0.099158317	-3.025000E+01	  0.099158317	1.311400E+01	  0.099158317	5.307900E+01	  0.099158317	7.400000E-01
397	  0.099358723	-3.028600E+01	  0.099358723	1.300100E+01	  0.099358723	5.306700E+01	  0.099358723	7.310000E-01
398	  0.099559121	-3.023400E+01	  0.099559121	1.279400E+01	  0.099559121	5.308900E+01	  0.099559121	7.240000E-01
399	  0.099759519	-3.025200E+01	  0.099759519	1.261000E+01	  0.099759519	5.308500E+01	  0.099759519	7.120000E-01
400	  0.099959925	-3.021000E+01	  0.099959925	1.249500E+01	  0.099959925	5.310200E+01	  0.099959925	7.090000E-01
401	  0.100160323	-3.027500E+01	  0.100160323	1.206500E+01	  0.100160323	5.308400E+01	  0.100160323	6.800000E-01
402	  0.100360721	-3.021700E+01	  0.100360721	1.218700E+01	  0.100360721	5.310300E+01	  0.100360721	6.920000E-01
403	  0.100561127	-3.017900E+01	  0.100561127	1.236500E+01	  0.100561127	5.311500E+01	  0.100561127	7.050000E-01
404	  0.100761525	-3.022100E+01	  0.100761525	1.203100E+01	  0.100761525	5.310400E+01	  0.100761525	6.830000E-01
405	  0.100961931	-3.021900E+01	  0.100961931	1.161900E+01	  0.100961931	5.311000E+01	  0.100961931	6.600000E-01
406	  0.101162329	-3.019300E+01	  0.101162329	1.186600E+01	  0.101162329	5.311600E+01	  0.101162329	6.760000E-01
407	  0.101362728	-3.017000E+01	  0.101362728	1.156800E+01	  0.101362728	5.312800E+01	  0.101362728	6.610000E-01
408	  0.101563133	-3.015000E+01	  0.101563133	1.173100E+01	  0.101563133	5.313400E+01	  0.101563133	6.720000E-01
409	  0.101763532	-3.015600E+01	  0.101763532	1.175000E+01	  0.101763532	5.313100E+01	  0.101763532	6.720000E-01
410	  0.101963930	-3.017400E+01	  0.101963930	1.152400E+01	  0.101963930	5.312700E+01	  0.101963930	6.580000E-01
411	  0.102164336	-3.018700E+01	  0.102164336	1.142600E+01	  0.102164336	5.312400E+01	  0.102164336	6.510000E-01
412	  0.102364734	-3.015900E+01	  0.102364734	1.117100E+01	  0.102364734	5.313700E+01	  0.102364734	6.390000E-01
413	  0.102565132	-3.018000E+01	  0.102565132	1.116600E+01	  0.102565132	5.312900E+01	  0.102565132	6.370000E-01
414	  0.102765530	-3.011500E+01	  0.102765530	1.097600E+01	  0.102765530	5.315600E+01	  0.102765530	6.320000E-01
415	  0.102965929	-3.013900E+01	  0.102965929	1.083300E+01	  0.102965929	5.314900E+01	  0.102965929	6.220000E-01
416	  0.103166327	-3.011900E+01	  0.103166327	1.077800E+01	  0.103166327	5.315700E+01	  0.103166327	6.200000E-01
417	  0.103366733	-3.012600E+01	  0.103366733	1.044900E+01	  0.103366733	5.315800E+01	  0.103366733	6.010000E-01
418	  0.103567131	-3.010100E+01	  0.103567131	1.094300E+01	  0.103567131	5.316200E+01	  0.103567131	6.310000E-01
419	  0.103767529	-3.008900E+01	  0.103767529	1.005200E+01	  0.103767529	5.317600E+01	  0.103767529	5.810000E-01
420	  0.103967935	-3.012600E+01	  0.103967935	1.040200E+01	  0.103967935	5.315800E+01	  0.103967935	5.980000E-01
421	  0.104168333	-3.013700E+01	  0.104168333	1.001000E+01	  0.104168333	5.315900E+01	  0.104168333	5.750000E-01
422	  0.104368731	-3.011900E+01	  0.104368731	1.005300E+01	  0.104368731	5.316500E+01	  0.104368731	5.790000E-01
423	  0.104569137	-3.014200E+01	  0.104569137	9.773000E+00	  0.104569137	5.315900E+01	  0.104569137	5.610000E-01
424	  0.104769535	-3.011300E+01	  0.104769535	9.649000E+00	  0.104769535	5.317100E+01	  0.104769535	5.560000E-01
425	  0.104969934	-3.014600E+01	  0.104969934	9.587000E+00	  0.104969934	5.315900E+01	  0.104969934	5.510000E-01
426	  0.105170339	-3.016700E+01	  0.105170339	9.646000E+00	  0.105170339	5.315100E+01	  0.105170339	5.530000E-01
427	  0.105370738	-3.002800E+01	  0.105370738	9.374000E+00	  0.105370738	5.320600E+01	  0.105370738	5.460000E-01
428	  0.105571143	-3.008500E+01	  0.105571143	8.927000E+00	  0.105571143	5.318900E+01	  0.105571143	5.170000E-01
429	  0.105771542	-3.014200E+01	  0.105771542	8.983000E+00	  0.105771542	5.316700E+01	  0.105771542	5.170000E-01
430	  0.105971940	-3.008600E+01	  0.105971940	9.056000E+00	  0.105971940	5.318800E+01	  0.105971940	5.240000E-01
431	  0.106172346	-3.011700E+01	  0.106172346	9.108000E+00	  0.106172346	5.317500E+01	  0.106172346	5.250000E-01
432	  0.106372744	-3.006400E+01	  0.106372744	8.691000E+00	  0.106372744	5.319900E+01	  0.106372744	5.050000E-01
433	  0.106573142	-3.011700E+01	  0.106573142	8.493000E+00	  0.106573142	5.318100E+01	  0.106573142	4.900000E-01
434	  0.106773548	-3.007100E+01	  0.106773548	8.443000E+00	  0.106773548	5.319900E+01	  0.106773548	4.900000E-01
435	  0.106973946	-3.011700E+01	  0.106973946	8.222000E+00	  0.106973946	5.318300E+01	  0.106973946	4.750000E-01
436	  0.107174344	-3.011300E+01	  0.107174344	8.413000E+00	  0.107174344	5.318300E+01	  0.107174344	4.860000E-01
437	  0.107374750	-3.011500E+01	  0.107374750	8.184000E+00	  0.107374750	5.318400E+01	  0.107374750	4.720000E-01
438	  0.107575148	-3.005800E+01	  0.107575148	7.697000E+00	  0.107575148	5.321000E+01	  0.107575148	4.480000E-01
439	  0.107775547	-3.008500E+01	  0.107775547	7.760000E+00	  0.107775547	5.319900E+01	  0.107775547	4.500000E-01
440	  0.107975952	-3.005000E+01	  0.107975952	7.698000E+00	  0.107975952	5.321300E+01	  0.107975952	4.480000E-01
441	  0.108176351	-3.006900E+01	  0.108176351	7.508000E+00	  0.108176351	5.320800E+01	  0.108176351	4.360000E-01
442	  0.108376749	-3.007500E+01	  0.108376749	7.792000E+00	  0.108376749	5.320300E+01	  0.108376749	4.520000E-01
443	  0.108577155	-3.010500E+01	  0.108577155	7.295000E+00	  0.108577155	5.319600E+01	  0.108577155	4.220000E-01
444	  0.108777553	-3.005500E+01	  0.108777553	7.466000E+00	  0.108777553	5.321300E+01	  0.108777553	4.350000E-01
445	  0.108977959	-3.004900E+01	  0.108977959	7.483000E+00	  0.108977959	5.321500E+01	  0.108977959	4.360000E-01
446	  0.109178357	-3.008600E+01	  0.109178357	7.000000E+00	  0.109178357	5.320500E+01	  0.109178357	4.060000E-01
447	  0.109378755	-3.007100E+01	  0.109378755	6.978000E+00	  0.109378755	5.321100E+01	  0.109378755	4.050000E-01
448	  0.109579161	-3.006800E+01	  0.109579161	6.685000E+00	  0.109579161	5.321400E+01	  0.109579161	3.890000E-01
449	  0.109779559	-3.007000E+01	  0.109779559	6.888000E+00	  0.109779559	5.321200E+01	  0.109779559	4.000000E-01
450	  0.109979957	-3.004600E+01	  0.109979957	6.511000E+00	  0.109979957	5.322400E+01	  0.109979957	3.800000E-01
451	  0.110180363	-3.004400E+01	  0.110180363	6.400000E+00	  0.110180363	5.322500E+01	  0.110180363	3.730000E-01
452	  0.110380761	-3.003800E+01	  0.110380761	6.064000E+00	  0.110380761	5.323000E+01	  0.110380761	3.540000E-01
453	  0.110581160	-3.010100E+01	  0.110581160	6.305000E+00	  0.110581160	5.320400E+01	  0.110581160	3.650000E-01
454	  0.110781565	-3.005600E+01	  0.110781565	6.084000E+00	  0.110781565	5.322300E+01	  0.110781565	3.540000E-01
455	  0.110981964	-3.004400E+01	  0.110981964	6.015000E+00	  0.110981964	5.322800E+01	  0.110981964	3.510000E-01
456	  0.111182362	-3.006200E+01	  0.111182362	5.942000E+00	  0.111182362	5.322200E+01	  0.111182362	3.460000E-01
457	  0.111382768	-3.010700E+01	  0.111382768	5.601000E+00	  0.111382768	5.320700E+01	  0.111382768	3.240000E-01
458	  0.111583166	-3.003600E+01	  0.111583166	5.711000E+00	  0.111583166	5.323300E+01	  0.111583166	3.330000E-01
459	  0.111783572	-3.006300E+01	  0.111783572	5.307000E+00	  0.111783572	5.322500E+01	  0.111783572	3.090000E-01
460	  0.111983970	-3.003600E+01	  0.111983970	5.327000E+00	  0.111983970	5.323500E+01	  0.111983970	3.110000E-01
461	  0.112184368	-3.004200E+01	  0.112184368	5.192000E+00	  0.112184368	5.323400E+01	  0.112184368	3.030000E-01
462	  0.112384774	-3.003300E+01	  0.112384774	5.043000E+00	  0.112384774	5.323800E+01	  0.112384774	2.950000E-01
463	  0.112585172	-3.002000E+01	  0.112585172	4.739000E+00	  0.112585172	5.324500E+01	  0.112585172	2.770000E-01
464	  0.112785570	-3.000200E+01	  0.112785570	4.653000E+00	  0.112785570	5.325200E+01	  0.112785570	2.730000E-01
465	  0.112985976	-3.004600E+01	  0.112985976	4.550000E+00	  0.112985976	5.323600E+01	  0.112985976	2.650000E-01
466	  0.113186374	-2.997700E+01	  0.113186374	4.449000E+00	  0.113186374	5.326300E+01	  0.113186374	2.620000E-01
467	  0.113386773	-3.006500E+01	  0.113386773	4.247000E+00	  0.113386773	5.323000E+01	  0.113386773	2.470000E-01
468	  0.113587178	-3.004400E+01	  0.113587178	4.146000E+00	  0.113587178	5.323900E+01	  0.113587178	2.420000E-01
469	  0.113787577	-2.999400E+01	  0.113787577	4.269000E+00	  0.113787577	5.325700E+01	  0.113787577	2.510000E-01
470	  0.113987975	-3.002200E+01	  0.113987975	3.899000E+00	  0.113987975	5.324800E+01	  0.113987975	2.280000E-01
471	  0.114188381	-3.001100E+01	  0.114188381	3.700000E+00	  0.114188381	5.325300E+01	  0.114188381	2.170000E-01
472	  0.114388779	-3.000200E+01	  0.114388779	3.752000E+00	  0.114388779	5.325600E+01	  0.114388779	2.200000E-01
473	  0.114589177	-3.002500E+01	  0.114589177	4.030000E+00	  0.114589177	5.324600E+01	  0.114589177	2.360000E-01
474	  0.114789583	-2.998000E+01	  0.114789583	3.537000E+00	  0.114789583	5.326600E+01	  0.114789583	2.080000E-01
475	  0.114989981	-2.999700E+01	  0.114989981	3.435000E+00	  0.114989981	5.326000E+01	  0.114989981	2.020000E-01
476	  0.115190387	-3.000200E+01	  0.115190387	3.313000E+00	  0.115190387	5.325800E+01	  0.115190387	1.940000E-01
477	  0.115390785	-3.001200E+01	  0.115390785	3.091000E+00	  0.115390785	5.325500E+01	  0.115390785	1.810000E-01
478	  0.115591183	-2.999500E+01	  0.115591183	3.015000E+00	  0.115591183	5.326200E+01	  0.115591183	1.770000E-01
479	  0.115791589	-3.003400E+01	  0.115791589	2.781000E+00	  0.115791589	5.324700E+01	  0.115791589	1.620000E-01
480	  0.115991987	-2.996500E+01	  0.115991987	2.497000E+00	  0.115991987	5.327500E+01	  0.115991987	1.470000E-01
481	  0.116192386	-3.000600E+01	  0.116192386	2.451000E+00	  0.116192386	5.325900E+01	  0.116192386	1.440000E-01
482	  0.116392791	-3.000300E+01	  0.116392791	2.344000E+00	  0.116392791	5.326100E+01	  0.116392791	1.370000E-01
483	  0.116593190	-3.001500E+01	  0.116593190	2.576000E+00	  0.116593190	5.325600E+01	  0.116593190	1.510000E-01
484	  0.116793588	-3.003300E+01	  0.116793588	2.413000E+00	  0.116793588	5.324900E+01	  0.116793588	1.410000E-01
485	  0.116993994	-3.001700E+01	  0.116993994	2.106000E+00	  0.116993994	5.325600E+01	  0.116993994	1.230000E-01
486	  0.117194392	-3.000900E+01	  0.117194392	2.198000E+00	  0.117194392	5.325900E+01	  0.117194392	1.290000E-01
487	  0.117394790	-2.999500E+01	  0.117394790	1.775000E+00	  0.117394790	5.326500E+01	  0.117394790	1.040000E-01
488	  0.117595196	-3.000600E+01	  0.117595196	1.851000E+00	  0.117595196	5.326100E+01	  0.117595196	1.080000E-01
489	  0.117795594	-3.002500E+01	  0.117795594	1.528000E+00	  0.117795594	5.325400E+01	  0.117795594	8.900000E-02
490	  0.117995992	-2.999600E+01	  0.117995992	1.538000E+00	  0.117995992	5.326500E+01	  0.117995992	9.000000E-02
491	  0.118196398	-3.004500E+01	  0.118196398	1.426000E+00	  0.118196398	5.324600E+01	  0.118196398	8.300000E-02
492	  0.118396796	-3.001900E+01	  0.118396796	1.214000E+00	  0.118396796	5.325700E+01	  0.118396796	7.100000E-02
493	  0.118597202	-2.999700E+01	  0.118597202	1.101000E+00	  0.118597202	5.326500E+01	  0.118597202	6.400000E-02
494	  0.118797600	-3.001700E+01	  0.118797600	7.920000E-01	  0.118797600	5.325800E+01	  0.118797600	4.600000E-02
495	  0.118997999	-3.001800E+01	  0.118997999	6.320000E-01	  0.118997999	5.325800E+01	  0.118997999	3.700000E-02
496	  0.119198404	-3.000500E+01	  0.119198404	6.340000E-01	  0.119198404	5.326300E+01	  0.119198404	3.700000E-02
497	  0.119398803	-3.000300E+01	  0.119398803	6.370000E-01	  0.119398803	5.326300E+01	  0.119398803	3.700000E-02
498	  0.119599201	-2.999600E+01	  0.119599201	3.150000E-01	  0.119599201	5.326600E+01	  0.119599201	1.800000E-02
499	  0.119799607	-2.997400E+01	  0.119799607	3.360000E-01	  0.119799607	5.327500E+01	  0.119799607	1.900000E-02
500	  0.120000005	-3.001600E+01	  0.120000005	-7.800000E-02	  0.120000005	5.325900E+01	  0.120000005	-4.000000E-03
