! Anritsu VNA Master:             	Model: MS2036C/10/77
! SN:             	1601066
! /bd0/18may08.cable.cal/top.194p65.1.txt
! Existing Calibration Information:
! TYPE:             	Current Settings	Active Cal Settings
! TIME:             	05/08/2018 03:53:23 PM	05/08/2018 03:47:05 PM
! INTERNAL TEMP:    	50.5 C	50.5 C
! # POINTS:         	500	500
! START FREQ:       	20.000 MHz	20.000 MHz
! STOP FREQ:        	120.000 MHz	120.000 MHz
! SOURCE POWER:     	High	High
! IFBW:             	50 Hz	50 Hz
! AVG FACTOR:       	  1 	  1 
! REF PLANE 1:      	0 mm	0 mm
! REF PLANE 2:      	0 mm	0 mm
! CAL TYPE:         	Full S11	Full S11
! CAL METHOD:       	SOLT	SOLT
! CAL LINE TYPE:    	Coax	Coax
! DUT PORT 1:       	K-Conn(F)	K-Conn(F)
! DUT PORT 2:       	K-Conn(F)	K-Conn(F)
! CAL STATUS:       	OK: Accuracy High	--
! PROP-V:       	0.700
! CABLE LOSS:       	0.000 dB/m
! REF IMPEDANCE:       	50.0
! Trace Specific Parameters:	TR1	TR2	TR3	TR4
! TRACE.#.Y (GRAPH TYPE)	LOG MAG	PHASE	REAL IMPEDANCE	IMAGINARY IMPEDANCE
! TRACE.#.X 	FREQ.GHZ	FREQ.GHZ	FREQ.GHZ	FREQ.GHZ
! S-PARAMETER	S11	S11	S11	S11
! SMOOTH/APERTURE %	0	0	0	0
! WINDOW	NSL	NSL	NSL	NSL
! GATING	OFF	OFF	OFF	OFF
! FGTD	OFF	OFF	OFF	OFF
Marker Information per Trace:	TR1	TR2	TR3	TR4
!MK1	--	"MK1 TR2:  20.000 MHz,PH:-21.29°"	--	--
!MK2	--	--	"MK2 TR3:  70.100 200 MHz,Z:(31.369 ohm, -53.697 ohm)"	--
!MK3	--	--	--	--
!MK4	--	--	--	--
!MK5	--	--	--	--
!MK6	--	--	--	--
!MK7	--	--	--	--
!MK8	--	--	--	--
PNT	TR1.FREQ.GHZ	TR1.LOG MAG.dB	TR2.FREQ.GHZ	TR2.PHASE.deg	TR3.FREQ.GHZ	TR3.REAL IMPEDANCE.ohm	TR4.FREQ.GHZ	TR4.IMAGINARY IMPEDANCE.ohm
1	  0.020000000	-4.549000E+00	  0.020000000	-2.128500E+01	  0.020000000	1.313890E+02	  0.020000000	-8.702000E+01
2	  0.020200402	-4.549000E+00	  0.020200402	-2.150600E+01	  0.020200402	1.305130E+02	  0.020200402	-8.730300E+01
3	  0.020400802	-4.550000E+00	  0.020400802	-2.171500E+01	  0.020400802	1.296780E+02	  0.020400802	-8.753000E+01
4	  0.020601204	-4.551000E+00	  0.020601204	-2.192800E+01	  0.020601204	1.288230E+02	  0.020601204	-8.772900E+01
5	  0.020801604	-4.550000E+00	  0.020801604	-2.214900E+01	  0.020801604	1.279630E+02	  0.020801604	-8.800500E+01
6	  0.021002004	-4.553000E+00	  0.021002004	-2.235500E+01	  0.021002004	1.271330E+02	  0.021002004	-8.813900E+01
7	  0.021202406	-4.552000E+00	  0.021202406	-2.257800E+01	  0.021202406	1.262730E+02	  0.021202406	-8.840800E+01
8	  0.021402806	-4.552000E+00	  0.021402806	-2.278900E+01	  0.021402806	1.254490E+02	  0.021402806	-8.859100E+01
9	  0.021603208	-4.554000E+00	  0.021603208	-2.301100E+01	  0.021603208	1.245790E+02	  0.021603208	-8.875100E+01
10	  0.021803608	-4.556000E+00	  0.021803608	-2.322200E+01	  0.021803608	1.237550E+02	  0.021803608	-8.889000E+01
11	  0.022004008	-4.556000E+00	  0.022004008	-2.344500E+01	  0.022004008	1.229030E+02	  0.022004008	-8.907700E+01
12	  0.022204408	-4.556000E+00	  0.022204408	-2.366800E+01	  0.022204408	1.220510E+02	  0.022204408	-8.924000E+01
13	  0.022404809	-4.557000E+00	  0.022404809	-2.388700E+01	  0.022404809	1.212150E+02	  0.022404809	-8.938400E+01
14	  0.022605211	-4.560000E+00	  0.022605211	-2.410600E+01	  0.022605211	1.203740E+02	  0.022605211	-8.946900E+01
15	  0.022805611	-4.558000E+00	  0.022805611	-2.431900E+01	  0.022805611	1.195840E+02	  0.022805611	-8.966000E+01
16	  0.023006011	-4.561000E+00	  0.023006011	-2.453700E+01	  0.023006011	1.187610E+02	  0.023006011	-8.974000E+01
17	  0.023206413	-4.561000E+00	  0.023206413	-2.475100E+01	  0.023206413	1.179640E+02	  0.023206413	-8.984900E+01
18	  0.023406813	-4.561000E+00	  0.023406813	-2.496800E+01	  0.023406813	1.171630E+02	  0.023406813	-8.997500E+01
19	  0.023607215	-4.561000E+00	  0.023607215	-2.518800E+01	  0.023607215	1.163570E+02	  0.023607215	-9.009100E+01
20	  0.023807615	-4.562000E+00	  0.023807615	-2.541300E+01	  0.023807615	1.155340E+02	  0.023807615	-9.019100E+01
21	  0.024008015	-4.564000E+00	  0.024008015	-2.561600E+01	  0.024008015	1.147900E+02	  0.024008015	-9.022000E+01
22	  0.024208417	-4.564000E+00	  0.024208417	-2.585200E+01	  0.024208417	1.139400E+02	  0.024208417	-9.033600E+01
23	  0.024408817	-4.565000E+00	  0.024408817	-2.606900E+01	  0.024408817	1.131580E+02	  0.024408817	-9.038400E+01
24	  0.024609219	-4.566000E+00	  0.024609219	-2.628800E+01	  0.024609219	1.123790E+02	  0.024609219	-9.043500E+01
25	  0.024809619	-4.566000E+00	  0.024809619	-2.649600E+01	  0.024809619	1.116420E+02	  0.024809619	-9.050500E+01
26	  0.025010020	-4.566000E+00	  0.025010020	-2.672700E+01	  0.025010020	1.108300E+02	  0.025010020	-9.057900E+01
27	  0.025210422	-4.567000E+00	  0.025210422	-2.693600E+01	  0.025210422	1.100970E+02	  0.025210422	-9.060200E+01
28	  0.025410822	-4.568000E+00	  0.025410822	-2.715700E+01	  0.025410822	1.093310E+02	  0.025410822	-9.063700E+01
29	  0.025611224	-4.570000E+00	  0.025611224	-2.736200E+01	  0.025611224	1.086200E+02	  0.025611224	-9.063400E+01
30	  0.025811624	-4.572000E+00	  0.025811624	-2.759200E+01	  0.025811624	1.078320E+02	  0.025811624	-9.063900E+01
31	  0.026012026	-4.572000E+00	  0.026012026	-2.780200E+01	  0.026012026	1.071170E+02	  0.026012026	-9.066300E+01
32	  0.026212426	-4.573000E+00	  0.026212426	-2.802200E+01	  0.026212426	1.063730E+02	  0.026212426	-9.066800E+01
33	  0.026412826	-4.573000E+00	  0.026412826	-2.824600E+01	  0.026412826	1.056230E+02	  0.026412826	-9.068800E+01
34	  0.026613226	-4.571000E+00	  0.026613226	-2.846100E+01	  0.026613226	1.049050E+02	  0.026613226	-9.074600E+01
35	  0.026813626	-4.572000E+00	  0.026813626	-2.868000E+01	  0.026813626	1.041820E+02	  0.026813626	-9.071900E+01
36	  0.027014028	-4.572000E+00	  0.027014028	-2.890300E+01	  0.027014028	1.034460E+02	  0.027014028	-9.073500E+01
37	  0.027214428	-4.572000E+00	  0.027214428	-2.911500E+01	  0.027214428	1.027560E+02	  0.027214428	-9.072300E+01
38	  0.027414829	-4.574000E+00	  0.027414829	-2.933400E+01	  0.027414829	1.020460E+02	  0.027414829	-9.067200E+01
39	  0.027615231	-4.575000E+00	  0.027615231	-2.955900E+01	  0.027615231	1.013230E+02	  0.027615231	-9.064400E+01
40	  0.027815631	-4.575000E+00	  0.027815631	-2.977300E+01	  0.027815631	1.006390E+02	  0.027815631	-9.060900E+01
41	  0.028016033	-4.577000E+00	  0.028016033	-3.000500E+01	  0.028016033	9.990400E+01	  0.028016033	-9.054800E+01
42	  0.028216433	-4.579000E+00	  0.028216433	-3.021900E+01	  0.028216433	9.923200E+01	  0.028216433	-9.047700E+01
43	  0.028416833	-4.578000E+00	  0.028416833	-3.043700E+01	  0.028416833	9.855300E+01	  0.028416833	-9.045600E+01
44	  0.028617235	-4.579000E+00	  0.028617235	-3.065400E+01	  0.028617235	9.788000E+01	  0.028617235	-9.040600E+01
45	  0.028817635	-4.580000E+00	  0.028817635	-3.088200E+01	  0.028817635	9.717800E+01	  0.028817635	-9.033400E+01
46	  0.029018037	-4.580000E+00	  0.029018037	-3.109500E+01	  0.029018037	9.652800E+01	  0.029018037	-9.028400E+01
47	  0.029218437	-4.582000E+00	  0.029218437	-3.131800E+01	  0.029218437	9.585700E+01	  0.029218437	-9.020400E+01
48	  0.029418837	-4.582000E+00	  0.029418837	-3.152200E+01	  0.029418837	9.524100E+01	  0.029418837	-9.014800E+01
49	  0.029619239	-4.583000E+00	  0.029619239	-3.176200E+01	  0.029619239	9.452700E+01	  0.029619239	-9.005900E+01
50	  0.029819639	-4.583000E+00	  0.029819639	-3.196800E+01	  0.029819639	9.391800E+01	  0.029819639	-8.998700E+01
51	  0.030020041	-4.586000E+00	  0.030020041	-3.218600E+01	  0.030020041	9.328400E+01	  0.030020041	-8.987500E+01
52	  0.030220442	-4.586000E+00	  0.030220442	-3.240900E+01	  0.030220442	9.263300E+01	  0.030220442	-8.980200E+01
53	  0.030420844	-4.588000E+00	  0.030420844	-3.261800E+01	  0.030420844	9.203200E+01	  0.030420844	-8.968300E+01
54	  0.030621244	-4.587000E+00	  0.030621244	-3.284300E+01	  0.030621244	9.138500E+01	  0.030621244	-8.961200E+01
55	  0.030821644	-4.588000E+00	  0.030821644	-3.307100E+01	  0.030821644	9.073900E+01	  0.030821644	-8.951800E+01
56	  0.031022044	-4.589000E+00	  0.031022044	-3.328400E+01	  0.031022044	9.013900E+01	  0.031022044	-8.940600E+01
57	  0.031222444	-4.577000E+00	  0.031222444	-3.344400E+01	  0.031222444	8.965800E+01	  0.031222444	-8.955400E+01
58	  0.031422846	-4.579000E+00	  0.031422846	-3.365800E+01	  0.031422846	8.906400E+01	  0.031422846	-8.943500E+01
59	  0.031623244	-4.578000E+00	  0.031623244	-3.385900E+01	  0.031623244	8.850700E+01	  0.031623244	-8.935300E+01
60	  0.031823646	-4.578000E+00	  0.031823646	-3.407800E+01	  0.031823646	8.790400E+01	  0.031823646	-8.924900E+01
61	  0.032024048	-4.581000E+00	  0.032024048	-3.429900E+01	  0.032024048	8.731000E+01	  0.032024048	-8.909100E+01
62	  0.032224450	-4.582000E+00	  0.032224450	-3.451600E+01	  0.032224450	8.672900E+01	  0.032224450	-8.895600E+01
63	  0.032424849	-4.581000E+00	  0.032424849	-3.472100E+01	  0.032424849	8.617400E+01	  0.032424849	-8.888200E+01
64	  0.032625251	-4.583000E+00	  0.032625251	-3.494600E+01	  0.032625251	8.558200E+01	  0.032625251	-8.873000E+01
65	  0.032825653	-4.583000E+00	  0.032825653	-3.516400E+01	  0.032825653	8.500600E+01	  0.032825653	-8.860900E+01
66	  0.033026051	-4.587000E+00	  0.033026051	-3.537500E+01	  0.033026051	8.447100E+01	  0.033026051	-8.841300E+01
67	  0.033226453	-4.588000E+00	  0.033226453	-3.558400E+01	  0.033226453	8.392800E+01	  0.033226453	-8.828800E+01
68	  0.033426855	-4.585000E+00	  0.033426855	-3.581500E+01	  0.033426855	8.332400E+01	  0.033426855	-8.819800E+01
69	  0.033627257	-4.588000E+00	  0.033627257	-3.602200E+01	  0.033627257	8.280500E+01	  0.033627257	-8.803400E+01
70	  0.033827655	-4.588000E+00	  0.033827655	-3.623100E+01	  0.033827655	8.227800E+01	  0.033827655	-8.790300E+01
71	  0.034028057	-4.588000E+00	  0.034028057	-3.644300E+01	  0.034028057	8.174100E+01	  0.034028057	-8.778300E+01
72	  0.034228459	-4.590000E+00	  0.034228459	-3.667400E+01	  0.034228459	8.117500E+01	  0.034228459	-8.759900E+01
73	  0.034428857	-4.589000E+00	  0.034428857	-3.689200E+01	  0.034428857	8.063400E+01	  0.034428857	-8.747300E+01
74	  0.034629259	-4.590000E+00	  0.034629259	-3.709200E+01	  0.034629259	8.014500E+01	  0.034629259	-8.733300E+01
75	  0.034829661	-4.591000E+00	  0.034829661	-3.731100E+01	  0.034829661	7.961700E+01	  0.034829661	-8.717300E+01
76	  0.035030060	-4.591000E+00	  0.035030060	-3.753400E+01	  0.035030060	7.908000E+01	  0.035030060	-8.702600E+01
77	  0.035230462	-4.591000E+00	  0.035230462	-3.774800E+01	  0.035230462	7.856800E+01	  0.035230462	-8.688600E+01
78	  0.035430863	-4.591000E+00	  0.035430863	-3.796500E+01	  0.035430863	7.805200E+01	  0.035430863	-8.673800E+01
79	  0.035631265	-4.591000E+00	  0.035631265	-3.817000E+01	  0.035631265	7.756600E+01	  0.035631265	-8.660400E+01
80	  0.035831664	-4.592000E+00	  0.035831664	-3.839000E+01	  0.035831664	7.705800E+01	  0.035831664	-8.643300E+01
81	  0.036032066	-4.591000E+00	  0.036032066	-3.860700E+01	  0.036032066	7.655500E+01	  0.036032066	-8.628200E+01
82	  0.036232468	-4.594000E+00	  0.036232468	-3.881800E+01	  0.036232468	7.608200E+01	  0.036232468	-8.609300E+01
83	  0.036432866	-4.594000E+00	  0.036432866	-3.904800E+01	  0.036432866	7.555700E+01	  0.036432866	-8.593300E+01
84	  0.036633268	-4.594000E+00	  0.036633268	-3.925800E+01	  0.036633268	7.508400E+01	  0.036633268	-8.577500E+01
85	  0.036833670	-4.595000E+00	  0.036833670	-3.948000E+01	  0.036833670	7.459600E+01	  0.036833670	-8.558800E+01
86	  0.037034072	-4.597000E+00	  0.037034072	-3.969500E+01	  0.037034072	7.412400E+01	  0.037034072	-8.540900E+01
87	  0.037234470	-4.595000E+00	  0.037234470	-3.990500E+01	  0.037234470	7.365500E+01	  0.037234470	-8.526800E+01
88	  0.037434869	-4.597000E+00	  0.037434869	-4.013100E+01	  0.037434869	7.317300E+01	  0.037434869	-8.507000E+01
89	  0.037635271	-4.599000E+00	  0.037635271	-4.035200E+01	  0.037635271	7.270100E+01	  0.037635271	-8.488100E+01
90	  0.037835669	-4.598000E+00	  0.037835669	-4.057200E+01	  0.037835669	7.222600E+01	  0.037835669	-8.471800E+01
91	  0.038036071	-4.598000E+00	  0.038036071	-4.079200E+01	  0.038036071	7.175900E+01	  0.038036071	-8.454300E+01
92	  0.038236473	-4.599000E+00	  0.038236473	-4.101600E+01	  0.038236473	7.129100E+01	  0.038236473	-8.435400E+01
93	  0.038436871	-4.600000E+00	  0.038436871	-4.121600E+01	  0.038436871	7.087900E+01	  0.038436871	-8.417800E+01
94	  0.038637273	-4.600000E+00	  0.038637273	-4.145100E+01	  0.038637273	7.039000E+01	  0.038637273	-8.399700E+01
95	  0.038837675	-4.602000E+00	  0.038837675	-4.165000E+01	  0.038837675	6.999100E+01	  0.038837675	-8.381200E+01
96	  0.039038073	-4.601000E+00	  0.039038073	-4.187800E+01	  0.039038073	6.952300E+01	  0.039038073	-8.363200E+01
97	  0.039238475	-4.602000E+00	  0.039238475	-4.208300E+01	  0.039238475	6.911500E+01	  0.039238475	-8.345400E+01
98	  0.039438877	-4.602000E+00	  0.039438877	-4.231000E+01	  0.039438877	6.865900E+01	  0.039438877	-8.326700E+01
99	  0.039639279	-4.604000E+00	  0.039639279	-4.251100E+01	  0.039639279	6.826900E+01	  0.039639279	-8.308000E+01
100	  0.039839678	-4.603000E+00	  0.039839678	-4.273800E+01	  0.039839678	6.781800E+01	  0.039839678	-8.290100E+01
101	  0.040040080	-4.605000E+00	  0.040040080	-4.294700E+01	  0.040040080	6.741800E+01	  0.040040080	-8.270600E+01
102	  0.040240481	-4.604000E+00	  0.040240481	-4.316800E+01	  0.040240481	6.698500E+01	  0.040240481	-8.252700E+01
103	  0.040440880	-4.606000E+00	  0.040440880	-4.339300E+01	  0.040440880	6.656100E+01	  0.040440880	-8.231900E+01
104	  0.040641282	-4.607000E+00	  0.040641282	-4.361400E+01	  0.040641282	6.614800E+01	  0.040641282	-8.211700E+01
105	  0.040841684	-4.607000E+00	  0.040841684	-4.384000E+01	  0.040841684	6.572200E+01	  0.040841684	-8.192400E+01
106	  0.041042086	-4.606000E+00	  0.041042086	-4.405400E+01	  0.041042086	6.531600E+01	  0.041042086	-8.174900E+01
107	  0.041242484	-4.608000E+00	  0.041242484	-4.428400E+01	  0.041242484	6.490000E+01	  0.041242484	-8.153200E+01
108	  0.041442886	-4.608000E+00	  0.041442886	-4.449100E+01	  0.041442886	6.452300E+01	  0.041442886	-8.134500E+01
109	  0.041643288	-4.607000E+00	  0.041643288	-4.470100E+01	  0.041643288	6.413400E+01	  0.041643288	-8.117500E+01
110	  0.041843686	-4.609000E+00	  0.041843686	-4.492200E+01	  0.041843686	6.374300E+01	  0.041843686	-8.096200E+01
111	  0.042044088	-4.611000E+00	  0.042044088	-4.514200E+01	  0.042044088	6.335600E+01	  0.042044088	-8.075400E+01
112	  0.042244490	-4.610000E+00	  0.042244490	-4.536600E+01	  0.042244490	6.295200E+01	  0.042244490	-8.056900E+01
113	  0.042444889	-4.610000E+00	  0.042444889	-4.557000E+01	  0.042444889	6.259400E+01	  0.042444889	-8.038600E+01
114	  0.042645290	-4.610000E+00	  0.042645290	-4.580000E+01	  0.042645290	6.219600E+01	  0.042645290	-8.017800E+01
115	  0.042845692	-4.610000E+00	  0.042845692	-4.600800E+01	  0.042845692	6.183400E+01	  0.042845692	-7.999300E+01
116	  0.043046094	-4.610000E+00	  0.043046094	-4.622600E+01	  0.043046094	6.145900E+01	  0.043046094	-7.980200E+01
117	  0.043246493	-4.613000E+00	  0.043246493	-4.644500E+01	  0.043246493	6.110000E+01	  0.043246493	-7.958100E+01
118	  0.043446895	-4.613000E+00	  0.043446895	-4.666100E+01	  0.043446895	6.073400E+01	  0.043446895	-7.938700E+01
119	  0.043647297	-4.612000E+00	  0.043647297	-4.687300E+01	  0.043647297	6.037500E+01	  0.043647297	-7.920500E+01
120	  0.043847695	-4.614000E+00	  0.043847695	-4.709300E+01	  0.043847695	6.002300E+01	  0.043847695	-7.898200E+01
121	  0.044048097	-4.613000E+00	  0.044048097	-4.732000E+01	  0.044048097	5.964400E+01	  0.044048097	-7.879000E+01
122	  0.044248499	-4.614000E+00	  0.044248499	-4.753300E+01	  0.044248499	5.929800E+01	  0.044248499	-7.859300E+01
123	  0.044448901	-4.613000E+00	  0.044448901	-4.775500E+01	  0.044448901	5.893500E+01	  0.044448901	-7.840100E+01
124	  0.044649299	-4.616000E+00	  0.044649299	-4.797900E+01	  0.044649299	5.859300E+01	  0.044649299	-7.816500E+01
125	  0.044849701	-4.615000E+00	  0.044849701	-4.819400E+01	  0.044849701	5.824500E+01	  0.044849701	-7.798300E+01
126	  0.045050103	-4.615000E+00	  0.045050103	-4.842100E+01	  0.045050103	5.788700E+01	  0.045050103	-7.777600E+01
127	  0.045250501	-4.618000E+00	  0.045250501	-4.863900E+01	  0.045250501	5.756100E+01	  0.045250501	-7.755200E+01
128	  0.045450903	-4.618000E+00	  0.045450903	-4.884400E+01	  0.045450903	5.724500E+01	  0.045450903	-7.736200E+01
129	  0.045651305	-4.618000E+00	  0.045651305	-4.906400E+01	  0.045651305	5.690700E+01	  0.045651305	-7.716000E+01
130	  0.045851704	-4.619000E+00	  0.045851704	-4.928200E+01	  0.045851704	5.657600E+01	  0.045851704	-7.695700E+01
131	  0.046052106	-4.618000E+00	  0.046052106	-4.951800E+01	  0.046052106	5.621500E+01	  0.046052106	-7.675100E+01
132	  0.046252504	-4.619000E+00	  0.046252504	-4.973800E+01	  0.046252504	5.589200E+01	  0.046252504	-7.653700E+01
133	  0.046452906	-4.620000E+00	  0.046452906	-4.995300E+01	  0.046452906	5.557500E+01	  0.046452906	-7.633500E+01
134	  0.046653304	-4.619000E+00	  0.046653304	-5.017200E+01	  0.046653304	5.525200E+01	  0.046653304	-7.613500E+01
135	  0.046853706	-4.619000E+00	  0.046853706	-5.039700E+01	  0.046853706	5.492200E+01	  0.046853706	-7.593300E+01
136	  0.047054108	-4.620000E+00	  0.047054108	-5.062300E+01	  0.047054108	5.459900E+01	  0.047054108	-7.571700E+01
137	  0.047254506	-4.621000E+00	  0.047254506	-5.084400E+01	  0.047254506	5.428900E+01	  0.047254506	-7.550300E+01
138	  0.047454908	-4.620000E+00	  0.047454908	-5.106500E+01	  0.047454908	5.396900E+01	  0.047454908	-7.530800E+01
139	  0.047655310	-4.621000E+00	  0.047655310	-5.127700E+01	  0.047655310	5.367500E+01	  0.047655310	-7.510600E+01
140	  0.047855709	-4.621000E+00	  0.047855709	-5.149900E+01	  0.047855709	5.336100E+01	  0.047855709	-7.490600E+01
141	  0.048056111	-4.621000E+00	  0.048056111	-5.170900E+01	  0.048056111	5.307000E+01	  0.048056111	-7.471200E+01
142	  0.048256513	-4.622000E+00	  0.048256513	-5.194200E+01	  0.048256513	5.275500E+01	  0.048256513	-7.448900E+01
143	  0.048456915	-4.625000E+00	  0.048456915	-5.216400E+01	  0.048456915	5.246800E+01	  0.048456915	-7.426200E+01
144	  0.048657313	-4.623000E+00	  0.048657313	-5.237500E+01	  0.048657313	5.217200E+01	  0.048657313	-7.408200E+01
145	  0.048857715	-4.625000E+00	  0.048857715	-5.260900E+01	  0.048857715	5.187000E+01	  0.048857715	-7.385000E+01
146	  0.049058117	-4.624000E+00	  0.049058117	-5.282400E+01	  0.049058117	5.158000E+01	  0.049058117	-7.365600E+01
147	  0.049258515	-4.625000E+00	  0.049258515	-5.302900E+01	  0.049258515	5.131200E+01	  0.049258515	-7.346400E+01
148	  0.049458917	-4.624000E+00	  0.049458917	-5.325900E+01	  0.049458917	5.100300E+01	  0.049458917	-7.326300E+01
149	  0.049659319	-4.626000E+00	  0.049659319	-5.347200E+01	  0.049659319	5.073900E+01	  0.049659319	-7.305000E+01
150	  0.049859721	-4.623000E+00	  0.049859721	-5.370100E+01	  0.049859721	5.042800E+01	  0.049859721	-7.286200E+01
151	  0.050060119	-4.627000E+00	  0.050060119	-5.390200E+01	  0.050060119	5.019200E+01	  0.050060119	-7.264800E+01
152	  0.050260521	-4.627000E+00	  0.050260521	-5.413100E+01	  0.050260521	4.990200E+01	  0.050260521	-7.243800E+01
153	  0.050460923	-4.625000E+00	  0.050460923	-5.435300E+01	  0.050460923	4.961500E+01	  0.050460923	-7.224500E+01
154	  0.050661322	-4.629000E+00	  0.050661322	-5.455500E+01	  0.050661322	4.938600E+01	  0.050661322	-7.202900E+01
155	  0.050861724	-4.629000E+00	  0.050861724	-5.477500E+01	  0.050861724	4.911400E+01	  0.050861724	-7.182700E+01
156	  0.051062126	-4.629000E+00	  0.051062126	-5.500200E+01	  0.051062126	4.883400E+01	  0.051062126	-7.162000E+01
157	  0.051262524	-4.629000E+00	  0.051262524	-5.522000E+01	  0.051262524	4.857100E+01	  0.051262524	-7.142000E+01
158	  0.051462926	-4.628000E+00	  0.051462926	-5.544300E+01	  0.051462926	4.829800E+01	  0.051462926	-7.122200E+01
159	  0.051663328	-4.630000E+00	  0.051663328	-5.566400E+01	  0.051663328	4.804300E+01	  0.051663328	-7.100600E+01
160	  0.051863730	-4.631000E+00	  0.051863730	-5.587600E+01	  0.051863730	4.779800E+01	  0.051863730	-7.080600E+01
161	  0.052064128	-4.632000E+00	  0.052064128	-5.609300E+01	  0.052064128	4.755200E+01	  0.052064128	-7.059600E+01
162	  0.052264530	-4.630000E+00	  0.052264530	-5.632500E+01	  0.052264530	4.726500E+01	  0.052264530	-7.040400E+01
163	  0.052464932	-4.631000E+00	  0.052464932	-5.653600E+01	  0.052464932	4.702800E+01	  0.052464932	-7.020300E+01
164	  0.052665330	-4.632000E+00	  0.052665330	-5.676400E+01	  0.052665330	4.677500E+01	  0.052665330	-6.998500E+01
165	  0.052865732	-4.633000E+00	  0.052865732	-5.696900E+01	  0.052865732	4.654500E+01	  0.052865732	-6.979400E+01
166	  0.053066134	-4.635000E+00	  0.053066134	-5.719000E+01	  0.053066134	4.630900E+01	  0.053066134	-6.957800E+01
167	  0.053266536	-4.634000E+00	  0.053266536	-5.741100E+01	  0.053266536	4.605600E+01	  0.053266536	-6.938200E+01
168	  0.053466935	-4.636000E+00	  0.053466935	-5.762700E+01	  0.053466935	4.582600E+01	  0.053466935	-6.917500E+01
169	  0.053667337	-4.637000E+00	  0.053667337	-5.784900E+01	  0.053667337	4.558400E+01	  0.053667337	-6.897000E+01
170	  0.053867739	-4.636000E+00	  0.053867739	-5.805300E+01	  0.053867739	4.536000E+01	  0.053867739	-6.879000E+01
171	  0.054068137	-4.637000E+00	  0.054068137	-5.829600E+01	  0.054068137	4.510400E+01	  0.054068137	-6.856100E+01
172	  0.054268539	-4.637000E+00	  0.054268539	-5.849500E+01	  0.054268539	4.488800E+01	  0.054268539	-6.838400E+01
173	  0.054468941	-4.639000E+00	  0.054468941	-5.871900E+01	  0.054468941	4.466100E+01	  0.054468941	-6.816800E+01
174	  0.054669339	-4.639000E+00	  0.054669339	-5.893700E+01	  0.054669339	4.443000E+01	  0.054669339	-6.797200E+01
175	  0.054869737	-4.641000E+00	  0.054869737	-5.915300E+01	  0.054869737	4.421600E+01	  0.054869737	-6.776200E+01
176	  0.055070139	-4.641000E+00	  0.055070139	-5.937900E+01	  0.055070139	4.397600E+01	  0.055070139	-6.756600E+01
177	  0.055270538	-4.639000E+00	  0.055270538	-5.958000E+01	  0.055270538	4.376000E+01	  0.055270538	-6.739600E+01
178	  0.055470940	-4.642000E+00	  0.055470940	-5.980700E+01	  0.055470940	4.354100E+01	  0.055470940	-6.717600E+01
179	  0.055671342	-4.641000E+00	  0.055671342	-6.002600E+01	  0.055671342	4.331900E+01	  0.055671342	-6.698100E+01
180	  0.055871744	-4.641000E+00	  0.055871744	-6.023700E+01	  0.055871744	4.310000E+01	  0.055871744	-6.679900E+01
181	  0.056072142	-4.642000E+00	  0.056072142	-6.046100E+01	  0.056072142	4.288600E+01	  0.056072142	-6.658800E+01
182	  0.056272544	-4.644000E+00	  0.056272544	-6.067200E+01	  0.056272544	4.268900E+01	  0.056272544	-6.638700E+01
183	  0.056472946	-4.646000E+00	  0.056472946	-6.089100E+01	  0.056472946	4.248400E+01	  0.056472946	-6.618100E+01
184	  0.056673344	-4.646000E+00	  0.056673344	-6.112300E+01	  0.056673344	4.225700E+01	  0.056673344	-6.597600E+01
185	  0.056873746	-4.645000E+00	  0.056873746	-6.134000E+01	  0.056873746	4.204000E+01	  0.056873746	-6.579100E+01
186	  0.057074148	-4.647000E+00	  0.057074148	-6.155300E+01	  0.057074148	4.184400E+01	  0.057074148	-6.559400E+01
187	  0.057274550	-4.648000E+00	  0.057274550	-6.176100E+01	  0.057274550	4.165600E+01	  0.057274550	-6.540000E+01
188	  0.057474948	-4.649000E+00	  0.057474948	-6.198200E+01	  0.057474948	4.144900E+01	  0.057474948	-6.520300E+01
189	  0.057675350	-4.650000E+00	  0.057675350	-6.219700E+01	  0.057675350	4.125500E+01	  0.057675350	-6.500500E+01
190	  0.057875752	-4.651000E+00	  0.057875752	-6.241000E+01	  0.057875752	4.106000E+01	  0.057875752	-6.481400E+01
191	  0.058076151	-4.652000E+00	  0.058076151	-6.264100E+01	  0.058076151	4.085400E+01	  0.058076151	-6.460500E+01
192	  0.058276553	-4.655000E+00	  0.058276553	-6.285500E+01	  0.058276553	4.067200E+01	  0.058276553	-6.440200E+01
193	  0.058476955	-4.656000E+00	  0.058476955	-6.307500E+01	  0.058476955	4.048100E+01	  0.058476955	-6.420000E+01
194	  0.058677353	-4.654000E+00	  0.058677353	-6.328600E+01	  0.058677353	4.027800E+01	  0.058677353	-6.403100E+01
195	  0.058877755	-4.658000E+00	  0.058877755	-6.350200E+01	  0.058877755	4.010600E+01	  0.058877755	-6.382100E+01
196	  0.059078157	-4.658000E+00	  0.059078157	-6.372700E+01	  0.059078157	3.990700E+01	  0.059078157	-6.362500E+01
197	  0.059278559	-4.660000E+00	  0.059278559	-6.393700E+01	  0.059278559	3.973000E+01	  0.059278559	-6.343500E+01
198	  0.059478957	-4.659000E+00	  0.059478957	-6.416100E+01	  0.059478957	3.953200E+01	  0.059478957	-6.324400E+01
199	  0.059679359	-4.662000E+00	  0.059679359	-6.438600E+01	  0.059679359	3.934900E+01	  0.059679359	-6.303700E+01
200	  0.059879761	-4.664000E+00	  0.059879761	-6.461000E+01	  0.059879761	3.916800E+01	  0.059879761	-6.283100E+01
201	  0.060080159	-4.662000E+00	  0.060080159	-6.483000E+01	  0.060080159	3.897200E+01	  0.060080159	-6.265100E+01
202	  0.060280561	-4.664000E+00	  0.060280561	-6.504900E+01	  0.060280561	3.879700E+01	  0.060280561	-6.245300E+01
203	  0.060480963	-4.666000E+00	  0.060480963	-6.527200E+01	  0.060480963	3.861900E+01	  0.060480963	-6.225400E+01
204	  0.060681365	-4.666000E+00	  0.060681365	-6.549400E+01	  0.060681365	3.843400E+01	  0.060681365	-6.206300E+01
205	  0.060881764	-4.668000E+00	  0.060881764	-6.570800E+01	  0.060881764	3.826900E+01	  0.060881764	-6.186900E+01
206	  0.061082166	-4.668000E+00	  0.061082166	-6.593500E+01	  0.061082166	3.807800E+01	  0.061082166	-6.168000E+01
207	  0.061282568	-4.668000E+00	  0.061282568	-6.616000E+01	  0.061282568	3.789600E+01	  0.061282568	-6.148900E+01
208	  0.061482966	-4.668000E+00	  0.061482966	-6.637000E+01	  0.061482966	3.772400E+01	  0.061482966	-6.131300E+01
209	  0.061683368	-4.669000E+00	  0.061683368	-6.657700E+01	  0.061683368	3.756300E+01	  0.061683368	-6.113300E+01
210	  0.061883770	-4.669000E+00	  0.061883770	-6.680900E+01	  0.061883770	3.737900E+01	  0.061883770	-6.093700E+01
211	  0.062084168	-4.667000E+00	  0.062084168	-6.702600E+01	  0.062084168	3.719900E+01	  0.062084168	-6.076100E+01
212	  0.062284570	-4.670000E+00	  0.062284570	-6.724800E+01	  0.062284570	3.704000E+01	  0.062284570	-6.056100E+01
213	  0.062484972	-4.656000E+00	  0.062484972	-6.737600E+01	  0.062484972	3.686200E+01	  0.062484972	-6.052600E+01
214	  0.062685370	-4.660000E+00	  0.062685370	-6.759700E+01	  0.062685370	3.671100E+01	  0.062685370	-6.032400E+01
215	  0.062885776	-4.658000E+00	  0.062885776	-6.780100E+01	  0.062885776	3.654300E+01	  0.062885776	-6.016300E+01
216	  0.063086174	-4.663000E+00	  0.063086174	-6.802100E+01	  0.063086174	3.640600E+01	  0.063086174	-5.995100E+01
217	  0.063286573	-4.662000E+00	  0.063286573	-6.825600E+01	  0.063286573	3.622000E+01	  0.063286573	-5.976300E+01
218	  0.063486971	-4.664000E+00	  0.063486971	-6.846300E+01	  0.063486971	3.607300E+01	  0.063486971	-5.958300E+01
219	  0.063687377	-4.664000E+00	  0.063687377	-6.867900E+01	  0.063687377	3.591300E+01	  0.063687377	-5.940200E+01
220	  0.063887775	-4.665000E+00	  0.063887775	-6.889800E+01	  0.063887775	3.575800E+01	  0.063887775	-5.921400E+01
221	  0.064088173	-4.668000E+00	  0.064088173	-6.911100E+01	  0.064088173	3.561600E+01	  0.064088173	-5.902600E+01
222	  0.064288579	-4.666000E+00	  0.064288579	-6.932900E+01	  0.064288579	3.544800E+01	  0.064288579	-5.885500E+01
223	  0.064488977	-4.668000E+00	  0.064488977	-6.955400E+01	  0.064488977	3.529200E+01	  0.064488977	-5.866400E+01
224	  0.064689375	-4.668000E+00	  0.064689375	-6.978700E+01	  0.064689375	3.512600E+01	  0.064689375	-5.847000E+01
225	  0.064889781	-4.671000E+00	  0.064889781	-6.999900E+01	  0.064889781	3.498800E+01	  0.064889781	-5.828600E+01
226	  0.065090179	-4.672000E+00	  0.065090179	-7.021900E+01	  0.065090179	3.483800E+01	  0.065090179	-5.810100E+01
227	  0.065290578	-4.673000E+00	  0.065290578	-7.045200E+01	  0.065290578	3.468200E+01	  0.065290578	-5.790600E+01
228	  0.065490983	-4.674000E+00	  0.065490983	-7.065100E+01	  0.065490983	3.454800E+01	  0.065490983	-5.773900E+01
229	  0.065691382	-4.675000E+00	  0.065691382	-7.088600E+01	  0.065691382	3.438800E+01	  0.065691382	-5.754700E+01
230	  0.065891780	-4.674000E+00	  0.065891780	-7.111000E+01	  0.065891780	3.423100E+01	  0.065891780	-5.736800E+01
231	  0.066092186	-4.674000E+00	  0.066092186	-7.132100E+01	  0.066092186	3.408700E+01	  0.066092186	-5.719800E+01
232	  0.066292584	-4.677000E+00	  0.066292584	-7.155900E+01	  0.066292584	3.394000E+01	  0.066292584	-5.699600E+01
233	  0.066492982	-4.677000E+00	  0.066492982	-7.176000E+01	  0.066492982	3.380700E+01	  0.066492982	-5.683200E+01
234	  0.066693388	-4.677000E+00	  0.066693388	-7.198500E+01	  0.066693388	3.365300E+01	  0.066693388	-5.665500E+01
235	  0.066893786	-4.675000E+00	  0.066893786	-7.220800E+01	  0.066893786	3.349600E+01	  0.066893786	-5.648500E+01
236	  0.067094192	-4.677000E+00	  0.067094192	-7.242800E+01	  0.067094192	3.336300E+01	  0.067094192	-5.630000E+01
237	  0.067294590	-4.678000E+00	  0.067294590	-7.263900E+01	  0.067294590	3.322800E+01	  0.067294590	-5.613000E+01
238	  0.067494988	-4.680000E+00	  0.067494988	-7.288500E+01	  0.067494988	3.308200E+01	  0.067494988	-5.592400E+01
239	  0.067695394	-4.676000E+00	  0.067695394	-7.308900E+01	  0.067695394	3.292700E+01	  0.067695394	-5.578200E+01
240	  0.067895792	-4.678000E+00	  0.067895792	-7.330800E+01	  0.067895792	3.279700E+01	  0.067895792	-5.560100E+01
241	  0.068096191	-4.681000E+00	  0.068096191	-7.354500E+01	  0.068096191	3.266300E+01	  0.068096191	-5.540200E+01
242	  0.068296596	-4.680000E+00	  0.068296596	-7.374400E+01	  0.068296596	3.253200E+01	  0.068296596	-5.525000E+01
243	  0.068496995	-4.683000E+00	  0.068496995	-7.397500E+01	  0.068496995	3.240300E+01	  0.068496995	-5.505700E+01
244	  0.068697393	-4.679000E+00	  0.068697393	-7.419000E+01	  0.068697393	3.224800E+01	  0.068697393	-5.490500E+01
245	  0.068897791	-4.681000E+00	  0.068897791	-7.442600E+01	  0.068897791	3.211300E+01	  0.068897791	-5.471300E+01
246	  0.069098189	-4.681000E+00	  0.069098189	-7.463800E+01	  0.069098189	3.198500E+01	  0.069098189	-5.454700E+01
247	  0.069298595	-4.685000E+00	  0.069298595	-7.486400E+01	  0.069298595	3.186700E+01	  0.069298595	-5.435700E+01
248	  0.069498993	-4.685000E+00	  0.069498993	-7.507200E+01	  0.069498993	3.174200E+01	  0.069498993	-5.419600E+01
249	  0.069699399	-4.684000E+00	  0.069699399	-7.528800E+01	  0.069699399	3.161200E+01	  0.069699399	-5.403000E+01
250	  0.069899797	-4.683000E+00	  0.069899797	-7.551500E+01	  0.069899797	3.146900E+01	  0.069899797	-5.386100E+01
251	  0.070100196	-4.686000E+00	  0.070100196	-7.571400E+01	  0.070100196	3.136800E+01	  0.070100196	-5.369600E+01
252	  0.070300601	-4.687000E+00	  0.070300601	-7.596200E+01	  0.070300601	3.122700E+01	  0.070300601	-5.350200E+01
253	  0.070501000	-4.685000E+00	  0.070501000	-7.619000E+01	  0.070501000	3.108400E+01	  0.070501000	-5.333500E+01
254	  0.070701398	-4.689000E+00	  0.070701398	-7.640800E+01	  0.070701398	3.097700E+01	  0.070701398	-5.315500E+01
255	  0.070901804	-4.687000E+00	  0.070901804	-7.662800E+01	  0.070901804	3.084300E+01	  0.070901804	-5.299300E+01
256	  0.071102202	-4.689000E+00	  0.071102202	-7.684000E+01	  0.071102202	3.073400E+01	  0.071102202	-5.282400E+01
257	  0.071302600	-4.689000E+00	  0.071302600	-7.706700E+01	  0.071302600	3.060500E+01	  0.071302600	-5.265200E+01
258	  0.071503006	-4.691000E+00	  0.071503006	-7.728500E+01	  0.071503006	3.049500E+01	  0.071503006	-5.247900E+01
259	  0.071703404	-4.693000E+00	  0.071703404	-7.750200E+01	  0.071703404	3.038000E+01	  0.071703404	-5.231100E+01
260	  0.071903802	-4.691000E+00	  0.071903802	-7.775500E+01	  0.071903802	3.023300E+01	  0.071903802	-5.212600E+01
261	  0.072104208	-4.693000E+00	  0.072104208	-7.793300E+01	  0.072104208	3.014400E+01	  0.072104208	-5.198600E+01
262	  0.072304606	-4.694000E+00	  0.072304606	-7.816900E+01	  0.072304606	3.001900E+01	  0.072304606	-5.180700E+01
263	  0.072505005	-4.695000E+00	  0.072505005	-7.839100E+01	  0.072505005	2.990700E+01	  0.072505005	-5.163600E+01
264	  0.072705410	-4.694000E+00	  0.072705410	-7.861200E+01	  0.072705410	2.978200E+01	  0.072705410	-5.147500E+01
265	  0.072905809	-4.697000E+00	  0.072905809	-7.884400E+01	  0.072905809	2.967100E+01	  0.072905809	-5.129500E+01
266	  0.073106214	-4.698000E+00	  0.073106214	-7.904600E+01	  0.073106214	2.957100E+01	  0.073106214	-5.113900E+01
267	  0.073306613	-4.700000E+00	  0.073306613	-7.927500E+01	  0.073306613	2.945800E+01	  0.073306613	-5.096400E+01
268	  0.073507011	-4.700000E+00	  0.073507011	-7.949400E+01	  0.073507011	2.934700E+01	  0.073507011	-5.080100E+01
269	  0.073707417	-4.702000E+00	  0.073707417	-7.972700E+01	  0.073707417	2.923300E+01	  0.073707417	-5.062500E+01
270	  0.073907815	-4.700000E+00	  0.073907815	-7.994500E+01	  0.073907815	2.911400E+01	  0.073907815	-5.047000E+01
271	  0.074108213	-4.699000E+00	  0.074108213	-8.015700E+01	  0.074108213	2.900000E+01	  0.074108213	-5.031800E+01
272	  0.074308619	-4.701000E+00	  0.074308619	-8.038900E+01	  0.074308619	2.889100E+01	  0.074308619	-5.014300E+01
273	  0.074509017	-4.702000E+00	  0.074509017	-8.058700E+01	  0.074509017	2.879600E+01	  0.074509017	-4.999500E+01
274	  0.074709415	-4.706000E+00	  0.074709415	-8.083700E+01	  0.074709415	2.868900E+01	  0.074709415	-4.980100E+01
275	  0.074909821	-4.704000E+00	  0.074909821	-8.105000E+01	  0.074909821	2.857400E+01	  0.074909821	-4.965300E+01
276	  0.075110219	-4.704000E+00	  0.075110219	-8.128300E+01	  0.075110219	2.845700E+01	  0.075110219	-4.948500E+01
277	  0.075310618	-4.704000E+00	  0.075310618	-8.149800E+01	  0.075310618	2.835600E+01	  0.075310618	-4.932800E+01
278	  0.075511023	-4.704000E+00	  0.075511023	-8.171900E+01	  0.075511023	2.824600E+01	  0.075511023	-4.917000E+01
279	  0.075711422	-4.705000E+00	  0.075711422	-8.195400E+01	  0.075711422	2.813800E+01	  0.075711422	-4.899800E+01
280	  0.075911827	-4.705000E+00	  0.075911827	-8.217800E+01	  0.075911827	2.802900E+01	  0.075911827	-4.883800E+01
281	  0.076112226	-4.710000E+00	  0.076112226	-8.240100E+01	  0.076112226	2.794600E+01	  0.076112226	-4.866300E+01
282	  0.076312624	-4.709000E+00	  0.076312624	-8.260600E+01	  0.076312624	2.784600E+01	  0.076312624	-4.852000E+01
283	  0.076513030	-4.710000E+00	  0.076513030	-8.283000E+01	  0.076513030	2.774500E+01	  0.076513030	-4.835700E+01
284	  0.076713428	-4.708000E+00	  0.076713428	-8.305300E+01	  0.076713428	2.763100E+01	  0.076713428	-4.820500E+01
285	  0.076913826	-4.710000E+00	  0.076913826	-8.329500E+01	  0.076913826	2.752800E+01	  0.076913826	-4.802900E+01
286	  0.077114232	-4.711000E+00	  0.077114232	-8.350000E+01	  0.077114232	2.744000E+01	  0.077114232	-4.788000E+01
287	  0.077314630	-4.709000E+00	  0.077314630	-8.372600E+01	  0.077314630	2.732900E+01	  0.077314630	-4.772500E+01
288	  0.077515028	-4.714000E+00	  0.077515028	-8.393600E+01	  0.077515028	2.725400E+01	  0.077515028	-4.756500E+01
289	  0.077715434	-4.714000E+00	  0.077715434	-8.415900E+01	  0.077715434	2.715300E+01	  0.077715434	-4.740800E+01
290	  0.077915832	-4.713000E+00	  0.077915832	-8.438100E+01	  0.077915832	2.704900E+01	  0.077915832	-4.725600E+01
291	  0.078116231	-4.714000E+00	  0.078116231	-8.459000E+01	  0.078116231	2.696400E+01	  0.078116231	-4.710600E+01
292	  0.078316636	-4.716000E+00	  0.078316636	-8.482400E+01	  0.078316636	2.686600E+01	  0.078316636	-4.693900E+01
293	  0.078517035	-4.715000E+00	  0.078517035	-8.503100E+01	  0.078517035	2.677200E+01	  0.078517035	-4.679700E+01
294	  0.078717433	-4.719000E+00	  0.078717433	-8.526100E+01	  0.078717433	2.668900E+01	  0.078717433	-4.662700E+01
295	  0.078917839	-4.716000E+00	  0.078917839	-8.548400E+01	  0.078917839	2.658200E+01	  0.078917839	-4.648000E+01
296	  0.079118237	-4.718000E+00	  0.079118237	-8.570400E+01	  0.079118237	2.649700E+01	  0.079118237	-4.632300E+01
297	  0.079318643	-4.717000E+00	  0.079318643	-8.592200E+01	  0.079318643	2.639700E+01	  0.079318643	-4.617700E+01
298	  0.079519041	-4.718000E+00	  0.079519041	-8.615000E+01	  0.079519041	2.630700E+01	  0.079519041	-4.601700E+01
299	  0.079719439	-4.719000E+00	  0.079719439	-8.636900E+01	  0.079719439	2.621800E+01	  0.079719439	-4.586500E+01
300	  0.079919845	-4.720000E+00	  0.079919845	-8.658400E+01	  0.079919845	2.613100E+01	  0.079919845	-4.571600E+01
301	  0.080120243	-4.721000E+00	  0.080120243	-8.680500E+01	  0.080120243	2.604400E+01	  0.080120243	-4.556300E+01
302	  0.080320641	-4.723000E+00	  0.080320641	-8.704100E+01	  0.080320641	2.595700E+01	  0.080320641	-4.539600E+01
303	  0.080521047	-4.723000E+00	  0.080521047	-8.727500E+01	  0.080521047	2.586000E+01	  0.080521047	-4.523800E+01
304	  0.080721445	-4.721000E+00	  0.080721445	-8.749900E+01	  0.080721445	2.575900E+01	  0.080721445	-4.509200E+01
305	  0.080921844	-4.727000E+00	  0.080921844	-8.769600E+01	  0.080921844	2.570600E+01	  0.080921844	-4.494400E+01
306	  0.081122249	-4.727000E+00	  0.081122249	-8.792100E+01	  0.081122249	2.561600E+01	  0.081122249	-4.479200E+01
307	  0.081322648	-4.724000E+00	  0.081322648	-8.813600E+01	  0.081322648	2.552000E+01	  0.081322648	-4.465400E+01
308	  0.081523046	-4.727000E+00	  0.081523046	-8.836800E+01	  0.081523046	2.543900E+01	  0.081523046	-4.449200E+01
309	  0.081723452	-4.727000E+00	  0.081723452	-8.859700E+01	  0.081723452	2.534800E+01	  0.081723452	-4.433900E+01
310	  0.081923850	-4.726000E+00	  0.081923850	-8.880500E+01	  0.081923850	2.526400E+01	  0.081923850	-4.420300E+01
311	  0.082124248	-4.726000E+00	  0.082124248	-8.902900E+01	  0.082124248	2.517400E+01	  0.082124248	-4.405500E+01
312	  0.082324654	-4.729000E+00	  0.082324654	-8.925700E+01	  0.082324654	2.510000E+01	  0.082324654	-4.389500E+01
313	  0.082525052	-4.729000E+00	  0.082525052	-8.947300E+01	  0.082525052	2.501800E+01	  0.082525052	-4.375200E+01
314	  0.082725458	-4.728000E+00	  0.082725458	-8.970000E+01	  0.082725458	2.493000E+01	  0.082725458	-4.360300E+01
315	  0.082925856	-4.729000E+00	  0.082925856	-8.993300E+01	  0.082925856	2.484400E+01	  0.082925856	-4.344800E+01
316	  0.083126254	-4.731000E+00	  0.083126254	-9.015200E+01	  0.083126254	2.477200E+01	  0.083126254	-4.329900E+01
317	  0.083326660	-4.732000E+00	  0.083326660	-9.037300E+01	  0.083326660	2.469300E+01	  0.083326660	-4.315200E+01
318	  0.083527058	-4.733000E+00	  0.083527058	-9.059400E+01	  0.083527058	2.461600E+01	  0.083527058	-4.300400E+01
319	  0.083727457	-4.731000E+00	  0.083727457	-9.081400E+01	  0.083727457	2.452500E+01	  0.083727457	-4.286700E+01
320	  0.083927862	-4.733000E+00	  0.083927862	-9.103800E+01	  0.083927862	2.445300E+01	  0.083927862	-4.271500E+01
321	  0.084128261	-4.732000E+00	  0.084128261	-9.125500E+01	  0.084128261	2.436700E+01	  0.084128261	-4.257800E+01
322	  0.084328659	-4.734000E+00	  0.084328659	-9.147500E+01	  0.084328659	2.430000E+01	  0.084328659	-4.242800E+01
323	  0.084529065	-4.736000E+00	  0.084529065	-9.169600E+01	  0.084529065	2.422700E+01	  0.084529065	-4.228200E+01
324	  0.084729463	-4.736000E+00	  0.084729463	-9.191500E+01	  0.084729463	2.415000E+01	  0.084729463	-4.214000E+01
325	  0.084929861	-4.737000E+00	  0.084929861	-9.215500E+01	  0.084929861	2.407000E+01	  0.084929861	-4.198300E+01
326	  0.085130267	-4.739000E+00	  0.085130267	-9.236600E+01	  0.085130267	2.400200E+01	  0.085130267	-4.184400E+01
327	  0.085330658	-4.741000E+00	  0.085330658	-9.258400E+01	  0.085330658	2.393400E+01	  0.085330658	-4.169900E+01
328	  0.085531056	-4.741000E+00	  0.085531056	-9.280600E+01	  0.085531056	2.385900E+01	  0.085531056	-4.155600E+01
329	  0.085731462	-4.742000E+00	  0.085731462	-9.302700E+01	  0.085731462	2.378400E+01	  0.085731462	-4.141500E+01
330	  0.085931860	-4.742000E+00	  0.085931860	-9.325700E+01	  0.085931860	2.370600E+01	  0.085931860	-4.126900E+01
331	  0.086132258	-4.744000E+00	  0.086132258	-9.347100E+01	  0.086132258	2.364100E+01	  0.086132258	-4.112800E+01
332	  0.086332664	-4.745000E+00	  0.086332664	-9.370000E+01	  0.086332664	2.356800E+01	  0.086332664	-4.098100E+01
333	  0.086533062	-4.744000E+00	  0.086533062	-9.392000E+01	  0.086533062	2.349200E+01	  0.086533062	-4.084300E+01
334	  0.086733460	-4.747000E+00	  0.086733460	-9.413800E+01	  0.086733460	2.343100E+01	  0.086733460	-4.069900E+01
335	  0.086933866	-4.749000E+00	  0.086933866	-9.436000E+01	  0.086933866	2.336400E+01	  0.086933866	-4.055600E+01
336	  0.087134264	-4.748000E+00	  0.087134264	-9.457600E+01	  0.087134264	2.329000E+01	  0.087134264	-4.042200E+01
337	  0.087334670	-4.750000E+00	  0.087334670	-9.479900E+01	  0.087334670	2.322400E+01	  0.087334670	-4.027900E+01
338	  0.087535068	-4.753000E+00	  0.087535068	-9.503300E+01	  0.087535068	2.316300E+01	  0.087535068	-4.012500E+01
339	  0.087735467	-4.750000E+00	  0.087735467	-9.525800E+01	  0.087735467	2.307700E+01	  0.087735467	-3.999100E+01
340	  0.087935872	-4.754000E+00	  0.087935872	-9.547200E+01	  0.087935872	2.302400E+01	  0.087935872	-3.985000E+01
341	  0.088136271	-4.751000E+00	  0.088136271	-9.569100E+01	  0.088136271	2.294400E+01	  0.088136271	-3.972000E+01
342	  0.088336669	-4.754000E+00	  0.088336669	-9.591600E+01	  0.088336669	2.288400E+01	  0.088336669	-3.957500E+01
343	  0.088537075	-4.753000E+00	  0.088537075	-9.614600E+01	  0.088537075	2.280800E+01	  0.088537075	-3.943400E+01
344	  0.088737473	-4.756000E+00	  0.088737473	-9.636800E+01	  0.088737473	2.274800E+01	  0.088737473	-3.929300E+01
345	  0.088937871	-4.757000E+00	  0.088937871	-9.659200E+01	  0.088937871	2.268400E+01	  0.088937871	-3.915200E+01
346	  0.089138277	-4.759000E+00	  0.089138277	-9.681300E+01	  0.089138277	2.262100E+01	  0.089138277	-3.901400E+01
347	  0.089338675	-4.759000E+00	  0.089338675	-9.703800E+01	  0.089338675	2.255200E+01	  0.089338675	-3.887600E+01
348	  0.089539073	-4.762000E+00	  0.089539073	-9.725900E+01	  0.089539073	2.250000E+01	  0.089539073	-3.873300E+01
349	  0.089739479	-4.764000E+00	  0.089739479	-9.747000E+01	  0.089739479	2.244200E+01	  0.089739479	-3.860200E+01
350	  0.089939877	-4.765000E+00	  0.089939877	-9.769500E+01	  0.089939877	2.237800E+01	  0.089939877	-3.846300E+01
351	  0.090140276	-4.765000E+00	  0.090140276	-9.792300E+01	  0.090140276	2.231200E+01	  0.090140276	-3.832400E+01
352	  0.090340681	-4.768000E+00	  0.090340681	-9.815200E+01	  0.090340681	2.225200E+01	  0.090340681	-3.818100E+01
353	  0.090541080	-4.767000E+00	  0.090541080	-9.838000E+01	  0.090541080	2.218300E+01	  0.090541080	-3.804500E+01
354	  0.090741485	-4.770000E+00	  0.090741485	-9.859200E+01	  0.090741485	2.213200E+01	  0.090741485	-3.791100E+01
355	  0.090941884	-4.769000E+00	  0.090941884	-9.881300E+01	  0.090941884	2.206200E+01	  0.090941884	-3.778100E+01
356	  0.091142282	-4.771000E+00	  0.091142282	-9.904500E+01	  0.091142282	2.200400E+01	  0.091142282	-3.763800E+01
357	  0.091342688	-4.773000E+00	  0.091342688	-9.926300E+01	  0.091342688	2.195100E+01	  0.091342688	-3.750200E+01
358	  0.091543086	-4.774000E+00	  0.091543086	-9.949000E+01	  0.091543086	2.188900E+01	  0.091543086	-3.736500E+01
359	  0.091743484	-4.776000E+00	  0.091743484	-9.972100E+01	  0.091743484	2.183200E+01	  0.091743484	-3.722400E+01
360	  0.091943890	-4.777000E+00	  0.091943890	-9.994100E+01	  0.091943890	2.177200E+01	  0.091943890	-3.709100E+01
361	  0.092144288	-4.779000E+00	  0.092144288	-1.001760E+02	  0.092144288	2.171500E+01	  0.092144288	-3.694800E+01
362	  0.092344686	-4.779000E+00	  0.092344686	-1.003950E+02	  0.092344686	2.165100E+01	  0.092344686	-3.681900E+01
363	  0.092545092	-4.781000E+00	  0.092545092	-1.006170E+02	  0.092545092	2.159800E+01	  0.092545092	-3.668500E+01
364	  0.092745490	-4.782000E+00	  0.092745490	-1.008280E+02	  0.092745490	2.154700E+01	  0.092745490	-3.655700E+01
365	  0.092945889	-4.783000E+00	  0.092945889	-1.010670E+02	  0.092945889	2.148300E+01	  0.092945889	-3.641600E+01
366	  0.093146294	-4.783000E+00	  0.093146294	-1.012880E+02	  0.093146294	2.142200E+01	  0.093146294	-3.628600E+01
367	  0.093346693	-4.785000E+00	  0.093346693	-1.015060E+02	  0.093346693	2.137100E+01	  0.093346693	-3.615500E+01
368	  0.093547091	-4.784000E+00	  0.093547091	-1.017440E+02	  0.093547091	2.130600E+01	  0.093547091	-3.601700E+01
369	  0.093747497	-4.787000E+00	  0.093747497	-1.019610E+02	  0.093747497	2.126000E+01	  0.093747497	-3.588500E+01
370	  0.093947895	-4.786000E+00	  0.093947895	-1.021910E+02	  0.093947895	2.119200E+01	  0.093947895	-3.575400E+01
371	  0.094148301	-4.786000E+00	  0.094148301	-1.023990E+02	  0.094148301	2.113900E+01	  0.094148301	-3.563300E+01
372	  0.094348699	-4.787000E+00	  0.094348699	-1.026350E+02	  0.094348699	2.108100E+01	  0.094348699	-3.549400E+01
373	  0.094549097	-4.789000E+00	  0.094549097	-1.028530E+02	  0.094549097	2.103200E+01	  0.094549097	-3.536500E+01
374	  0.094749503	-4.789000E+00	  0.094749503	-1.030840E+02	  0.094749503	2.097300E+01	  0.094749503	-3.523100E+01
375	  0.094949901	-4.789000E+00	  0.094949901	-1.033040E+02	  0.094949901	2.091500E+01	  0.094949901	-3.510500E+01
376	  0.095150299	-4.791000E+00	  0.095150299	-1.035220E+02	  0.095150299	2.086700E+01	  0.095150299	-3.497600E+01
377	  0.095350705	-4.792000E+00	  0.095350705	-1.037570E+02	  0.095350705	2.081200E+01	  0.095350705	-3.484000E+01
378	  0.095551103	-4.793000E+00	  0.095551103	-1.039890E+02	  0.095551103	2.075500E+01	  0.095551103	-3.470600E+01
379	  0.095751502	-4.794000E+00	  0.095751502	-1.042070E+02	  0.095751502	2.070400E+01	  0.095751502	-3.458000E+01
380	  0.095951907	-4.793000E+00	  0.095951907	-1.044200E+02	  0.095951907	2.064800E+01	  0.095951907	-3.446000E+01
381	  0.096152306	-4.793000E+00	  0.096152306	-1.046570E+02	  0.096152306	2.058900E+01	  0.096152306	-3.432500E+01
382	  0.096352704	-4.795000E+00	  0.096352704	-1.048860E+02	  0.096352704	2.054000E+01	  0.096352704	-3.419200E+01
383	  0.096553110	-4.795000E+00	  0.096553110	-1.050960E+02	  0.096553110	2.048800E+01	  0.096553110	-3.407400E+01
384	  0.096753508	-4.796000E+00	  0.096753508	-1.053410E+02	  0.096753508	2.043200E+01	  0.096753508	-3.393400E+01
385	  0.096953906	-4.798000E+00	  0.096953906	-1.055530E+02	  0.096953906	2.038900E+01	  0.096953906	-3.381100E+01
386	  0.097154312	-4.797000E+00	  0.097154312	-1.057710E+02	  0.097154312	2.033300E+01	  0.097154312	-3.368900E+01
387	  0.097354710	-4.798000E+00	  0.097354710	-1.060020E+02	  0.097354710	2.028200E+01	  0.097354710	-3.355800E+01
388	  0.097555116	-4.798000E+00	  0.097555116	-1.062130E+02	  0.097555116	2.023400E+01	  0.097555116	-3.343900E+01
389	  0.097755514	-4.799000E+00	  0.097755514	-1.064540E+02	  0.097755514	2.018100E+01	  0.097755514	-3.330300E+01
390	  0.097955912	-4.800000E+00	  0.097955912	-1.066800E+02	  0.097955912	2.012900E+01	  0.097955912	-3.317600E+01
391	  0.098156318	-4.802000E+00	  0.098156318	-1.069060E+02	  0.098156318	2.008600E+01	  0.098156318	-3.304700E+01
392	  0.098356716	-4.802000E+00	  0.098356716	-1.071300E+02	  0.098356716	2.003400E+01	  0.098356716	-3.292200E+01
393	  0.098557115	-4.802000E+00	  0.098557115	-1.073490E+02	  0.098557115	1.998200E+01	  0.098557115	-3.280100E+01
394	  0.098757520	-4.802000E+00	  0.098757520	-1.075690E+02	  0.098757520	1.993400E+01	  0.098757520	-3.267800E+01
395	  0.098957919	-4.804000E+00	  0.098957919	-1.078040E+02	  0.098957919	1.988600E+01	  0.098957919	-3.254600E+01
396	  0.099158317	-4.805000E+00	  0.099158317	-1.080210E+02	  0.099158317	1.984100E+01	  0.099158317	-3.242500E+01
397	  0.099358723	-4.805000E+00	  0.099358723	-1.082410E+02	  0.099358723	1.979200E+01	  0.099358723	-3.230400E+01
398	  0.099559121	-4.806000E+00	  0.099559121	-1.084820E+02	  0.099559121	1.974100E+01	  0.099559121	-3.217000E+01
399	  0.099759519	-4.806000E+00	  0.099759519	-1.087020E+02	  0.099759519	1.969300E+01	  0.099759519	-3.204900E+01
400	  0.099959925	-4.795000E+00	  0.099959925	-1.089090E+02	  0.099959925	1.961000E+01	  0.099959925	-3.195100E+01
401	  0.100160323	-4.798000E+00	  0.100160323	-1.091200E+02	  0.100160323	1.957400E+01	  0.100160323	-3.183100E+01
402	  0.100360721	-4.796000E+00	  0.100360721	-1.093640E+02	  0.100360721	1.951400E+01	  0.100360721	-3.170200E+01
403	  0.100561127	-4.801000E+00	  0.100561127	-1.095630E+02	  0.100561127	1.948900E+01	  0.100561127	-3.158600E+01
404	  0.100761525	-4.802000E+00	  0.100761525	-1.097890E+02	  0.100761525	1.944300E+01	  0.100761525	-3.146200E+01
405	  0.100961931	-4.803000E+00	  0.100961931	-1.100210E+02	  0.100961931	1.939700E+01	  0.100961931	-3.133500E+01
406	  0.101162329	-4.801000E+00	  0.101162329	-1.102470E+02	  0.101162329	1.934300E+01	  0.101162329	-3.121400E+01
407	  0.101362728	-4.807000E+00	  0.101362728	-1.104710E+02	  0.101362728	1.931600E+01	  0.101362728	-3.108600E+01
408	  0.101563133	-4.802000E+00	  0.101563133	-1.107120E+02	  0.101563133	1.925000E+01	  0.101563133	-3.096200E+01
409	  0.101763532	-4.807000E+00	  0.101763532	-1.109110E+02	  0.101763532	1.922500E+01	  0.101763532	-3.084800E+01
410	  0.101963930	-4.806000E+00	  0.101963930	-1.111620E+02	  0.101963930	1.917200E+01	  0.101963930	-3.071400E+01
411	  0.102164336	-4.806000E+00	  0.102164336	-1.113690E+02	  0.102164336	1.912800E+01	  0.102164336	-3.060400E+01
412	  0.102364734	-4.807000E+00	  0.102364734	-1.116030E+02	  0.102364734	1.908400E+01	  0.102364734	-3.047700E+01
413	  0.102565132	-4.806000E+00	  0.102565132	-1.118050E+02	  0.102565132	1.904000E+01	  0.102565132	-3.037000E+01
414	  0.102765530	-4.808000E+00	  0.102765530	-1.120510E+02	  0.102765530	1.899600E+01	  0.102765530	-3.023700E+01
415	  0.102965929	-4.808000E+00	  0.102965929	-1.122610E+02	  0.102965929	1.895400E+01	  0.102965929	-3.012500E+01
416	  0.103166327	-4.810000E+00	  0.103166327	-1.124940E+02	  0.103166327	1.891600E+01	  0.103166327	-2.999800E+01
417	  0.103366733	-4.813000E+00	  0.103366733	-1.127280E+02	  0.103366733	1.888100E+01	  0.103366733	-2.987000E+01
418	  0.103567131	-4.813000E+00	  0.103567131	-1.129090E+02	  0.103567131	1.884500E+01	  0.103567131	-2.977500E+01
419	  0.103767529	-4.812000E+00	  0.103767529	-1.131880E+02	  0.103767529	1.878600E+01	  0.103767529	-2.962900E+01
420	  0.103967935	-4.814000E+00	  0.103967935	-1.133920E+02	  0.103967935	1.875400E+01	  0.103967935	-2.951800E+01
421	  0.104168333	-4.813000E+00	  0.104168333	-1.136200E+02	  0.104168333	1.870800E+01	  0.104168333	-2.939900E+01
422	  0.104368731	-4.815000E+00	  0.104368731	-1.138420E+02	  0.104368731	1.867200E+01	  0.104368731	-2.928000E+01
423	  0.104569137	-4.815000E+00	  0.104569137	-1.140690E+02	  0.104569137	1.862900E+01	  0.104569137	-2.916100E+01
424	  0.104769535	-4.815000E+00	  0.104769535	-1.142820E+02	  0.104769535	1.858800E+01	  0.104769535	-2.904900E+01
425	  0.104969934	-4.813000E+00	  0.104969934	-1.145310E+02	  0.104969934	1.853300E+01	  0.104969934	-2.892200E+01
426	  0.105170339	-4.817000E+00	  0.105170339	-1.147720E+02	  0.105170339	1.850400E+01	  0.105170339	-2.879000E+01
427	  0.105370738	-4.816000E+00	  0.105370738	-1.149740E+02	  0.105370738	1.846300E+01	  0.105370738	-2.868700E+01
428	  0.105571143	-4.820000E+00	  0.105571143	-1.152000E+02	  0.105571143	1.843500E+01	  0.105571143	-2.856400E+01
429	  0.105771542	-4.820000E+00	  0.105771542	-1.154170E+02	  0.105771542	1.839500E+01	  0.105771542	-2.845200E+01
430	  0.105971940	-4.822000E+00	  0.105971940	-1.156500E+02	  0.105971940	1.836000E+01	  0.105971940	-2.832800E+01
431	  0.106172346	-4.820000E+00	  0.106172346	-1.158580E+02	  0.106172346	1.831300E+01	  0.106172346	-2.822400E+01
432	  0.106372744	-4.822000E+00	  0.106372744	-1.160970E+02	  0.106372744	1.827700E+01	  0.106372744	-2.809800E+01
433	  0.106573142	-4.825000E+00	  0.106573142	-1.163190E+02	  0.106573142	1.824700E+01	  0.106573142	-2.798100E+01
434	  0.106773548	-4.824000E+00	  0.106773548	-1.165520E+02	  0.106773548	1.820300E+01	  0.106773548	-2.786200E+01
435	  0.106973946	-4.829000E+00	  0.106973946	-1.167850E+02	  0.106973946	1.817800E+01	  0.106973946	-2.773600E+01
436	  0.107174344	-4.827000E+00	  0.107174344	-1.169910E+02	  0.107174344	1.813500E+01	  0.107174344	-2.763300E+01
437	  0.107374750	-4.828000E+00	  0.107374750	-1.172410E+02	  0.107374750	1.809500E+01	  0.107374750	-2.750400E+01
438	  0.107575148	-4.829000E+00	  0.107575148	-1.174760E+02	  0.107575148	1.805800E+01	  0.107575148	-2.738300E+01
439	  0.107775547	-4.830000E+00	  0.107775547	-1.176400E+02	  0.107775547	1.803500E+01	  0.107775547	-2.729700E+01
440	  0.107975952	-4.830000E+00	  0.107975952	-1.179130E+02	  0.107975952	1.798700E+01	  0.107975952	-2.715900E+01
441	  0.108176351	-4.831000E+00	  0.108176351	-1.181280E+02	  0.108176351	1.795500E+01	  0.108176351	-2.704800E+01
442	  0.108376749	-4.833000E+00	  0.108376749	-1.183540E+02	  0.108376749	1.792200E+01	  0.108376749	-2.693100E+01
443	  0.108577155	-4.831000E+00	  0.108577155	-1.185790E+02	  0.108577155	1.787900E+01	  0.108577155	-2.681900E+01
444	  0.108777553	-4.830000E+00	  0.108777553	-1.188030E+02	  0.108777553	1.783900E+01	  0.108777553	-2.670700E+01
445	  0.108977959	-4.833000E+00	  0.108977959	-1.190310E+02	  0.108977959	1.781100E+01	  0.108977959	-2.658900E+01
446	  0.109178357	-4.831000E+00	  0.109178357	-1.192500E+02	  0.109178357	1.776700E+01	  0.109178357	-2.648100E+01
447	  0.109378755	-4.838000E+00	  0.109378755	-1.194950E+02	  0.109378755	1.775000E+01	  0.109378755	-2.635000E+01
448	  0.109579161	-4.832000E+00	  0.109579161	-1.197230E+02	  0.109579161	1.769100E+01	  0.109579161	-2.624200E+01
449	  0.109779559	-4.837000E+00	  0.109779559	-1.199560E+02	  0.109779559	1.767200E+01	  0.109779559	-2.612000E+01
450	  0.109979957	-4.836000E+00	  0.109979957	-1.201680E+02	  0.109979957	1.763500E+01	  0.109979957	-2.601500E+01
451	  0.110180363	-4.836000E+00	  0.110180363	-1.203990E+02	  0.110180363	1.759700E+01	  0.110180363	-2.590000E+01
452	  0.110380761	-4.836000E+00	  0.110380761	-1.206320E+02	  0.110380761	1.755900E+01	  0.110380761	-2.578400E+01
453	  0.110581160	-4.838000E+00	  0.110581160	-1.208450E+02	  0.110581160	1.753400E+01	  0.110581160	-2.567500E+01
454	  0.110781565	-4.838000E+00	  0.110781565	-1.210760E+02	  0.110781565	1.749900E+01	  0.110781565	-2.556000E+01
455	  0.110981964	-4.837000E+00	  0.110981964	-1.213010E+02	  0.110981964	1.745900E+01	  0.110981964	-2.545000E+01
456	  0.111182362	-4.843000E+00	  0.111182362	-1.215420E+02	  0.111182362	1.744100E+01	  0.111182362	-2.532400E+01
457	  0.111382768	-4.837000E+00	  0.111382768	-1.217490E+02	  0.111382768	1.738900E+01	  0.111382768	-2.522700E+01
458	  0.111583166	-4.841000E+00	  0.111583166	-1.219860E+02	  0.111583166	1.736800E+01	  0.111583166	-2.510600E+01
459	  0.111783572	-4.838000E+00	  0.111783572	-1.222120E+02	  0.111783572	1.732400E+01	  0.111783572	-2.499700E+01
460	  0.111983970	-4.838000E+00	  0.111983970	-1.224670E+02	  0.111983970	1.728600E+01	  0.111983970	-2.487200E+01
461	  0.112184368	-4.841000E+00	  0.112184368	-1.226620E+02	  0.112184368	1.726600E+01	  0.112184368	-2.477300E+01
462	  0.112384774	-4.846000E+00	  0.112384774	-1.228880E+02	  0.112384774	1.724600E+01	  0.112384774	-2.465800E+01
463	  0.112585172	-4.842000E+00	  0.112585172	-1.231240E+02	  0.112585172	1.720100E+01	  0.112585172	-2.454500E+01
464	  0.112785570	-4.844000E+00	  0.112785570	-1.233480E+02	  0.112785570	1.717500E+01	  0.112785570	-2.443400E+01
465	  0.112985976	-4.843000E+00	  0.112985976	-1.235770E+02	  0.112985976	1.713800E+01	  0.112985976	-2.432300E+01
466	  0.113186374	-4.845000E+00	  0.113186374	-1.238110E+02	  0.113186374	1.711000E+01	  0.113186374	-2.420700E+01
467	  0.113386773	-4.847000E+00	  0.113386773	-1.240290E+02	  0.113386773	1.708300E+01	  0.113386773	-2.409900E+01
468	  0.113587178	-4.846000E+00	  0.113587178	-1.242510E+02	  0.113587178	1.705100E+01	  0.113587178	-2.399100E+01
469	  0.113787577	-4.844000E+00	  0.113787577	-1.244730E+02	  0.113787577	1.701300E+01	  0.113787577	-2.388600E+01
470	  0.113987975	-4.847000E+00	  0.113987975	-1.247150E+02	  0.113987975	1.698800E+01	  0.113987975	-2.376600E+01
471	  0.114188381	-4.847000E+00	  0.114188381	-1.249390E+02	  0.114188381	1.695600E+01	  0.114188381	-2.365700E+01
472	  0.114388779	-4.848000E+00	  0.114388779	-1.251730E+02	  0.114388779	1.692600E+01	  0.114388779	-2.354300E+01
473	  0.114589177	-4.851000E+00	  0.114589177	-1.253890E+02	  0.114589177	1.690700E+01	  0.114589177	-2.343600E+01
474	  0.114789583	-4.849000E+00	  0.114789583	-1.256050E+02	  0.114789583	1.686800E+01	  0.114789583	-2.333400E+01
475	  0.114989981	-4.847000E+00	  0.114989981	-1.258460E+02	  0.114989981	1.683000E+01	  0.114989981	-2.322000E+01
476	  0.115190387	-4.851000E+00	  0.115190387	-1.260520E+02	  0.115190387	1.681500E+01	  0.115190387	-2.311700E+01
477	  0.115390785	-4.851000E+00	  0.115390785	-1.263020E+02	  0.115390785	1.678000E+01	  0.115390785	-2.299800E+01
478	  0.115591183	-4.854000E+00	  0.115591183	-1.265130E+02	  0.115591183	1.676100E+01	  0.115591183	-2.289400E+01
479	  0.115791589	-4.854000E+00	  0.115791589	-1.267530E+02	  0.115791589	1.673000E+01	  0.115791589	-2.277800E+01
480	  0.115991987	-4.853000E+00	  0.115991987	-1.269770E+02	  0.115991987	1.669800E+01	  0.115991987	-2.267200E+01
481	  0.116192386	-4.854000E+00	  0.116192386	-1.271900E+02	  0.116192386	1.667000E+01	  0.116192386	-2.257000E+01
482	  0.116392791	-4.855000E+00	  0.116392791	-1.274230E+02	  0.116392791	1.664400E+01	  0.116392791	-2.245800E+01
483	  0.116593190	-4.859000E+00	  0.116593190	-1.276470E+02	  0.116593190	1.662600E+01	  0.116593190	-2.234900E+01
484	  0.116793588	-4.858000E+00	  0.116793588	-1.278710E+02	  0.116793588	1.659700E+01	  0.116793588	-2.224300E+01
485	  0.116993994	-4.858000E+00	  0.116993994	-1.280910E+02	  0.116993994	1.656600E+01	  0.116993994	-2.213900E+01
486	  0.117194392	-4.862000E+00	  0.117194392	-1.283090E+02	  0.117194392	1.655200E+01	  0.117194392	-2.203200E+01
487	  0.117394790	-4.861000E+00	  0.117394790	-1.285450E+02	  0.117394790	1.651900E+01	  0.117394790	-2.192100E+01
488	  0.117595196	-4.862000E+00	  0.117595196	-1.287700E+02	  0.117595196	1.649300E+01	  0.117595196	-2.181400E+01
489	  0.117795594	-4.863000E+00	  0.117795594	-1.290090E+02	  0.117795594	1.646600E+01	  0.117795594	-2.170100E+01
490	  0.117995992	-4.861000E+00	  0.117995992	-1.292160E+02	  0.117995992	1.643500E+01	  0.117995992	-2.160400E+01
491	  0.118196398	-4.864000E+00	  0.118196398	-1.294500E+02	  0.118196398	1.641600E+01	  0.118196398	-2.149200E+01
492	  0.118396796	-4.863000E+00	  0.118396796	-1.296760E+02	  0.118396796	1.638400E+01	  0.118396796	-2.138700E+01
493	  0.118597202	-4.865000E+00	  0.118597202	-1.298850E+02	  0.118597202	1.636400E+01	  0.118597202	-2.128800E+01
494	  0.118797600	-4.867000E+00	  0.118797600	-1.301320E+02	  0.118797600	1.634200E+01	  0.118797600	-2.117000E+01
495	  0.118997999	-4.868000E+00	  0.118997999	-1.303480E+02	  0.118997999	1.631700E+01	  0.118997999	-2.106800E+01
496	  0.119198404	-4.867000E+00	  0.119198404	-1.305860E+02	  0.119198404	1.628800E+01	  0.119198404	-2.095800E+01
497	  0.119398803	-4.868000E+00	  0.119398803	-1.308060E+02	  0.119398803	1.626400E+01	  0.119398803	-2.085400E+01
498	  0.119599201	-4.866000E+00	  0.119599201	-1.310250E+02	  0.119599201	1.623300E+01	  0.119599201	-2.075400E+01
499	  0.119799607	-4.868000E+00	  0.119799607	-1.312440E+02	  0.119799607	1.621400E+01	  0.119799607	-2.065000E+01
500	  0.120000005	-4.865000E+00	  0.120000005	-1.314640E+02	  0.120000005	1.617900E+01	  0.120000005	-2.055000E+01
