! Anritsu VNA Master:             	Model: MS2036C/10/77
! SN:             	1601066
! /bd0/18may08.cable.cal/top.50.2.txt
! Existing Calibration Information:
! TYPE:             	Current Settings	Active Cal Settings
! TIME:             	05/08/2018 06:15:37 PM	05/08/2018 05:57:55 PM
! INTERNAL TEMP:    	49.5 C	49.3 C
! # POINTS:         	500	500
! START FREQ:       	20.000 MHz	20.000 MHz
! STOP FREQ:        	120.000 MHz	120.000 MHz
! SOURCE POWER:     	High	High
! IFBW:             	50 Hz	50 Hz
! AVG FACTOR:       	  1 	  1 
! REF PLANE 1:      	0 mm	0 mm
! REF PLANE 2:      	0 mm	0 mm
! CAL TYPE:         	Full S11	Full S11
! CAL METHOD:       	SOLT	SOLT
! CAL LINE TYPE:    	Coax	Coax
! DUT PORT 1:       	K-Conn(F)	K-Conn(F)
! DUT PORT 2:       	K-Conn(F)	K-Conn(F)
! CAL STATUS:       	OK: Accuracy High	--
! PROP-V:       	0.700
! CABLE LOSS:       	0.000 dB/m
! REF IMPEDANCE:       	50.0
! Trace Specific Parameters:	TR1	TR2	TR3	TR4
! TRACE.#.Y (GRAPH TYPE)	LOG MAG	PHASE	REAL IMPEDANCE	IMAGINARY IMPEDANCE
! TRACE.#.X 	FREQ.GHZ	FREQ.GHZ	FREQ.GHZ	FREQ.GHZ
! S-PARAMETER	S11	S11	S11	S11
! SMOOTH/APERTURE %	0	0	0	0
! WINDOW	NSL	NSL	NSL	NSL
! GATING	OFF	OFF	OFF	OFF
! FGTD	OFF	OFF	OFF	OFF
Marker Information per Trace:	TR1	TR2	TR3	TR4
!MK1	--	"MK1 TR2:  20.000 MHz,PH:56.35°"	--	--
!MK2	--	--	"MK2 TR3:  70.100 200 MHz,Z:(52.205 ohm, 1.537 ohm)"	--
!MK3	--	--	--	--
!MK4	--	--	--	--
!MK5	--	--	--	--
!MK6	--	--	--	--
!MK7	--	--	--	--
!MK8	--	--	--	--
PNT	TR1.FREQ.GHZ	TR1.LOG MAG.dB	TR2.FREQ.GHZ	TR2.PHASE.deg	TR3.FREQ.GHZ	TR3.REAL IMPEDANCE.ohm	TR4.FREQ.GHZ	TR4.IMAGINARY IMPEDANCE.ohm
1	  0.020000000	-3.889700E+01	  0.020000000	5.634600E+01	  0.020000000	5.062400E+01	  0.020000000	9.560000E-01
2	  0.020200402	-3.892300E+01	  0.020200402	5.612500E+01	  0.020200402	5.062500E+01	  0.020200402	9.510000E-01
3	  0.020400802	-3.874000E+01	  0.020400802	5.593400E+01	  0.020400802	5.064200E+01	  0.020400802	9.700000E-01
4	  0.020601204	-3.878300E+01	  0.020601204	5.641000E+01	  0.020601204	5.063100E+01	  0.020601204	9.700000E-01
5	  0.020801604	-3.869500E+01	  0.020801604	5.589600E+01	  0.020801604	5.064600E+01	  0.020801604	9.740000E-01
6	  0.021002004	-3.868300E+01	  0.021002004	5.542900E+01	  0.021002004	5.065500E+01	  0.021002004	9.700000E-01
7	  0.021202406	-3.858400E+01	  0.021202406	5.609500E+01	  0.021202406	5.065100E+01	  0.021202406	9.890000E-01
8	  0.021402806	-3.847100E+01	  0.021402806	5.527500E+01	  0.021402806	5.067400E+01	  0.021402806	9.930000E-01
9	  0.021603208	-3.850900E+01	  0.021603208	5.587900E+01	  0.021603208	5.066000E+01	  0.021603208	9.950000E-01
10	  0.021803608	-3.834900E+01	  0.021803608	5.580500E+01	  0.021803608	5.067400E+01	  0.021803608	1.013000E+00
11	  0.022004008	-3.834500E+01	  0.022004008	5.535700E+01	  0.022004008	5.068200E+01	  0.022004008	1.009000E+00
12	  0.022204408	-3.826300E+01	  0.022204408	5.549800E+01	  0.022204408	5.068600E+01	  0.022204408	1.020000E+00
13	  0.022404809	-3.815100E+01	  0.022404809	5.544600E+01	  0.022404809	5.069600E+01	  0.022404809	1.033000E+00
14	  0.022605211	-3.821100E+01	  0.022605211	5.496500E+01	  0.022605211	5.069900E+01	  0.022605211	1.020000E+00
15	  0.022805611	-3.811300E+01	  0.022805611	5.483500E+01	  0.022805611	5.071000E+01	  0.022805611	1.030000E+00
16	  0.023006011	-3.801900E+01	  0.023006011	5.495300E+01	  0.023006011	5.071500E+01	  0.023006011	1.043000E+00
17	  0.023206413	-3.807800E+01	  0.023206413	5.511700E+01	  0.023206413	5.070700E+01	  0.023206413	1.038000E+00
18	  0.023406813	-3.794700E+01	  0.023406813	5.487800E+01	  0.023406813	5.072300E+01	  0.023406813	1.051000E+00
19	  0.023607215	-3.789400E+01	  0.023607215	5.525500E+01	  0.023607215	5.072000E+01	  0.023607215	1.062000E+00
20	  0.023807615	-3.780600E+01	  0.023807615	5.497100E+01	  0.023807615	5.073200E+01	  0.023807615	1.069000E+00
21	  0.024008015	-3.769200E+01	  0.024008015	5.483300E+01	  0.024008015	5.074500E+01	  0.024008015	1.082000E+00
22	  0.024208417	-3.777600E+01	  0.024208417	5.466700E+01	  0.024208417	5.074100E+01	  0.024208417	1.069000E+00
23	  0.024408817	-3.768200E+01	  0.024408817	5.478700E+01	  0.024408817	5.074700E+01	  0.024408817	1.083000E+00
24	  0.024609219	-3.763200E+01	  0.024609219	5.497000E+01	  0.024609219	5.074700E+01	  0.024609219	1.091000E+00
25	  0.024809619	-3.760400E+01	  0.024809619	5.451400E+01	  0.024809619	5.075800E+01	  0.024809619	1.089000E+00
26	  0.025010020	-3.752800E+01	  0.025010020	5.448900E+01	  0.025010020	5.076600E+01	  0.025010020	1.098000E+00
27	  0.025210422	-3.755400E+01	  0.025210422	5.452400E+01	  0.025210422	5.076300E+01	  0.025210422	1.095000E+00
28	  0.025410822	-3.747200E+01	  0.025410822	5.458900E+01	  0.025410822	5.076900E+01	  0.025410822	1.107000E+00
29	  0.025611224	-3.734800E+01	  0.025611224	5.456400E+01	  0.025611224	5.078000E+01	  0.025611224	1.123000E+00
30	  0.025811624	-3.741400E+01	  0.025811624	5.401600E+01	  0.025811624	5.078500E+01	  0.025811624	1.107000E+00
31	  0.026012026	-3.736200E+01	  0.026012026	5.406700E+01	  0.026012026	5.078900E+01	  0.026012026	1.114000E+00
32	  0.026212426	-3.725800E+01	  0.026212426	5.419500E+01	  0.026212426	5.079500E+01	  0.026212426	1.129000E+00
33	  0.026412826	-3.719200E+01	  0.026412826	5.416100E+01	  0.026412826	5.080200E+01	  0.026412826	1.138000E+00
34	  0.026613226	-3.717000E+01	  0.026613226	5.408000E+01	  0.026613226	5.080600E+01	  0.026613226	1.140000E+00
35	  0.026813626	-3.713100E+01	  0.026813626	5.398500E+01	  0.026813626	5.081100E+01	  0.026813626	1.143000E+00
36	  0.027014028	-3.710000E+01	  0.027014028	5.416000E+01	  0.027014028	5.081100E+01	  0.027014028	1.150000E+00
37	  0.027214428	-3.700600E+01	  0.027214428	5.366300E+01	  0.027214428	5.083000E+01	  0.027214428	1.156000E+00
38	  0.027414829	-3.690500E+01	  0.027414829	5.383200E+01	  0.027414829	5.083600E+01	  0.027414829	1.172000E+00
39	  0.027615231	-3.697700E+01	  0.027615231	5.379700E+01	  0.027615231	5.083000E+01	  0.027615231	1.162000E+00
40	  0.027815631	-3.691700E+01	  0.027815631	5.333500E+01	  0.027815631	5.084500E+01	  0.027815631	1.163000E+00
41	  0.028016033	-3.686600E+01	  0.028016033	5.367600E+01	  0.028016033	5.084300E+01	  0.028016033	1.175000E+00
42	  0.028216433	-3.679200E+01	  0.028216433	5.379000E+01	  0.028216433	5.084800E+01	  0.028216433	1.187000E+00
43	  0.028416833	-3.669000E+01	  0.028416833	5.324600E+01	  0.028416833	5.086900E+01	  0.028416833	1.193000E+00
44	  0.028617235	-3.669900E+01	  0.028617235	5.343700E+01	  0.028617235	5.086400E+01	  0.028617235	1.195000E+00
45	  0.028817635	-3.662900E+01	  0.028817635	5.305200E+01	  0.028817635	5.087900E+01	  0.028817635	1.199000E+00
46	  0.029018037	-3.667400E+01	  0.029018037	5.300600E+01	  0.029018037	5.087600E+01	  0.029018037	1.192000E+00
47	  0.029218437	-3.658700E+01	  0.029218437	5.333100E+01	  0.029218437	5.087700E+01	  0.029218437	1.209000E+00
48	  0.029418837	-3.655200E+01	  0.029418837	5.286100E+01	  0.029418837	5.089100E+01	  0.029418837	1.207000E+00
49	  0.029619239	-3.651000E+01	  0.029619239	5.291800E+01	  0.029619239	5.089400E+01	  0.029619239	1.213000E+00
50	  0.029819639	-3.641300E+01	  0.029819639	5.279800E+01	  0.029819639	5.090700E+01	  0.029819639	1.225000E+00
51	  0.030020041	-3.644500E+01	  0.030020041	5.255700E+01	  0.030020041	5.090900E+01	  0.030020041	1.217000E+00
52	  0.030220442	-3.642200E+01	  0.030220442	5.261800E+01	  0.030220442	5.091000E+01	  0.030220442	1.221000E+00
53	  0.030420844	-3.636100E+01	  0.030420844	5.267400E+01	  0.030420844	5.091500E+01	  0.030420844	1.231000E+00
54	  0.030621244	-3.628400E+01	  0.030621244	5.260900E+01	  0.030621244	5.092400E+01	  0.030621244	1.241000E+00
55	  0.030821644	-3.627300E+01	  0.030821644	5.275100E+01	  0.030821644	5.092200E+01	  0.030821644	1.245000E+00
56	  0.031022044	-3.622200E+01	  0.031022044	5.229100E+01	  0.031022044	5.093800E+01	  0.031022044	1.245000E+00
57	  0.031222444	-3.606300E+01	  0.031222444	5.230800E+01	  0.031222444	5.095500E+01	  0.031222444	1.269000E+00
58	  0.031422846	-3.612700E+01	  0.031422846	5.272800E+01	  0.031422846	5.093800E+01	  0.031422846	1.266000E+00
59	  0.031623244	-3.616400E+01	  0.031623244	5.238200E+01	  0.031623244	5.094200E+01	  0.031623244	1.255000E+00
60	  0.031823646	-3.605700E+01	  0.031823646	5.212300E+01	  0.031823646	5.096000E+01	  0.031823646	1.267000E+00
61	  0.032024048	-3.605100E+01	  0.032024048	5.233300E+01	  0.032024048	5.095600E+01	  0.032024048	1.271000E+00
62	  0.032224450	-3.597500E+01	  0.032224450	5.210100E+01	  0.032224450	5.096900E+01	  0.032224450	1.278000E+00
63	  0.032424849	-3.594200E+01	  0.032424849	5.193900E+01	  0.032424849	5.097700E+01	  0.032424849	1.281000E+00
64	  0.032625251	-3.596200E+01	  0.032625251	5.164800E+01	  0.032625251	5.098100E+01	  0.032625251	1.273000E+00
65	  0.032825653	-3.590600E+01	  0.032825653	5.189300E+01	  0.032825653	5.098200E+01	  0.032825653	1.285000E+00
66	  0.033026051	-3.590100E+01	  0.033026051	5.145800E+01	  0.033026051	5.099200E+01	  0.033026051	1.279000E+00
67	  0.033226453	-3.581400E+01	  0.033226453	5.160200E+01	  0.033226453	5.099900E+01	  0.033226453	1.294000E+00
68	  0.033426855	-3.572700E+01	  0.033426855	5.183200E+01	  0.033426855	5.100300E+01	  0.033426855	1.311000E+00
69	  0.033627257	-3.573800E+01	  0.033627257	5.144500E+01	  0.033627257	5.101100E+01	  0.033627257	1.303000E+00
70	  0.033827655	-3.568800E+01	  0.033827655	5.122900E+01	  0.033827655	5.102200E+01	  0.033827655	1.307000E+00
71	  0.034028057	-3.568100E+01	  0.034028057	5.116700E+01	  0.034028057	5.102400E+01	  0.034028057	1.307000E+00
72	  0.034228459	-3.562100E+01	  0.034228459	5.113600E+01	  0.034228459	5.103200E+01	  0.034228459	1.315000E+00
73	  0.034428857	-3.560100E+01	  0.034428857	5.140400E+01	  0.034428857	5.102800E+01	  0.034428857	1.323000E+00
74	  0.034629259	-3.557300E+01	  0.034629259	5.120100E+01	  0.034629259	5.103600E+01	  0.034629259	1.324000E+00
75	  0.034829661	-3.556600E+01	  0.034829661	5.092000E+01	  0.034829661	5.104400E+01	  0.034829661	1.320000E+00
76	  0.035030060	-3.545800E+01	  0.035030060	5.087300E+01	  0.035030060	5.105800E+01	  0.035030060	1.336000E+00
77	  0.035230462	-3.543700E+01	  0.035230462	5.096300E+01	  0.035230462	5.105800E+01	  0.035230462	1.341000E+00
78	  0.035430863	-3.542300E+01	  0.035430863	5.068400E+01	  0.035430863	5.106700E+01	  0.035430863	1.338000E+00
79	  0.035631265	-3.538600E+01	  0.035631265	5.064600E+01	  0.035631265	5.107200E+01	  0.035631265	1.343000E+00
80	  0.035831664	-3.537200E+01	  0.035831664	5.042300E+01	  0.035831664	5.107900E+01	  0.035831664	1.341000E+00
81	  0.036032066	-3.532400E+01	  0.036032066	5.071400E+01	  0.036032066	5.107800E+01	  0.036032066	1.354000E+00
82	  0.036232468	-3.530800E+01	  0.036232468	5.025700E+01	  0.036232468	5.109100E+01	  0.036232468	1.348000E+00
83	  0.036432866	-3.527400E+01	  0.036432866	5.017200E+01	  0.036432866	5.109700E+01	  0.036432866	1.352000E+00
84	  0.036633268	-3.527200E+01	  0.036633268	5.064800E+01	  0.036633268	5.108600E+01	  0.036633268	1.361000E+00
85	  0.036833670	-3.524500E+01	  0.036833670	5.009100E+01	  0.036833670	5.110300E+01	  0.036833670	1.355000E+00
86	  0.037034072	-3.517200E+01	  0.037034072	4.987300E+01	  0.037034072	5.111700E+01	  0.037034072	1.363000E+00
87	  0.037234470	-3.512100E+01	  0.037234470	4.987800E+01	  0.037234470	5.112400E+01	  0.037234470	1.371000E+00
88	  0.037434869	-3.511400E+01	  0.037434869	4.998200E+01	  0.037434869	5.112200E+01	  0.037434869	1.374000E+00
89	  0.037635271	-3.510300E+01	  0.037635271	4.978600E+01	  0.037635271	5.112800E+01	  0.037635271	1.372000E+00
90	  0.037835669	-3.505000E+01	  0.037835669	4.984200E+01	  0.037835669	5.113400E+01	  0.037835669	1.382000E+00
91	  0.038036071	-3.497500E+01	  0.038036071	4.955000E+01	  0.038036071	5.115100E+01	  0.038036071	1.388000E+00
92	  0.038236473	-3.493700E+01	  0.038236473	4.940200E+01	  0.038236473	5.116000E+01	  0.038236473	1.392000E+00
93	  0.038436871	-3.496500E+01	  0.038436871	4.962500E+01	  0.038436871	5.115000E+01	  0.038436871	1.391000E+00
94	  0.038637273	-3.487300E+01	  0.038637273	4.931800E+01	  0.038637273	5.117000E+01	  0.038637273	1.400000E+00
95	  0.038837675	-3.492600E+01	  0.038837675	4.911300E+01	  0.038837675	5.116800E+01	  0.038837675	1.387000E+00
96	  0.039038073	-3.487500E+01	  0.039038073	4.926100E+01	  0.039038073	5.117100E+01	  0.039038073	1.399000E+00
97	  0.039238475	-3.487100E+01	  0.039238475	4.909800E+01	  0.039238475	5.117600E+01	  0.039238475	1.396000E+00
98	  0.039438877	-3.480300E+01	  0.039438877	4.906700E+01	  0.039438877	5.118600E+01	  0.039438877	1.407000E+00
99	  0.039639279	-3.477300E+01	  0.039639279	4.872500E+01	  0.039639279	5.119900E+01	  0.039639279	1.405000E+00
100	  0.039839678	-3.470400E+01	  0.039839678	4.851200E+01	  0.039839678	5.121400E+01	  0.039839678	1.412000E+00
101	  0.040040080	-3.472100E+01	  0.040040080	4.875200E+01	  0.040040080	5.120500E+01	  0.040040080	1.414000E+00
102	  0.040240481	-3.469600E+01	  0.040240481	4.871300E+01	  0.040240481	5.121000E+01	  0.040240481	1.417000E+00
103	  0.040440880	-3.463900E+01	  0.040440880	4.858800E+01	  0.040440880	5.122100E+01	  0.040440880	1.424000E+00
104	  0.040641282	-3.463100E+01	  0.040641282	4.860400E+01	  0.040641282	5.122100E+01	  0.040641282	1.426000E+00
105	  0.040841684	-3.465200E+01	  0.040841684	4.844800E+01	  0.040841684	5.122200E+01	  0.040841684	1.419000E+00
106	  0.041042086	-3.453400E+01	  0.041042086	4.804900E+01	  0.041042086	5.124900E+01	  0.041042086	1.430000E+00
107	  0.041242484	-3.455200E+01	  0.041242484	4.781700E+01	  0.041242484	5.125300E+01	  0.041242484	1.422000E+00
108	  0.041442886	-3.452100E+01	  0.041442886	4.789500E+01	  0.041442886	5.125500E+01	  0.041442886	1.429000E+00
109	  0.041643288	-3.440700E+01	  0.041643288	4.770700E+01	  0.041643288	5.127700E+01	  0.041643288	1.444000E+00
110	  0.041843686	-3.444900E+01	  0.041843686	4.791400E+01	  0.041843686	5.126500E+01	  0.041843686	1.442000E+00
111	  0.042044088	-3.440600E+01	  0.042044088	4.764400E+01	  0.042044088	5.127800E+01	  0.042044088	1.443000E+00
112	  0.042244490	-3.436400E+01	  0.042244490	4.792300E+01	  0.042244490	5.127700E+01	  0.042244490	1.456000E+00
113	  0.042444889	-3.437800E+01	  0.042444889	4.787200E+01	  0.042444889	5.127700E+01	  0.042444889	1.453000E+00
114	  0.042645290	-3.436700E+01	  0.042645290	4.752300E+01	  0.042645290	5.128700E+01	  0.042645290	1.447000E+00
115	  0.042845692	-3.430200E+01	  0.042845692	4.748000E+01	  0.042845692	5.129800E+01	  0.042845692	1.457000E+00
116	  0.043046094	-3.429900E+01	  0.043046094	4.743600E+01	  0.043046094	5.130000E+01	  0.043046094	1.457000E+00
117	  0.043246493	-3.425500E+01	  0.043246493	4.732700E+01	  0.043246493	5.130900E+01	  0.043246493	1.462000E+00
118	  0.043446895	-3.420600E+01	  0.043446895	4.725200E+01	  0.043446895	5.131800E+01	  0.043446895	1.469000E+00
119	  0.043647297	-3.421400E+01	  0.043647297	4.711700E+01	  0.043647297	5.132100E+01	  0.043647297	1.464000E+00
120	  0.043847695	-3.414900E+01	  0.043847695	4.750400E+01	  0.043847695	5.132000E+01	  0.043847695	1.484000E+00
121	  0.044048097	-3.416200E+01	  0.044048097	4.707100E+01	  0.044048097	5.133000E+01	  0.044048097	1.472000E+00
122	  0.044248499	-3.408900E+01	  0.044248499	4.704600E+01	  0.044248499	5.134200E+01	  0.044248499	1.484000E+00
123	  0.044448901	-3.409300E+01	  0.044448901	4.723500E+01	  0.044448901	5.133600E+01	  0.044448901	1.488000E+00
124	  0.044649299	-3.406100E+01	  0.044649299	4.684400E+01	  0.044649299	5.135100E+01	  0.044649299	1.484000E+00
125	  0.044849701	-3.405200E+01	  0.044849701	4.674900E+01	  0.044849701	5.135500E+01	  0.044849701	1.484000E+00
126	  0.045050103	-3.397100E+01	  0.045050103	4.659600E+01	  0.045050103	5.137200E+01	  0.045050103	1.494000E+00
127	  0.045250501	-3.396500E+01	  0.045250501	4.644300E+01	  0.045250501	5.137700E+01	  0.045250501	1.492000E+00
128	  0.045450903	-3.394100E+01	  0.045450903	4.625700E+01	  0.045450903	5.138600E+01	  0.045450903	1.492000E+00
129	  0.045651305	-3.391100E+01	  0.045651305	4.644800E+01	  0.045651305	5.138600E+01	  0.045651305	1.502000E+00
130	  0.045851704	-3.390100E+01	  0.045851704	4.633400E+01	  0.045851704	5.139000E+01	  0.045851704	1.501000E+00
131	  0.046052106	-3.386800E+01	  0.046052106	4.611000E+01	  0.046052106	5.140200E+01	  0.046052106	1.501000E+00
132	  0.046252504	-3.385700E+01	  0.046252504	4.602800E+01	  0.046252504	5.140600E+01	  0.046252504	1.501000E+00
133	  0.046452906	-3.383800E+01	  0.046452906	4.602200E+01	  0.046452906	5.140900E+01	  0.046452906	1.504000E+00
134	  0.046653304	-3.380400E+01	  0.046653304	4.577400E+01	  0.046653304	5.142100E+01	  0.046653304	1.504000E+00
135	  0.046853706	-3.375500E+01	  0.046853706	4.580000E+01	  0.046853706	5.142800E+01	  0.046853706	1.513000E+00
136	  0.047054108	-3.372500E+01	  0.047054108	4.574900E+01	  0.047054108	5.143500E+01	  0.047054108	1.518000E+00
137	  0.047254506	-3.374300E+01	  0.047254506	4.562600E+01	  0.047254506	5.143500E+01	  0.047254506	1.511000E+00
138	  0.047454908	-3.369600E+01	  0.047454908	4.563100E+01	  0.047454908	5.144300E+01	  0.047454908	1.520000E+00
139	  0.047655310	-3.364200E+01	  0.047655310	4.529700E+01	  0.047655310	5.146100E+01	  0.047655310	1.521000E+00
140	  0.047855709	-3.356400E+01	  0.047855709	4.501200E+01	  0.047855709	5.148200E+01	  0.047855709	1.528000E+00
141	  0.048056111	-3.360100E+01	  0.048056111	4.542200E+01	  0.048056111	5.146400E+01	  0.048056111	1.532000E+00
142	  0.048256513	-3.362300E+01	  0.048256513	4.503200E+01	  0.048256513	5.147100E+01	  0.048256513	1.518000E+00
143	  0.048456915	-3.357200E+01	  0.048456915	4.509700E+01	  0.048456915	5.147800E+01	  0.048456915	1.529000E+00
144	  0.048657313	-3.358700E+01	  0.048657313	4.489100E+01	  0.048657313	5.148100E+01	  0.048657313	1.521000E+00
145	  0.048857715	-3.352400E+01	  0.048857715	4.498300E+01	  0.048857715	5.149000E+01	  0.048857715	1.534000E+00
146	  0.049058117	-3.352100E+01	  0.049058117	4.464700E+01	  0.049058117	5.149900E+01	  0.049058117	1.526000E+00
147	  0.049258515	-3.348700E+01	  0.049258515	4.468200E+01	  0.049258515	5.150400E+01	  0.049258515	1.533000E+00
148	  0.049458917	-3.346600E+01	  0.049458917	4.449300E+01	  0.049458917	5.151300E+01	  0.049458917	1.532000E+00
149	  0.049659319	-3.345600E+01	  0.049659319	4.450200E+01	  0.049659319	5.151500E+01	  0.049659319	1.534000E+00
150	  0.049859721	-3.341400E+01	  0.049859721	4.418600E+01	  0.049859721	5.153100E+01	  0.049859721	1.533000E+00
151	  0.050060119	-3.340500E+01	  0.050060119	4.406800E+01	  0.050060119	5.153600E+01	  0.050060119	1.532000E+00
152	  0.050260521	-3.339600E+01	  0.050260521	4.397900E+01	  0.050260521	5.153900E+01	  0.050260521	1.531000E+00
153	  0.050460923	-3.335200E+01	  0.050460923	4.392300E+01	  0.050460923	5.154900E+01	  0.050460923	1.538000E+00
154	  0.050661322	-3.338600E+01	  0.050661322	4.377500E+01	  0.050661322	5.154700E+01	  0.050661322	1.528000E+00
155	  0.050861724	-3.331200E+01	  0.050861724	4.373200E+01	  0.050861724	5.156100E+01	  0.050861724	1.540000E+00
156	  0.051062126	-3.334700E+01	  0.051062126	4.364100E+01	  0.051062126	5.155800E+01	  0.051062126	1.531000E+00
157	  0.051262524	-3.325100E+01	  0.051262524	4.350300E+01	  0.051262524	5.157900E+01	  0.051262524	1.545000E+00
158	  0.051462926	-3.324600E+01	  0.051462926	4.307200E+01	  0.051462926	5.159200E+01	  0.051462926	1.534000E+00
159	  0.051663328	-3.325900E+01	  0.051663328	4.327100E+01	  0.051663328	5.158400E+01	  0.051663328	1.537000E+00
160	  0.051863730	-3.321000E+01	  0.051863730	4.315900E+01	  0.051863730	5.159600E+01	  0.051863730	1.543000E+00
161	  0.052064128	-3.319800E+01	  0.052064128	4.287600E+01	  0.052064128	5.160600E+01	  0.052064128	1.537000E+00
162	  0.052264530	-3.315100E+01	  0.052264530	4.287600E+01	  0.052264530	5.161500E+01	  0.052264530	1.545000E+00
163	  0.052464932	-3.311700E+01	  0.052464932	4.310600E+01	  0.052464932	5.161500E+01	  0.052464932	1.558000E+00
164	  0.052665330	-3.318300E+01	  0.052665330	4.280700E+01	  0.052665330	5.161100E+01	  0.052665330	1.538000E+00
165	  0.052865732	-3.308700E+01	  0.052865732	4.270000E+01	  0.052865732	5.163100E+01	  0.052865732	1.552000E+00
166	  0.053066134	-3.308800E+01	  0.053066134	4.265400E+01	  0.053066134	5.163300E+01	  0.053066134	1.551000E+00
167	  0.053266536	-3.302900E+01	  0.053266536	4.251700E+01	  0.053266536	5.164800E+01	  0.053266536	1.558000E+00
168	  0.053466935	-3.303400E+01	  0.053466935	4.221900E+01	  0.053466935	5.165500E+01	  0.053466935	1.548000E+00
169	  0.053667337	-3.299500E+01	  0.053667337	4.226100E+01	  0.053667337	5.166100E+01	  0.053667337	1.557000E+00
170	  0.053867739	-3.300500E+01	  0.053867739	4.244000E+01	  0.053867739	5.165400E+01	  0.053867739	1.560000E+00
171	  0.054068137	-3.299000E+01	  0.054068137	4.229500E+01	  0.054068137	5.166100E+01	  0.054068137	1.559000E+00
172	  0.054268539	-3.298100E+01	  0.054268539	4.211700E+01	  0.054268539	5.166800E+01	  0.054268539	1.555000E+00
173	  0.054468941	-3.292900E+01	  0.054468941	4.192400E+01	  0.054468941	5.168400E+01	  0.054468941	1.559000E+00
174	  0.054669339	-3.289000E+01	  0.054669339	4.222000E+01	  0.054669339	5.168300E+01	  0.054669339	1.575000E+00
175	  0.054869737	-3.290700E+01	  0.054869737	4.163900E+01	  0.054869737	5.169600E+01	  0.054869737	1.555000E+00
176	  0.055070139	-3.287800E+01	  0.055070139	4.170600E+01	  0.055070139	5.170000E+01	  0.055070139	1.562000E+00
177	  0.055270538	-3.290000E+01	  0.055270538	4.157600E+01	  0.055270538	5.169900E+01	  0.055270538	1.554000E+00
178	  0.055470940	-3.285100E+01	  0.055470940	4.142000E+01	  0.055470940	5.171300E+01	  0.055470940	1.559000E+00
179	  0.055671342	-3.280500E+01	  0.055671342	4.132900E+01	  0.055671342	5.172500E+01	  0.055671342	1.564000E+00
180	  0.055871744	-3.275300E+01	  0.055871744	4.119900E+01	  0.055871744	5.173900E+01	  0.055871744	1.570000E+00
181	  0.056072142	-3.275700E+01	  0.056072142	4.131300E+01	  0.056072142	5.173500E+01	  0.056072142	1.573000E+00
182	  0.056272544	-3.272600E+01	  0.056272544	4.123300E+01	  0.056272544	5.174300E+01	  0.056272544	1.576000E+00
183	  0.056472946	-3.275300E+01	  0.056472946	4.095800E+01	  0.056472946	5.174600E+01	  0.056472946	1.563000E+00
184	  0.056673344	-3.270300E+01	  0.056673344	4.079400E+01	  0.056673344	5.176000E+01	  0.056673344	1.567000E+00
185	  0.056873746	-3.266700E+01	  0.056873746	4.082300E+01	  0.056873746	5.176700E+01	  0.056873746	1.575000E+00
186	  0.057074148	-3.265800E+01	  0.057074148	4.062300E+01	  0.057074148	5.177400E+01	  0.057074148	1.570000E+00
187	  0.057274550	-3.263200E+01	  0.057274550	4.053900E+01	  0.057274550	5.178200E+01	  0.057274550	1.572000E+00
188	  0.057474948	-3.262800E+01	  0.057474948	4.023600E+01	  0.057474948	5.179200E+01	  0.057474948	1.564000E+00
189	  0.057675350	-3.256000E+01	  0.057675350	4.033100E+01	  0.057675350	5.180300E+01	  0.057675350	1.579000E+00
190	  0.057875752	-3.257600E+01	  0.057875752	4.006300E+01	  0.057875752	5.180700E+01	  0.057875752	1.568000E+00
191	  0.058076151	-3.254400E+01	  0.058076151	3.995200E+01	  0.058076151	5.181700E+01	  0.058076151	1.570000E+00
192	  0.058276553	-3.254200E+01	  0.058276553	3.990700E+01	  0.058276553	5.181900E+01	  0.058276553	1.569000E+00
193	  0.058476955	-3.249500E+01	  0.058476955	3.999300E+01	  0.058476955	5.182600E+01	  0.058476955	1.581000E+00
194	  0.058677353	-3.249800E+01	  0.058677353	3.956200E+01	  0.058677353	5.183800E+01	  0.058677353	1.566000E+00
195	  0.058877755	-3.251300E+01	  0.058877755	3.955100E+01	  0.058877755	5.183500E+01	  0.058877755	1.563000E+00
196	  0.059078157	-3.247600E+01	  0.059078157	3.947300E+01	  0.059078157	5.184500E+01	  0.059078157	1.568000E+00
197	  0.059278559	-3.243600E+01	  0.059278559	3.963300E+01	  0.059278559	5.184900E+01	  0.059278559	1.580000E+00
198	  0.059478957	-3.243600E+01	  0.059478957	3.929500E+01	  0.059478957	5.185900E+01	  0.059478957	1.569000E+00
199	  0.059679359	-3.244800E+01	  0.059679359	3.932500E+01	  0.059679359	5.185500E+01	  0.059679359	1.568000E+00
200	  0.059879761	-3.240700E+01	  0.059879761	3.905800E+01	  0.059879761	5.187200E+01	  0.059879761	1.567000E+00
201	  0.060080159	-3.238600E+01	  0.060080159	3.889000E+01	  0.060080159	5.188100E+01	  0.060080159	1.566000E+00
202	  0.060280561	-3.237900E+01	  0.060280561	3.892200E+01	  0.060280561	5.188200E+01	  0.060280561	1.568000E+00
203	  0.060480963	-3.233900E+01	  0.060480963	3.890500E+01	  0.060480963	5.189100E+01	  0.060480963	1.575000E+00
204	  0.060681365	-3.229000E+01	  0.060681365	3.897400E+01	  0.060681365	5.190000E+01	  0.060681365	1.586000E+00
205	  0.060881764	-3.229600E+01	  0.060881764	3.863000E+01	  0.060881764	5.190800E+01	  0.060881764	1.574000E+00
206	  0.061082166	-3.228300E+01	  0.061082166	3.824600E+01	  0.061082166	5.192200E+01	  0.061082166	1.563000E+00
207	  0.061282568	-3.225400E+01	  0.061282568	3.859000E+01	  0.061282568	5.191900E+01	  0.061282568	1.580000E+00
208	  0.061482966	-3.226100E+01	  0.061482966	3.830800E+01	  0.061482966	5.192500E+01	  0.061482966	1.570000E+00
209	  0.061683368	-3.223400E+01	  0.061683368	3.827600E+01	  0.061683368	5.193200E+01	  0.061683368	1.574000E+00
210	  0.061883770	-3.222600E+01	  0.061883770	3.805900E+01	  0.061883770	5.194000E+01	  0.061883770	1.568000E+00
211	  0.062084168	-3.219100E+01	  0.062084168	3.794000E+01	  0.062084168	5.195100E+01	  0.062084168	1.570000E+00
212	  0.062284570	-3.220500E+01	  0.062284570	3.817800E+01	  0.062284570	5.194100E+01	  0.062284570	1.576000E+00
213	  0.062484972	-3.212900E+01	  0.062484972	3.793200E+01	  0.062484972	5.196600E+01	  0.062484972	1.582000E+00
214	  0.062685370	-3.212000E+01	  0.062685370	3.788000E+01	  0.062685370	5.196900E+01	  0.062685370	1.581000E+00
215	  0.062885776	-3.211000E+01	  0.062885776	3.772700E+01	  0.062885776	5.197600E+01	  0.062885776	1.578000E+00
216	  0.063086174	-3.212100E+01	  0.063086174	3.756300E+01	  0.063086174	5.197800E+01	  0.063086174	1.570000E+00
217	  0.063286573	-3.208700E+01	  0.063286573	3.737300E+01	  0.063286573	5.199100E+01	  0.063286573	1.570000E+00
218	  0.063486971	-3.208900E+01	  0.063486971	3.748300E+01	  0.063486971	5.198800E+01	  0.063486971	1.573000E+00
219	  0.063687377	-3.208500E+01	  0.063687377	3.741200E+01	  0.063687377	5.199100E+01	  0.063687377	1.572000E+00
220	  0.063887775	-3.203400E+01	  0.063887775	3.732000E+01	  0.063887775	5.200500E+01	  0.063887775	1.578000E+00
221	  0.064088173	-3.198600E+01	  0.064088173	3.714700E+01	  0.064088173	5.202100E+01	  0.064088173	1.581000E+00
222	  0.064288579	-3.203000E+01	  0.064288579	3.719700E+01	  0.064288579	5.201000E+01	  0.064288579	1.575000E+00
223	  0.064488977	-3.203100E+01	  0.064488977	3.715300E+01	  0.064488977	5.201100E+01	  0.064488977	1.573000E+00
224	  0.064689375	-3.193800E+01	  0.064689375	3.657900E+01	  0.064689375	5.204900E+01	  0.064689375	1.570000E+00
225	  0.064889781	-3.197700E+01	  0.064889781	3.671300E+01	  0.064889781	5.203600E+01	  0.064889781	1.567000E+00
226	  0.065090179	-3.191200E+01	  0.065090179	3.700600E+01	  0.065090179	5.204300E+01	  0.065090179	1.590000E+00
227	  0.065290578	-3.191100E+01	  0.065290578	3.669100E+01	  0.065290578	5.205200E+01	  0.065290578	1.579000E+00
228	  0.065490983	-3.195400E+01	  0.065490983	3.671900E+01	  0.065490983	5.204100E+01	  0.065490983	1.572000E+00
229	  0.065691382	-3.196300E+01	  0.065691382	3.654700E+01	  0.065691382	5.204400E+01	  0.065691382	1.564000E+00
230	  0.065891780	-3.191200E+01	  0.065891780	3.654500E+01	  0.065891780	5.205600E+01	  0.065891780	1.574000E+00
231	  0.066092186	-3.194100E+01	  0.066092186	3.592600E+01	  0.066092186	5.206700E+01	  0.066092186	1.546000E+00
232	  0.066292584	-3.180300E+01	  0.066292584	3.617200E+01	  0.066292584	5.209300E+01	  0.066292584	1.580000E+00
233	  0.066492982	-3.178900E+01	  0.066492982	3.600800E+01	  0.066492982	5.210100E+01	  0.066492982	1.577000E+00
234	  0.066693388	-3.181400E+01	  0.066693388	3.581000E+01	  0.066693388	5.210100E+01	  0.066693388	1.565000E+00
235	  0.066893786	-3.176900E+01	  0.066893786	3.574700E+01	  0.066893786	5.211300E+01	  0.066893786	1.571000E+00
236	  0.067094192	-3.180900E+01	  0.067094192	3.561100E+01	  0.067094192	5.210800E+01	  0.067094192	1.559000E+00
237	  0.067294590	-3.175100E+01	  0.067294590	3.540900E+01	  0.067294590	5.212800E+01	  0.067294590	1.562000E+00
238	  0.067494988	-3.175800E+01	  0.067494988	3.558000E+01	  0.067494988	5.212100E+01	  0.067494988	1.567000E+00
239	  0.067695394	-3.169000E+01	  0.067695394	3.552100E+01	  0.067695394	5.214000E+01	  0.067695394	1.578000E+00
240	  0.067895792	-3.173300E+01	  0.067895792	3.561900E+01	  0.067895792	5.212600E+01	  0.067895792	1.573000E+00
241	  0.068096191	-3.170700E+01	  0.068096191	3.524000E+01	  0.068096191	5.214300E+01	  0.068096191	1.564000E+00
242	  0.068296596	-3.173100E+01	  0.068296596	3.505500E+01	  0.068296596	5.214300E+01	  0.068296596	1.552000E+00
243	  0.068496995	-3.168000E+01	  0.068496995	3.512500E+01	  0.068496995	5.215300E+01	  0.068496995	1.565000E+00
244	  0.068697393	-3.164000E+01	  0.068697393	3.483900E+01	  0.068697393	5.217200E+01	  0.068697393	1.561000E+00
245	  0.068897791	-3.169700E+01	  0.068897791	3.487100E+01	  0.068897791	5.215600E+01	  0.068897791	1.552000E+00
246	  0.069098189	-3.166000E+01	  0.069098189	3.491300E+01	  0.069098189	5.216500E+01	  0.069098189	1.560000E+00
247	  0.069298595	-3.162100E+01	  0.069298595	3.480100E+01	  0.069298595	5.217700E+01	  0.069298595	1.563000E+00
248	  0.069498993	-3.163500E+01	  0.069498993	3.455300E+01	  0.069498993	5.218100E+01	  0.069498993	1.551000E+00
249	  0.069699399	-3.161400E+01	  0.069699399	3.427500E+01	  0.069699399	5.219400E+01	  0.069699399	1.544000E+00
250	  0.069899797	-3.161600E+01	  0.069899797	3.403200E+01	  0.069899797	5.220000E+01	  0.069899797	1.534000E+00
251	  0.070100196	-3.160300E+01	  0.070100196	3.402200E+01	  0.070100196	5.220400E+01	  0.070100196	1.537000E+00
252	  0.070300601	-3.155400E+01	  0.070300601	3.383300E+01	  0.070300601	5.222200E+01	  0.070300601	1.538000E+00
253	  0.070501000	-3.156400E+01	  0.070501000	3.379300E+01	  0.070501000	5.222100E+01	  0.070501000	1.535000E+00
254	  0.070701398	-3.151200E+01	  0.070701398	3.388700E+01	  0.070701398	5.223100E+01	  0.070701398	1.548000E+00
255	  0.070901804	-3.154100E+01	  0.070901804	3.396000E+01	  0.070901804	5.222200E+01	  0.070901804	1.546000E+00
256	  0.071102202	-3.147700E+01	  0.071102202	3.384500E+01	  0.071102202	5.224200E+01	  0.071102202	1.553000E+00
257	  0.071302600	-3.154200E+01	  0.071302600	3.328100E+01	  0.071302600	5.224100E+01	  0.071302600	1.519000E+00
258	  0.071503006	-3.148100E+01	  0.071503006	3.328700E+01	  0.071503006	5.225600E+01	  0.071503006	1.530000E+00
259	  0.071703404	-3.144200E+01	  0.071703404	3.297000E+01	  0.071703404	5.227500E+01	  0.071703404	1.524000E+00
260	  0.071903802	-3.147500E+01	  0.071903802	3.319700E+01	  0.071903802	5.226000E+01	  0.071903802	1.528000E+00
261	  0.072104208	-3.144400E+01	  0.072104208	3.301900E+01	  0.072104208	5.227400E+01	  0.072104208	1.526000E+00
262	  0.072304606	-3.140400E+01	  0.072304606	3.316900E+01	  0.072304606	5.228000E+01	  0.072304606	1.540000E+00
263	  0.072505005	-3.143400E+01	  0.072505005	3.268700E+01	  0.072505005	5.228500E+01	  0.072505005	1.515000E+00
264	  0.072705410	-3.140300E+01	  0.072705410	3.293200E+01	  0.072705410	5.228700E+01	  0.072705410	1.530000E+00
265	  0.072905809	-3.138600E+01	  0.072905809	3.262300E+01	  0.072905809	5.230000E+01	  0.072905809	1.521000E+00
266	  0.073106214	-3.138800E+01	  0.073106214	3.273600E+01	  0.073106214	5.229600E+01	  0.073106214	1.525000E+00
267	  0.073306613	-3.136900E+01	  0.073306613	3.238600E+01	  0.073306613	5.231100E+01	  0.073306613	1.514000E+00
268	  0.073507011	-3.138000E+01	  0.073507011	3.238800E+01	  0.073507011	5.230800E+01	  0.073507011	1.512000E+00
269	  0.073707417	-3.139300E+01	  0.073707417	3.219300E+01	  0.073707417	5.231000E+01	  0.073707417	1.502000E+00
270	  0.073907815	-3.133400E+01	  0.073907815	3.204600E+01	  0.073907815	5.233000E+01	  0.073907815	1.507000E+00
271	  0.074108213	-3.134000E+01	  0.074108213	3.196200E+01	  0.074108213	5.233100E+01	  0.074108213	1.502000E+00
272	  0.074308619	-3.133300E+01	  0.074308619	3.209200E+01	  0.074308619	5.232900E+01	  0.074308619	1.509000E+00
273	  0.074509017	-3.132800E+01	  0.074509017	3.168900E+01	  0.074509017	5.234200E+01	  0.074509017	1.493000E+00
274	  0.074709415	-3.127900E+01	  0.074709415	3.205300E+01	  0.074709415	5.234500E+01	  0.074709415	1.517000E+00
275	  0.074909821	-3.126000E+01	  0.074909821	3.173600E+01	  0.074909821	5.235900E+01	  0.074909821	1.507000E+00
276	  0.075110219	-3.124600E+01	  0.075110219	3.150000E+01	  0.075110219	5.236900E+01	  0.075110219	1.500000E+00
277	  0.075310618	-3.125400E+01	  0.075310618	3.161900E+01	  0.075310618	5.236400E+01	  0.075310618	1.503000E+00
278	  0.075511023	-3.121500E+01	  0.075511023	3.152600E+01	  0.075511023	5.237700E+01	  0.075511023	1.507000E+00
279	  0.075711422	-3.119900E+01	  0.075711422	3.129900E+01	  0.075711422	5.238800E+01	  0.075711422	1.500000E+00
280	  0.075911827	-3.120500E+01	  0.075911827	3.088600E+01	  0.075911827	5.239700E+01	  0.075911827	1.481000E+00
281	  0.076112226	-3.120500E+01	  0.076112226	3.102300E+01	  0.076112226	5.239400E+01	  0.076112226	1.487000E+00
282	  0.076312624	-3.122100E+01	  0.076312624	3.087400E+01	  0.076312624	5.239300E+01	  0.076312624	1.478000E+00
283	  0.076513030	-3.116900E+01	  0.076513030	3.071000E+01	  0.076513030	5.241200E+01	  0.076513030	1.480000E+00
284	  0.076713428	-3.116900E+01	  0.076713428	3.035900E+01	  0.076713428	5.242200E+01	  0.076713428	1.465000E+00
285	  0.076913826	-3.112800E+01	  0.076913826	3.033400E+01	  0.076913826	5.243400E+01	  0.076913826	1.471000E+00
286	  0.077114232	-3.112300E+01	  0.077114232	3.067700E+01	  0.077114232	5.242600E+01	  0.077114232	1.487000E+00
287	  0.077314630	-3.111000E+01	  0.077314630	3.043500E+01	  0.077314630	5.243600E+01	  0.077314630	1.479000E+00
288	  0.077515028	-3.111300E+01	  0.077515028	3.065600E+01	  0.077515028	5.242900E+01	  0.077515028	1.488000E+00
289	  0.077715434	-3.110500E+01	  0.077715434	3.041400E+01	  0.077715434	5.243800E+01	  0.077715434	1.479000E+00
290	  0.077915832	-3.107900E+01	  0.077915832	3.003800E+01	  0.077915832	5.245600E+01	  0.077915832	1.467000E+00
291	  0.078116231	-3.105900E+01	  0.078116231	2.998500E+01	  0.078116231	5.246300E+01	  0.078116231	1.469000E+00
292	  0.078316636	-3.107500E+01	  0.078316636	2.985900E+01	  0.078316636	5.246200E+01	  0.078316636	1.460000E+00
293	  0.078517035	-3.105900E+01	  0.078517035	2.973600E+01	  0.078517035	5.247000E+01	  0.078517035	1.458000E+00
294	  0.078717433	-3.105300E+01	  0.078717433	2.969200E+01	  0.078717433	5.247300E+01	  0.078717433	1.457000E+00
295	  0.078917839	-3.103900E+01	  0.078917839	2.942600E+01	  0.078917839	5.248400E+01	  0.078917839	1.448000E+00
296	  0.079118237	-3.100100E+01	  0.079118237	2.949900E+01	  0.079118237	5.249300E+01	  0.079118237	1.457000E+00
297	  0.079318643	-3.101300E+01	  0.079318643	2.925600E+01	  0.079318643	5.249600E+01	  0.079318643	1.445000E+00
298	  0.079519041	-3.099700E+01	  0.079519041	2.934400E+01	  0.079519041	5.249800E+01	  0.079519041	1.451000E+00
299	  0.079719439	-3.099000E+01	  0.079719439	2.898900E+01	  0.079719439	5.251000E+01	  0.079719439	1.437000E+00
300	  0.079919845	-3.097800E+01	  0.079919845	2.903500E+01	  0.079919845	5.251200E+01	  0.079919845	1.441000E+00
301	  0.080120243	-3.096200E+01	  0.080120243	2.882600E+01	  0.080120243	5.252200E+01	  0.080120243	1.434000E+00
302	  0.080320641	-3.096300E+01	  0.080320641	2.872400E+01	  0.080320641	5.252500E+01	  0.080320641	1.429000E+00
303	  0.080521047	-3.094400E+01	  0.080521047	2.907700E+01	  0.080521047	5.252100E+01	  0.080521047	1.449000E+00
304	  0.080721445	-3.094200E+01	  0.080721445	2.853500E+01	  0.080721445	5.253600E+01	  0.080721445	1.425000E+00
305	  0.080921844	-3.090800E+01	  0.080921844	2.836300E+01	  0.080921844	5.255100E+01	  0.080921844	1.423000E+00
306	  0.081122249	-3.090200E+01	  0.081122249	2.838200E+01	  0.081122249	5.255200E+01	  0.081122249	1.425000E+00
307	  0.081322648	-3.088900E+01	  0.081322648	2.849700E+01	  0.081322648	5.255300E+01	  0.081322648	1.432000E+00
308	  0.081523046	-3.094000E+01	  0.081523046	2.834000E+01	  0.081523046	5.254200E+01	  0.081523046	1.416000E+00
309	  0.081723452	-3.090100E+01	  0.081723452	2.814500E+01	  0.081723452	5.255800E+01	  0.081723452	1.414000E+00
310	  0.081923850	-3.085800E+01	  0.081923850	2.807200E+01	  0.081923850	5.257300E+01	  0.081923850	1.418000E+00
311	  0.082124248	-3.088100E+01	  0.082124248	2.802700E+01	  0.082124248	5.256700E+01	  0.082124248	1.412000E+00
312	  0.082324654	-3.084000E+01	  0.082324654	2.776000E+01	  0.082324654	5.258700E+01	  0.082324654	1.407000E+00
313	  0.082525052	-3.086900E+01	  0.082525052	2.766300E+01	  0.082525052	5.258000E+01	  0.082525052	1.397000E+00
314	  0.082725458	-3.085400E+01	  0.082725458	2.765500E+01	  0.082725458	5.258500E+01	  0.082725458	1.400000E+00
315	  0.082925856	-3.087300E+01	  0.082925856	2.737100E+01	  0.082925856	5.258700E+01	  0.082925856	1.383000E+00
316	  0.083126254	-3.083300E+01	  0.083126254	2.720300E+01	  0.083126254	5.260300E+01	  0.083126254	1.382000E+00
317	  0.083326660	-3.083600E+01	  0.083326660	2.724900E+01	  0.083326660	5.260100E+01	  0.083326660	1.384000E+00
318	  0.083527058	-3.083000E+01	  0.083527058	2.715100E+01	  0.083527058	5.260500E+01	  0.083527058	1.381000E+00
319	  0.083727457	-3.078300E+01	  0.083727457	2.686300E+01	  0.083727457	5.262700E+01	  0.083727457	1.375000E+00
320	  0.083927862	-3.078500E+01	  0.083927862	2.678000E+01	  0.083927862	5.262900E+01	  0.083927862	1.371000E+00
321	  0.084128261	-3.079200E+01	  0.084128261	2.661500E+01	  0.084128261	5.263100E+01	  0.084128261	1.362000E+00
322	  0.084328659	-3.077900E+01	  0.084328659	2.666700E+01	  0.084328659	5.263300E+01	  0.084328659	1.366000E+00
323	  0.084529065	-3.078400E+01	  0.084529065	2.653900E+01	  0.084529065	5.263500E+01	  0.084529065	1.360000E+00
324	  0.084729463	-3.077400E+01	  0.084729463	2.646700E+01	  0.084729463	5.264000E+01	  0.084729463	1.358000E+00
325	  0.084929861	-3.074700E+01	  0.084929861	2.622100E+01	  0.084929861	5.265400E+01	  0.084929861	1.351000E+00
326	  0.085130267	-3.072400E+01	  0.085130267	2.617800E+01	  0.085130267	5.266300E+01	  0.085130267	1.353000E+00
327	  0.085330658	-3.074300E+01	  0.085330658	2.608900E+01	  0.085330658	5.265900E+01	  0.085330658	1.345000E+00
328	  0.085531056	-3.072400E+01	  0.085531056	2.614600E+01	  0.085531056	5.266300E+01	  0.085531056	1.351000E+00
329	  0.085731462	-3.071000E+01	  0.085731462	2.597100E+01	  0.085731462	5.267200E+01	  0.085731462	1.345000E+00
330	  0.085931860	-3.070600E+01	  0.085931860	2.597900E+01	  0.085931860	5.267300E+01	  0.085931860	1.346000E+00
331	  0.086132258	-3.070800E+01	  0.086132258	2.577800E+01	  0.086132258	5.267800E+01	  0.086132258	1.336000E+00
332	  0.086332664	-3.069500E+01	  0.086332664	2.577100E+01	  0.086332664	5.268200E+01	  0.086332664	1.338000E+00
333	  0.086533062	-3.070200E+01	  0.086533062	2.551700E+01	  0.086533062	5.268500E+01	  0.086533062	1.324000E+00
334	  0.086733460	-3.066400E+01	  0.086733460	2.554100E+01	  0.086733460	5.269700E+01	  0.086733460	1.332000E+00
335	  0.086933866	-3.068200E+01	  0.086933866	2.539700E+01	  0.086933866	5.269500E+01	  0.086933866	1.322000E+00
336	  0.087134264	-3.068800E+01	  0.087134264	2.516200E+01	  0.087134264	5.269900E+01	  0.087134264	1.310000E+00
337	  0.087334670	-3.064300E+01	  0.087334670	2.501300E+01	  0.087334670	5.271700E+01	  0.087334670	1.310000E+00
338	  0.087535068	-3.062300E+01	  0.087535068	2.484400E+01	  0.087535068	5.272700E+01	  0.087535068	1.305000E+00
339	  0.087735467	-3.062800E+01	  0.087735467	2.495700E+01	  0.087735467	5.272300E+01	  0.087735467	1.309000E+00
340	  0.087935872	-3.061600E+01	  0.087935872	2.485400E+01	  0.087935872	5.272900E+01	  0.087935872	1.306000E+00
341	  0.088136271	-3.063600E+01	  0.088136271	2.442600E+01	  0.088136271	5.273300E+01	  0.088136271	1.282000E+00
342	  0.088336669	-3.062800E+01	  0.088336669	2.463100E+01	  0.088336669	5.273000E+01	  0.088336669	1.293000E+00
343	  0.088537075	-3.062000E+01	  0.088537075	2.446700E+01	  0.088537075	5.273700E+01	  0.088537075	1.287000E+00
344	  0.088737473	-3.061400E+01	  0.088737473	2.456600E+01	  0.088737473	5.273700E+01	  0.088737473	1.293000E+00
345	  0.088937871	-3.059500E+01	  0.088937871	2.421700E+01	  0.088937871	5.275100E+01	  0.088937871	1.278000E+00
346	  0.089138277	-3.062100E+01	  0.089138277	2.408600E+01	  0.089138277	5.274600E+01	  0.089138277	1.268000E+00
347	  0.089338675	-3.057800E+01	  0.089338675	2.424800E+01	  0.089338675	5.275600E+01	  0.089338675	1.283000E+00
348	  0.089539073	-3.060200E+01	  0.089539073	2.380100E+01	  0.089539073	5.275800E+01	  0.089539073	1.257000E+00
349	  0.089739479	-3.058000E+01	  0.089739479	2.380400E+01	  0.089739479	5.276500E+01	  0.089739479	1.260000E+00
350	  0.089939877	-3.054100E+01	  0.089939877	2.364900E+01	  0.089939877	5.278200E+01	  0.089939877	1.259000E+00
351	  0.090140276	-3.058000E+01	  0.090140276	2.348800E+01	  0.090140276	5.277300E+01	  0.090140276	1.245000E+00
352	  0.090340681	-3.055900E+01	  0.090340681	2.341800E+01	  0.090340681	5.278100E+01	  0.090340681	1.245000E+00
353	  0.090541080	-3.054000E+01	  0.090541080	2.325300E+01	  0.090541080	5.279100E+01	  0.090541080	1.239000E+00
354	  0.090741485	-3.055400E+01	  0.090741485	2.309100E+01	  0.090741485	5.279000E+01	  0.090741485	1.229000E+00
355	  0.090941884	-3.055000E+01	  0.090941884	2.302500E+01	  0.090941884	5.279300E+01	  0.090941884	1.226000E+00
356	  0.091142282	-3.052400E+01	  0.091142282	2.304600E+01	  0.091142282	5.280100E+01	  0.091142282	1.231000E+00
357	  0.091342688	-3.052300E+01	  0.091342688	2.274600E+01	  0.091342688	5.280800E+01	  0.091342688	1.216000E+00
358	  0.091543086	-3.048000E+01	  0.091543086	2.267300E+01	  0.091543086	5.282400E+01	  0.091543086	1.219000E+00
359	  0.091743484	-3.049500E+01	  0.091743484	2.265800E+01	  0.091743484	5.282000E+01	  0.091743484	1.216000E+00
360	  0.091943890	-3.050700E+01	  0.091943890	2.263400E+01	  0.091943890	5.281600E+01	  0.091943890	1.213000E+00
361	  0.092144288	-3.049900E+01	  0.092144288	2.251600E+01	  0.092144288	5.282100E+01	  0.092144288	1.208000E+00
362	  0.092344686	-3.051800E+01	  0.092344686	2.221000E+01	  0.092344686	5.282200E+01	  0.092344686	1.190000E+00
363	  0.092545092	-3.052600E+01	  0.092545092	2.206600E+01	  0.092545092	5.282200E+01	  0.092545092	1.182000E+00
364	  0.092745490	-3.050000E+01	  0.092745490	2.196300E+01	  0.092745490	5.283300E+01	  0.092745490	1.180000E+00
365	  0.092945889	-3.047200E+01	  0.092945889	2.184500E+01	  0.092945889	5.284500E+01	  0.092945889	1.178000E+00
366	  0.093146294	-3.048100E+01	  0.093146294	2.207700E+01	  0.093146294	5.283700E+01	  0.093146294	1.189000E+00
367	  0.093346693	-3.049200E+01	  0.093346693	2.186900E+01	  0.093346693	5.283800E+01	  0.093346693	1.177000E+00
368	  0.093547091	-3.044700E+01	  0.093547091	2.177400E+01	  0.093547091	5.285500E+01	  0.093547091	1.178000E+00
369	  0.093747497	-3.044100E+01	  0.093747497	2.160900E+01	  0.093747497	5.286100E+01	  0.093747497	1.171000E+00
370	  0.093947895	-3.046800E+01	  0.093947895	2.156100E+01	  0.093947895	5.285300E+01	  0.093947895	1.165000E+00
371	  0.094148301	-3.045300E+01	  0.094148301	2.123800E+01	  0.094148301	5.286500E+01	  0.094148301	1.150000E+00
372	  0.094348699	-3.045400E+01	  0.094348699	2.119100E+01	  0.094348699	5.286500E+01	  0.094348699	1.148000E+00
373	  0.094549097	-3.042000E+01	  0.094549097	2.112600E+01	  0.094549097	5.287800E+01	  0.094549097	1.149000E+00
374	  0.094749503	-3.040400E+01	  0.094749503	2.094400E+01	  0.094749503	5.288700E+01	  0.094749503	1.142000E+00
375	  0.094949901	-3.043500E+01	  0.094949901	2.091600E+01	  0.094949901	5.287800E+01	  0.094949901	1.136000E+00
376	  0.095150299	-3.040300E+01	  0.095150299	2.087300E+01	  0.095150299	5.289000E+01	  0.095150299	1.138000E+00
377	  0.095350705	-3.042400E+01	  0.095350705	2.077600E+01	  0.095350705	5.288400E+01	  0.095350705	1.130000E+00
378	  0.095551103	-3.038300E+01	  0.095551103	2.060900E+01	  0.095551103	5.290200E+01	  0.095551103	1.127000E+00
379	  0.095751502	-3.037100E+01	  0.095751502	2.042100E+01	  0.095751502	5.291000E+01	  0.095751502	1.119000E+00
380	  0.095951907	-3.040100E+01	  0.095951907	2.042700E+01	  0.095951907	5.289900E+01	  0.095951907	1.115000E+00
381	  0.096152306	-3.040300E+01	  0.096152306	2.027200E+01	  0.096152306	5.290200E+01	  0.096152306	1.107000E+00
382	  0.096352704	-3.038600E+01	  0.096352704	2.031800E+01	  0.096352704	5.290700E+01	  0.096352704	1.112000E+00
383	  0.096553110	-3.037500E+01	  0.096553110	1.995300E+01	  0.096553110	5.291800E+01	  0.096553110	1.094000E+00
384	  0.096753508	-3.036300E+01	  0.096753508	1.996400E+01	  0.096753508	5.292200E+01	  0.096753508	1.096000E+00
385	  0.096953906	-3.035300E+01	  0.096953906	1.992600E+01	  0.096953906	5.292600E+01	  0.096953906	1.096000E+00
386	  0.097154312	-3.037200E+01	  0.097154312	1.961100E+01	  0.097154312	5.292600E+01	  0.097154312	1.077000E+00
387	  0.097354710	-3.036400E+01	  0.097354710	1.960200E+01	  0.097354710	5.292900E+01	  0.097354710	1.077000E+00
388	  0.097555116	-3.032500E+01	  0.097555116	1.960100E+01	  0.097555116	5.294200E+01	  0.097555116	1.083000E+00
389	  0.097755514	-3.032800E+01	  0.097755514	1.948300E+01	  0.097755514	5.294300E+01	  0.097755514	1.076000E+00
390	  0.097955912	-3.033000E+01	  0.097955912	1.925100E+01	  0.097955912	5.294800E+01	  0.097955912	1.063000E+00
391	  0.098156318	-3.030600E+01	  0.098156318	1.901900E+01	  0.098156318	5.296000E+01	  0.098156318	1.054000E+00
392	  0.098356716	-3.030700E+01	  0.098356716	1.887100E+01	  0.098356716	5.296300E+01	  0.098356716	1.046000E+00
393	  0.098557115	-3.032900E+01	  0.098557115	1.891600E+01	  0.098557115	5.295400E+01	  0.098557115	1.046000E+00
394	  0.098757520	-3.029900E+01	  0.098757520	1.875100E+01	  0.098757520	5.296800E+01	  0.098757520	1.041000E+00
395	  0.098957919	-3.032200E+01	  0.098957919	1.858800E+01	  0.098957919	5.296300E+01	  0.098957919	1.029000E+00
396	  0.099158317	-3.030200E+01	  0.099158317	1.859600E+01	  0.099158317	5.297000E+01	  0.099158317	1.032000E+00
397	  0.099358723	-3.028000E+01	  0.099358723	1.844300E+01	  0.099358723	5.298100E+01	  0.099358723	1.027000E+00
398	  0.099559121	-3.028300E+01	  0.099559121	1.832800E+01	  0.099559121	5.298200E+01	  0.099559121	1.020000E+00
399	  0.099759519	-3.025900E+01	  0.099759519	1.829400E+01	  0.099759519	5.299100E+01	  0.099759519	1.022000E+00
400	  0.099959925	-3.029100E+01	  0.099959925	1.787400E+01	  0.099959925	5.298700E+01	  0.099959925	9.950000E-01
401	  0.100160323	-3.031200E+01	  0.100160323	1.791800E+01	  0.100160323	5.297900E+01	  0.100160323	9.950000E-01
402	  0.100360721	-3.020700E+01	  0.100360721	1.773500E+01	  0.100360721	5.302000E+01	  0.100360721	9.980000E-01
403	  0.100561127	-3.024700E+01	  0.100561127	1.794600E+01	  0.100561127	5.300200E+01	  0.100561127	1.004000E+00
404	  0.100761525	-3.024400E+01	  0.100761525	1.803900E+01	  0.100761525	5.300100E+01	  0.100761525	1.010000E+00
405	  0.100961931	-3.018700E+01	  0.100961931	1.777400E+01	  0.100961931	5.302600E+01	  0.100961931	1.002000E+00
406	  0.101162329	-3.024900E+01	  0.101162329	1.755300E+01	  0.101162329	5.300800E+01	  0.101162329	9.830000E-01
407	  0.101362728	-3.019000E+01	  0.101362728	1.754100E+01	  0.101362728	5.303000E+01	  0.101362728	9.890000E-01
408	  0.101563133	-3.023900E+01	  0.101563133	1.741600E+01	  0.101563133	5.301400E+01	  0.101563133	9.770000E-01
409	  0.101763532	-3.023600E+01	  0.101763532	1.745100E+01	  0.101763532	5.301500E+01	  0.101763532	9.790000E-01
410	  0.101963930	-3.027100E+01	  0.101963930	1.695400E+01	  0.101963930	5.301100E+01	  0.101963930	9.480000E-01
411	  0.102164336	-3.023300E+01	  0.102164336	1.683900E+01	  0.102164336	5.302700E+01	  0.102164336	9.460000E-01
412	  0.102364734	-3.024300E+01	  0.102364734	1.683200E+01	  0.102364734	5.302300E+01	  0.102364734	9.450000E-01
413	  0.102565132	-3.022400E+01	  0.102565132	1.715700E+01	  0.102565132	5.302400E+01	  0.102565132	9.650000E-01
414	  0.102765530	-3.022900E+01	  0.102765530	1.683100E+01	  0.102765530	5.302800E+01	  0.102765530	9.460000E-01
415	  0.102965929	-3.029000E+01	  0.102965929	1.639000E+01	  0.102965929	5.301400E+01	  0.102965929	9.150000E-01
416	  0.103166327	-3.022300E+01	  0.103166327	1.638700E+01	  0.103166327	5.303800E+01	  0.103166327	9.230000E-01
417	  0.103366733	-3.021800E+01	  0.103366733	1.609300E+01	  0.103366733	5.304500E+01	  0.103366733	9.070000E-01
418	  0.103567131	-3.015700E+01	  0.103567131	1.599400E+01	  0.103567131	5.306800E+01	  0.103567131	9.090000E-01
419	  0.103767529	-3.020000E+01	  0.103767529	1.590300E+01	  0.103767529	5.305500E+01	  0.103767529	8.990000E-01
420	  0.103967935	-3.020800E+01	  0.103967935	1.618700E+01	  0.103967935	5.304700E+01	  0.103967935	9.140000E-01
421	  0.104168333	-3.021300E+01	  0.104168333	1.595400E+01	  0.104168333	5.304900E+01	  0.104168333	9.000000E-01
422	  0.104368731	-3.020000E+01	  0.104368731	1.590000E+01	  0.104368731	5.305500E+01	  0.104368731	8.990000E-01
423	  0.104569137	-3.022800E+01	  0.104569137	1.579800E+01	  0.104569137	5.304600E+01	  0.104569137	8.900000E-01
424	  0.104769535	-3.019700E+01	  0.104769535	1.563900E+01	  0.104769535	5.306000E+01	  0.104769535	8.850000E-01
425	  0.104969934	-3.023500E+01	  0.104969934	1.555800E+01	  0.104969934	5.304800E+01	  0.104969934	8.760000E-01
426	  0.105170339	-3.020200E+01	  0.105170339	1.552900E+01	  0.105170339	5.306000E+01	  0.105170339	8.780000E-01
427	  0.105370738	-3.020900E+01	  0.105370738	1.536700E+01	  0.105370738	5.306000E+01	  0.105370738	8.680000E-01
428	  0.105571143	-3.023700E+01	  0.105571143	1.518600E+01	  0.105571143	5.305300E+01	  0.105571143	8.560000E-01
429	  0.105771542	-3.017400E+01	  0.105771542	1.490800E+01	  0.105771542	5.308000E+01	  0.105771542	8.470000E-01
430	  0.105971940	-3.017600E+01	  0.105971940	1.514300E+01	  0.105971940	5.307600E+01	  0.105971940	8.600000E-01
431	  0.106172346	-3.019300E+01	  0.106172346	1.464000E+01	  0.106172346	5.307700E+01	  0.106172346	8.300000E-01
432	  0.106372744	-3.020700E+01	  0.106372744	1.493900E+01	  0.106372744	5.306800E+01	  0.106372744	8.450000E-01
433	  0.106573142	-3.018600E+01	  0.106573142	1.436300E+01	  0.106573142	5.308400E+01	  0.106573142	8.150000E-01
434	  0.106773548	-3.018700E+01	  0.106773548	1.441200E+01	  0.106773548	5.308300E+01	  0.106773548	8.180000E-01
435	  0.106973946	-3.023800E+01	  0.106973946	1.414700E+01	  0.106973946	5.306800E+01	  0.106973946	7.980000E-01
436	  0.107174344	-3.019000E+01	  0.107174344	1.409800E+01	  0.107174344	5.308700E+01	  0.107174344	8.000000E-01
437	  0.107374750	-3.019000E+01	  0.107374750	1.447400E+01	  0.107374750	5.308100E+01	  0.107374750	8.210000E-01
438	  0.107575148	-3.014000E+01	  0.107575148	1.394100E+01	  0.107575148	5.310700E+01	  0.107575148	7.970000E-01
439	  0.107775547	-3.020000E+01	  0.107775547	1.386800E+01	  0.107775547	5.308600E+01	  0.107775547	7.870000E-01
440	  0.107975952	-3.018700E+01	  0.107975952	1.388700E+01	  0.107975952	5.309100E+01	  0.107975952	7.890000E-01
441	  0.108176351	-3.014800E+01	  0.108176351	1.364600E+01	  0.108176351	5.310900E+01	  0.108176351	7.790000E-01
442	  0.108376749	-3.011200E+01	  0.108376749	1.360500E+01	  0.108376749	5.312300E+01	  0.108376749	7.810000E-01
443	  0.108577155	-3.015100E+01	  0.108577155	1.336800E+01	  0.108577155	5.311100E+01	  0.108577155	7.630000E-01
444	  0.108777553	-3.013700E+01	  0.108777553	1.336500E+01	  0.108777553	5.311700E+01	  0.108777553	7.650000E-01
445	  0.108977959	-3.014300E+01	  0.108977959	1.300600E+01	  0.108977959	5.312000E+01	  0.108977959	7.440000E-01
446	  0.109178357	-3.013400E+01	  0.109178357	1.314600E+01	  0.109178357	5.312100E+01	  0.109178357	7.530000E-01
447	  0.109378755	-3.015700E+01	  0.109378755	1.292700E+01	  0.109378755	5.311600E+01	  0.109378755	7.380000E-01
448	  0.109579161	-3.015100E+01	  0.109579161	1.287800E+01	  0.109579161	5.311800E+01	  0.109579161	7.360000E-01
449	  0.109779559	-3.013100E+01	  0.109779559	1.306600E+01	  0.109779559	5.312300E+01	  0.109779559	7.480000E-01
450	  0.109979957	-3.010000E+01	  0.109979957	1.244700E+01	  0.109979957	5.314300E+01	  0.109979957	7.160000E-01
451	  0.110180363	-3.012700E+01	  0.110180363	1.238000E+01	  0.110180363	5.313400E+01	  0.110180363	7.100000E-01
452	  0.110380761	-3.015500E+01	  0.110380761	1.269300E+01	  0.110380761	5.311900E+01	  0.110380761	7.250000E-01
453	  0.110581160	-3.014600E+01	  0.110581160	1.230700E+01	  0.110581160	5.312800E+01	  0.110581160	7.040000E-01
454	  0.110781565	-3.016100E+01	  0.110781565	1.240700E+01	  0.110781565	5.312100E+01	  0.110781565	7.090000E-01
455	  0.110981964	-3.015300E+01	  0.110981964	1.172900E+01	  0.110981964	5.313300E+01	  0.110981964	6.710000E-01
456	  0.111182362	-3.013100E+01	  0.111182362	1.240100E+01	  0.111182362	5.313200E+01	  0.111182362	7.110000E-01
457	  0.111382768	-3.015300E+01	  0.111382768	1.197800E+01	  0.111382768	5.313000E+01	  0.111382768	6.850000E-01
458	  0.111583166	-3.008400E+01	  0.111583166	1.197700E+01	  0.111583166	5.315500E+01	  0.111583166	6.910000E-01
459	  0.111783572	-3.016600E+01	  0.111783572	1.176200E+01	  0.111783572	5.312700E+01	  0.111783572	6.720000E-01
460	  0.111983970	-3.013200E+01	  0.111983970	1.156800E+01	  0.111983970	5.314200E+01	  0.111983970	6.640000E-01
461	  0.112184368	-3.012400E+01	  0.112184368	1.148300E+01	  0.112184368	5.314600E+01	  0.112184368	6.600000E-01
462	  0.112384774	-3.013700E+01	  0.112384774	1.125500E+01	  0.112384774	5.314400E+01	  0.112384774	6.460000E-01
463	  0.112585172	-3.014400E+01	  0.112585172	1.126800E+01	  0.112585172	5.314200E+01	  0.112585172	6.460000E-01
464	  0.112785570	-3.013800E+01	  0.112785570	1.107500E+01	  0.112785570	5.314600E+01	  0.112785570	6.360000E-01
465	  0.112985976	-3.011200E+01	  0.112985976	1.084300E+01	  0.112985976	5.315800E+01	  0.112985976	6.240000E-01
466	  0.113186374	-3.010700E+01	  0.113186374	1.101700E+01	  0.113186374	5.315800E+01	  0.113186374	6.350000E-01
467	  0.113386773	-3.018100E+01	  0.113386773	1.070500E+01	  0.113386773	5.313400E+01	  0.113386773	6.110000E-01
468	  0.113587178	-3.014200E+01	  0.113587178	1.062700E+01	  0.113587178	5.315000E+01	  0.113587178	6.100000E-01
469	  0.113787577	-3.014300E+01	  0.113787577	1.074800E+01	  0.113787577	5.314800E+01	  0.113787577	6.170000E-01
470	  0.113987975	-3.012100E+01	  0.113987975	1.054200E+01	  0.113987975	5.315900E+01	  0.113987975	6.070000E-01
471	  0.114188381	-3.015500E+01	  0.114188381	1.021200E+01	  0.114188381	5.315000E+01	  0.114188381	5.860000E-01
472	  0.114388779	-3.014900E+01	  0.114388779	1.006100E+01	  0.114388779	5.315300E+01	  0.114388779	5.770000E-01
473	  0.114589177	-3.012500E+01	  0.114589177	9.923000E+00	  0.114589177	5.316400E+01	  0.114589177	5.710000E-01
474	  0.114789583	-3.013300E+01	  0.114789583	1.027800E+01	  0.114789583	5.315700E+01	  0.114789583	5.910000E-01
475	  0.114989981	-3.011900E+01	  0.114989981	9.874000E+00	  0.114989981	5.316700E+01	  0.114989981	5.690000E-01
476	  0.115190387	-3.010600E+01	  0.115190387	9.714000E+00	  0.115190387	5.317300E+01	  0.115190387	5.610000E-01
477	  0.115390785	-3.012800E+01	  0.115390785	9.779000E+00	  0.115390785	5.316400E+01	  0.115390785	5.630000E-01
478	  0.115591183	-3.012500E+01	  0.115591183	9.668000E+00	  0.115591183	5.316600E+01	  0.115591183	5.570000E-01
479	  0.115791589	-3.014600E+01	  0.115791589	9.473000E+00	  0.115791589	5.316100E+01	  0.115791589	5.440000E-01
480	  0.115991987	-3.010900E+01	  0.115991987	9.338000E+00	  0.115991987	5.317600E+01	  0.115991987	5.390000E-01
481	  0.116192386	-3.008800E+01	  0.116192386	9.158000E+00	  0.116192386	5.318500E+01	  0.116192386	5.300000E-01
482	  0.116392791	-3.012900E+01	  0.116392791	9.142000E+00	  0.116392791	5.317000E+01	  0.116392791	5.260000E-01
483	  0.116593190	-3.011800E+01	  0.116593190	9.097000E+00	  0.116593190	5.317500E+01	  0.116593190	5.250000E-01
484	  0.116793588	-3.011800E+01	  0.116793588	9.179000E+00	  0.116793588	5.317400E+01	  0.116793588	5.290000E-01
485	  0.116993994	-3.011400E+01	  0.116993994	8.448000E+00	  0.116993994	5.318300E+01	  0.116993994	4.880000E-01
486	  0.117194392	-3.011000E+01	  0.117194392	8.895000E+00	  0.117194392	5.318000E+01	  0.117194392	5.140000E-01
487	  0.117394790	-3.013900E+01	  0.117394790	8.795000E+00	  0.117394790	5.317000E+01	  0.117394790	5.060000E-01
488	  0.117595196	-3.016800E+01	  0.117595196	8.747000E+00	  0.117595196	5.316000E+01	  0.117595196	5.020000E-01
489	  0.117795594	-3.016600E+01	  0.117795594	8.539000E+00	  0.117795594	5.316200E+01	  0.117795594	4.900000E-01
490	  0.117995992	-3.012700E+01	  0.117995992	8.402000E+00	  0.117995992	5.317800E+01	  0.117995992	4.840000E-01
491	  0.118196398	-3.008800E+01	  0.118196398	8.347000E+00	  0.118196398	5.319300E+01	  0.118196398	4.830000E-01
492	  0.118396796	-3.015200E+01	  0.118396796	8.104000E+00	  0.118396796	5.317100E+01	  0.118396796	4.660000E-01
493	  0.118597202	-3.012000E+01	  0.118597202	7.819000E+00	  0.118597202	5.318600E+01	  0.118597202	4.510000E-01
494	  0.118797600	-3.014700E+01	  0.118797600	7.995000E+00	  0.118797600	5.317400E+01	  0.118797600	4.600000E-01
495	  0.118997999	-3.015600E+01	  0.118997999	7.712000E+00	  0.118997999	5.317300E+01	  0.118997999	4.430000E-01
496	  0.119198404	-3.013500E+01	  0.119198404	7.898000E+00	  0.119198404	5.317900E+01	  0.119198404	4.550000E-01
497	  0.119398803	-3.011800E+01	  0.119398803	7.640000E+00	  0.119398803	5.318800E+01	  0.119398803	4.410000E-01
498	  0.119599201	-3.014100E+01	  0.119599201	7.319000E+00	  0.119599201	5.318200E+01	  0.119599201	4.210000E-01
499	  0.119799607	-3.012500E+01	  0.119799607	6.996000E+00	  0.119799607	5.319000E+01	  0.119799607	4.040000E-01
500	  0.120000005	-3.014200E+01	  0.120000005	7.321000E+00	  0.120000005	5.318200E+01	  0.120000005	4.220000E-01
