! Anritsu VNA Master:             	Model: MS2036C/10/77
! SN:             	1601066
! /bd0/18may07/256.ns.m1.txt
! Existing Calibration Information:
! TYPE:             	Current Settings	Active Cal Settings
! TIME:             	05/07/2018 02:53:31 PM	05/07/2018 02:45:31 PM
! INTERNAL TEMP:    	58.0 C	56.0 C
! # POINTS:         	500	500
! START FREQ:       	20.000 MHz	20.000 MHz
! STOP FREQ:        	120.000 MHz	120.000 MHz
! SOURCE POWER:     	High	High
! IFBW:             	50 Hz	50 Hz
! AVG FACTOR:       	  1 	  1 
! REF PLANE 1:      	0 mm	0 mm
! REF PLANE 2:      	0 mm	0 mm
! CAL TYPE:         	Full S11	Full S11
! CAL METHOD:       	SOLT	SOLT
! CAL LINE TYPE:    	Coax	Coax
! DUT PORT 1:       	K-Conn(F)	K-Conn(F)
! DUT PORT 2:       	K-Conn(F)	K-Conn(F)
! CAL STATUS:       	OK: Accuracy High	--
! PROP-V:       	0.700
! CABLE LOSS:       	0.000 dB/m
! REF IMPEDANCE:       	50.0
! Trace Specific Parameters:	TR1	TR2	TR3	TR4
! TRACE.#.Y (GRAPH TYPE)	LOG MAG	PHASE	REAL IMPEDANCE	IMAGINARY IMPEDANCE
! TRACE.#.X 	FREQ.GHZ	FREQ.GHZ	FREQ.GHZ	FREQ.GHZ
! S-PARAMETER	S11	S11	S11	S11
! SMOOTH/APERTURE %	0	0	0	0
! WINDOW	NSL	NSL	NSL	NSL
! GATING	OFF	OFF	OFF	OFF
! FGTD	OFF	OFF	OFF	OFF
Marker Information per Trace:	TR1	TR2	TR3	TR4
!MK1	--	"MK1 TR2:  20.000 MHz,PH:-125.77°"	--	--
!MK2	--	--	"MK2 TR3:  70.100 200 MHz,Z:(16.930 ohm, -2.786 ohm)"	--
!MK3	--	--	--	--
!MK4	--	--	--	--
!MK5	--	--	--	--
!MK6	--	--	--	--
!MK7	--	--	--	--
!MK8	--	--	--	--
PNT	TR1.FREQ.GHZ	TR1.LOG MAG.dB	TR2.FREQ.GHZ	TR2.PHASE.deg	TR3.FREQ.GHZ	TR3.REAL IMPEDANCE.ohm	TR4.FREQ.GHZ	TR4.IMAGINARY IMPEDANCE.ohm
1	  0.020000000	-6.320000E-01	  0.020000000	-1.257740E+02	  0.020000000	2.295000E+00	  0.020000000	-2.555700E+01
2	  0.020200402	-6.300000E-01	  0.020200402	-1.272470E+02	  0.020200402	2.260000E+00	  0.020200402	-2.475300E+01
3	  0.020400802	-6.320000E-01	  0.020400802	-1.286840E+02	  0.020400802	2.239000E+00	  0.020400802	-2.397800E+01
4	  0.020601204	-6.330000E-01	  0.020601204	-1.301680E+02	  0.020601204	2.215000E+00	  0.020601204	-2.318800E+01
5	  0.020801604	-6.370000E-01	  0.020801604	-1.316650E+02	  0.020801604	2.203000E+00	  0.020801604	-2.240000E+01
6	  0.021002004	-6.430000E-01	  0.021002004	-1.331860E+02	  0.021002004	2.198000E+00	  0.021002004	-2.160800E+01
7	  0.021202406	-6.510000E-01	  0.021202406	-1.347320E+02	  0.021202406	2.200000E+00	  0.021202406	-2.081300E+01
8	  0.021402806	-6.560000E-01	  0.021402806	-1.362730E+02	  0.021402806	2.193000E+00	  0.021402806	-2.002900E+01
9	  0.021603208	-6.610000E-01	  0.021603208	-1.378240E+02	  0.021603208	2.184000E+00	  0.021603208	-1.924800E+01
10	  0.021803608	-6.660000E-01	  0.021803608	-1.393720E+02	  0.021803608	2.180000E+00	  0.021803608	-1.847800E+01
11	  0.022004008	-6.730000E-01	  0.022004008	-1.409350E+02	  0.022004008	2.180000E+00	  0.022004008	-1.770700E+01
12	  0.022204408	-6.810000E-01	  0.022204408	-1.424810E+02	  0.022204408	2.187000E+00	  0.022204408	-1.695200E+01
13	  0.022404809	-6.840000E-01	  0.022404809	-1.440710E+02	  0.022404809	2.177000E+00	  0.022404809	-1.618300E+01
14	  0.022605211	-6.870000E-01	  0.022605211	-1.456870E+02	  0.022605211	2.164000E+00	  0.022605211	-1.540900E+01
15	  0.022805611	-6.900000E-01	  0.022805611	-1.473030E+02	  0.022805611	2.157000E+00	  0.022805611	-1.464100E+01
16	  0.023006011	-6.950000E-01	  0.023006011	-1.489130E+02	  0.023006011	2.154000E+00	  0.023006011	-1.388200E+01
17	  0.023206413	-6.990000E-01	  0.023206413	-1.504910E+02	  0.023206413	2.150000E+00	  0.023206413	-1.314500E+01
18	  0.023406813	-7.020000E-01	  0.023406813	-1.520970E+02	  0.023406813	2.144000E+00	  0.023406813	-1.239900E+01
19	  0.023607215	-7.040000E-01	  0.023607215	-1.536950E+02	  0.023607215	2.136000E+00	  0.023607215	-1.166300E+01
20	  0.023807615	-7.090000E-01	  0.023807615	-1.553150E+02	  0.023807615	2.139000E+00	  0.023807615	-1.092100E+01
21	  0.024008015	-7.210000E-01	  0.024008015	-1.569320E+02	  0.024008015	2.163000E+00	  0.024008015	-1.018500E+01
22	  0.024208417	-7.300000E-01	  0.024208417	-1.585740E+02	  0.024208417	2.175000E+00	  0.024208417	-9.441000E+00
23	  0.024408817	-7.390000E-01	  0.024408817	-1.602230E+02	  0.024408817	2.193000E+00	  0.024408817	-8.699000E+00
24	  0.024609219	-7.470000E-01	  0.024609219	-1.618840E+02	  0.024609219	2.206000E+00	  0.024609219	-7.955000E+00
25	  0.024809619	-7.580000E-01	  0.024809619	-1.635450E+02	  0.024809619	2.226000E+00	  0.024809619	-7.215000E+00
26	  0.025010020	-7.690000E-01	  0.025010020	-1.652090E+02	  0.025010020	2.251000E+00	  0.025010020	-6.476000E+00
27	  0.025210422	-7.820000E-01	  0.025210422	-1.668860E+02	  0.025210422	2.279000E+00	  0.025210422	-5.735000E+00
28	  0.025410822	-7.950000E-01	  0.025410822	-1.685670E+02	  0.025410822	2.310000E+00	  0.025410822	-4.994000E+00
29	  0.025611224	-8.090000E-01	  0.025611224	-1.702670E+02	  0.025611224	2.346000E+00	  0.025611224	-4.247000E+00
30	  0.025811624	-8.230000E-01	  0.025811624	-1.719960E+02	  0.025811624	2.379000E+00	  0.025811624	-3.490000E+00
31	  0.026012026	-8.340000E-01	  0.026012026	-1.737320E+02	  0.026012026	2.408000E+00	  0.026012026	-2.731000E+00
32	  0.026212426	-8.460000E-01	  0.026212426	-1.754710E+02	  0.026212426	2.437000E+00	  0.026212426	-1.972000E+00
33	  0.026412826	-8.600000E-01	  0.026412826	-1.772040E+02	  0.026412826	2.475000E+00	  0.026412826	-1.216000E+00
34	  0.026613226	-8.750000E-01	  0.026613226	-1.789600E+02	  0.026613226	2.516000E+00	  0.026613226	-4.520000E-01
35	  0.026813626	-8.920000E-01	  0.026813626	1.792620E+02	  0.026813626	2.566000E+00	  0.026813626	3.200000E-01
36	  0.027014028	-9.080000E-01	  0.027014028	1.774830E+02	  0.027014028	2.613000E+00	  0.027014028	1.095000E+00
37	  0.027214428	-9.260000E-01	  0.027214428	1.756930E+02	  0.027214428	2.667000E+00	  0.027214428	1.874000E+00
38	  0.027414829	-9.430000E-01	  0.027414829	1.738940E+02	  0.027414829	2.721000E+00	  0.027414829	2.658000E+00
39	  0.027615231	-9.600000E-01	  0.027615231	1.720840E+02	  0.027615231	2.775000E+00	  0.027615231	3.448000E+00
40	  0.027815631	-9.790000E-01	  0.027815631	1.702540E+02	  0.027815631	2.838000E+00	  0.027815631	4.249000E+00
41	  0.028016033	-1.000000E+00	  0.028016033	1.684280E+02	  0.028016033	2.905000E+00	  0.028016033	5.049000E+00
42	  0.028216433	-1.021000E+00	  0.028216433	1.665860E+02	  0.028216433	2.975000E+00	  0.028216433	5.858000E+00
43	  0.028416833	-1.042000E+00	  0.028416833	1.647330E+02	  0.028416833	3.050000E+00	  0.028416833	6.676000E+00
44	  0.028617235	-1.062000E+00	  0.028617235	1.628930E+02	  0.028617235	3.121000E+00	  0.028617235	7.491000E+00
45	  0.028817635	-1.082000E+00	  0.028817635	1.610560E+02	  0.028817635	3.197000E+00	  0.028817635	8.308000E+00
46	  0.029018037	-1.101000E+00	  0.029018037	1.592190E+02	  0.029018037	3.272000E+00	  0.029018037	9.129000E+00
47	  0.029218437	-1.120000E+00	  0.029218437	1.573950E+02	  0.029218437	3.349000E+00	  0.029218437	9.949000E+00
48	  0.029418837	-1.143000E+00	  0.029418837	1.555750E+02	  0.029418837	3.438000E+00	  0.029418837	1.077200E+01
49	  0.029619239	-1.168000E+00	  0.029619239	1.537300E+02	  0.029619239	3.540000E+00	  0.029619239	1.161100E+01
50	  0.029819639	-1.196000E+00	  0.029819639	1.518490E+02	  0.029819639	3.654000E+00	  0.029819639	1.247300E+01
51	  0.030020041	-1.227000E+00	  0.030020041	1.499580E+02	  0.030020041	3.779000E+00	  0.030020041	1.334500E+01
52	  0.030220442	-1.256000E+00	  0.030220442	1.480470E+02	  0.030220442	3.903000E+00	  0.030220442	1.423400E+01
53	  0.030420844	-1.287000E+00	  0.030420844	1.461230E+02	  0.030420844	4.040000E+00	  0.030420844	1.513600E+01
54	  0.030621244	-1.319000E+00	  0.030621244	1.442060E+02	  0.030621244	4.183000E+00	  0.030621244	1.604300E+01
55	  0.030821644	-1.351000E+00	  0.030821644	1.422960E+02	  0.030821644	4.331000E+00	  0.030821644	1.695700E+01
56	  0.031022044	-1.386000E+00	  0.031022044	1.403680E+02	  0.031022044	4.495000E+00	  0.031022044	1.788700E+01
57	  0.031222444	-1.422000E+00	  0.031222444	1.384640E+02	  0.031222444	4.668000E+00	  0.031222444	1.881600E+01
58	  0.031422846	-1.462000E+00	  0.031422846	1.364850E+02	  0.031422846	4.861000E+00	  0.031422846	1.979200E+01
59	  0.031623244	-1.500000E+00	  0.031623244	1.344870E+02	  0.031623244	5.060000E+00	  0.031623244	2.078900E+01
60	  0.031823646	-1.538000E+00	  0.031823646	1.324750E+02	  0.031823646	5.265000E+00	  0.031823646	2.180800E+01
61	  0.032024048	-1.577000E+00	  0.032024048	1.304740E+02	  0.032024048	5.480000E+00	  0.032024048	2.283400E+01
62	  0.032224450	-1.614000E+00	  0.032224450	1.284610E+02	  0.032224450	5.701000E+00	  0.032224450	2.388200E+01
63	  0.032424849	-1.652000E+00	  0.032424849	1.264520E+02	  0.032424849	5.935000E+00	  0.032424849	2.494300E+01
64	  0.032625251	-1.688000E+00	  0.032625251	1.244320E+02	  0.032625251	6.173000E+00	  0.032625251	2.602800E+01
65	  0.032825653	-1.725000E+00	  0.032825653	1.224140E+02	  0.032825653	6.427000E+00	  0.032825653	2.712900E+01
66	  0.033026051	-1.766000E+00	  0.033026051	1.204080E+02	  0.033026051	6.705000E+00	  0.033026051	2.824100E+01
67	  0.033226453	-1.810000E+00	  0.033226453	1.184040E+02	  0.033226453	7.008000E+00	  0.033226453	2.936900E+01
68	  0.033426855	-1.856000E+00	  0.033426855	1.164040E+02	  0.033426855	7.337000E+00	  0.033426855	3.051400E+01
69	  0.033627257	-1.906000E+00	  0.033627257	1.143780E+02	  0.033627257	7.699000E+00	  0.033627257	3.169300E+01
70	  0.033827655	-1.961000E+00	  0.033827655	1.123350E+02	  0.033827655	8.100000E+00	  0.033827655	3.290200E+01
71	  0.034028057	-2.012000E+00	  0.034028057	1.102680E+02	  0.034028057	8.511000E+00	  0.034028057	3.415200E+01
72	  0.034228459	-2.064000E+00	  0.034228459	1.081600E+02	  0.034228459	8.951000E+00	  0.034228459	3.545300E+01
73	  0.034428857	-2.114000E+00	  0.034428857	1.060390E+02	  0.034428857	9.410000E+00	  0.034428857	3.679200E+01
74	  0.034629259	-2.162000E+00	  0.034629259	1.039020E+02	  0.034629259	9.893000E+00	  0.034629259	3.817300E+01
75	  0.034829661	-2.212000E+00	  0.034829661	1.017810E+02	  0.034829661	1.040700E+01	  0.034829661	3.957500E+01
76	  0.035030060	-2.255000E+00	  0.035030060	9.963700E+01	  0.035030060	1.092800E+01	  0.035030060	4.103300E+01
77	  0.035230462	-2.299000E+00	  0.035230462	9.753700E+01	  0.035230462	1.148300E+01	  0.035230462	4.249500E+01
78	  0.035430863	-2.344000E+00	  0.035430863	9.544100E+01	  0.035430863	1.207300E+01	  0.035430863	4.399000E+01
79	  0.035631265	-2.387000E+00	  0.035631265	9.335500E+01	  0.035631265	1.269000E+01	  0.035631265	4.552000E+01
80	  0.035831664	-2.431000E+00	  0.035831664	9.128200E+01	  0.035831664	1.335600E+01	  0.035831664	4.707600E+01
81	  0.036032066	-2.476000E+00	  0.036032066	8.922400E+01	  0.036032066	1.406400E+01	  0.036032066	4.866200E+01
82	  0.036232468	-2.523000E+00	  0.036232468	8.717900E+01	  0.036232468	1.482900E+01	  0.036232468	5.027600E+01
83	  0.036432866	-2.573000E+00	  0.036432866	8.513400E+01	  0.036432866	1.566800E+01	  0.036432866	5.192700E+01
84	  0.036633268	-2.623000E+00	  0.036633268	8.308200E+01	  0.036633268	1.656400E+01	  0.036633268	5.363100E+01
85	  0.036833670	-2.677000E+00	  0.036833670	8.104100E+01	  0.036833670	1.755000E+01	  0.036833670	5.535900E+01
86	  0.037034072	-2.740000E+00	  0.037034072	7.900700E+01	  0.037034072	1.866100E+01	  0.037034072	5.710500E+01
87	  0.037234470	-2.804000E+00	  0.037234470	7.693800E+01	  0.037234470	1.987200E+01	  0.037234470	5.892400E+01
88	  0.037434869	-2.871000E+00	  0.037434869	7.484600E+01	  0.037434869	2.120300E+01	  0.037434869	6.080400E+01
89	  0.037635271	-2.944000E+00	  0.037635271	7.279200E+01	  0.037635271	2.266700E+01	  0.037635271	6.266400E+01
90	  0.037835669	-3.015000E+00	  0.037835669	7.076500E+01	  0.037835669	2.421000E+01	  0.037835669	6.454200E+01
91	  0.038036071	-3.072000E+00	  0.038036071	6.871700E+01	  0.038036071	2.578800E+01	  0.038036071	6.653200E+01
92	  0.038236473	-3.124000E+00	  0.038236473	6.660900E+01	  0.038236473	2.749400E+01	  0.038236473	6.865600E+01
93	  0.038436871	-3.176000E+00	  0.038436871	6.444800E+01	  0.038436871	2.938500E+01	  0.038436871	7.089200E+01
94	  0.038637273	-3.228000E+00	  0.038637273	6.229900E+01	  0.038637273	3.143000E+01	  0.038637273	7.316800E+01
95	  0.038837675	-3.278000E+00	  0.038837675	6.016100E+01	  0.038837675	3.363100E+01	  0.038837675	7.549100E+01
96	  0.039038073	-3.324000E+00	  0.039038073	5.802400E+01	  0.039038073	3.600700E+01	  0.039038073	7.788000E+01
97	  0.039238475	-3.368000E+00	  0.039238475	5.593400E+01	  0.039238475	3.853100E+01	  0.039238475	8.026500E+01
98	  0.039438877	-3.416000E+00	  0.039438877	5.386700E+01	  0.039438877	4.129200E+01	  0.039438877	8.262900E+01
99	  0.039639279	-3.469000E+00	  0.039639279	5.181400E+01	  0.039639279	4.433100E+01	  0.039639279	8.494600E+01
100	  0.039839678	-3.525000E+00	  0.039839678	4.974500E+01	  0.039839678	4.768700E+01	  0.039839678	8.725900E+01
101	  0.040040080	-3.581000E+00	  0.040040080	4.767700E+01	  0.040040080	5.135700E+01	  0.040040080	8.952900E+01
102	  0.040240481	-3.639000E+00	  0.040240481	4.560100E+01	  0.040240481	5.539000E+01	  0.040240481	9.172800E+01
103	  0.040440880	-3.697000E+00	  0.040440880	4.352400E+01	  0.040440880	5.978100E+01	  0.040440880	9.384500E+01
104	  0.040641282	-3.756000E+00	  0.040641282	4.143800E+01	  0.040641282	6.459300E+01	  0.040641282	9.582000E+01
105	  0.040841684	-3.806000E+00	  0.040841684	3.936100E+01	  0.040841684	6.972700E+01	  0.040841684	9.774200E+01
106	  0.041042086	-3.862000E+00	  0.041042086	3.731100E+01	  0.041042086	7.528900E+01	  0.041042086	9.930700E+01
107	  0.041242484	-3.915000E+00	  0.041242484	3.526300E+01	  0.041242484	8.126800E+01	  0.041242484	1.006380E+02
108	  0.041442886	-3.968000E+00	  0.041442886	3.321500E+01	  0.041442886	8.772200E+01	  0.041442886	1.015880E+02
109	  0.041643288	-4.020000E+00	  0.041643288	3.116100E+01	  0.041643288	9.464900E+01	  0.041643288	1.021320E+02
110	  0.041843686	-4.069000E+00	  0.041843686	2.911700E+01	  0.041843686	1.020020E+02	  0.041843686	1.021520E+02
111	  0.042044088	-4.116000E+00	  0.042044088	2.711000E+01	  0.042044088	1.096500E+02	  0.042044088	1.015800E+02
112	  0.042244490	-4.165000E+00	  0.042244490	2.510500E+01	  0.042244490	1.176640E+02	  0.042244490	1.002070E+02
113	  0.042444889	-4.214000E+00	  0.042444889	2.310400E+01	  0.042444889	1.259610E+02	  0.042444889	9.798500E+01
114	  0.042645290	-4.263000E+00	  0.042645290	2.113200E+01	  0.042645290	1.343100E+02	  0.042645290	9.479300E+01
115	  0.042845692	-4.310000E+00	  0.042845692	1.917200E+01	  0.042845692	1.426600E+02	  0.042845692	9.063300E+01
116	  0.043046094	-4.362000E+00	  0.043046094	1.719800E+01	  0.043046094	1.508930E+02	  0.043046094	8.521500E+01
117	  0.043246493	-4.411000E+00	  0.043246493	1.523700E+01	  0.043246493	1.587540E+02	  0.043246493	7.872700E+01
118	  0.043446895	-4.461000E+00	  0.043446895	1.326600E+01	  0.043446895	1.660900E+02	  0.043446895	7.104300E+01
119	  0.043647297	-4.509000E+00	  0.043647297	1.130600E+01	  0.043647297	1.726270E+02	  0.043647297	6.235600E+01
120	  0.043847695	-4.555000E+00	  0.043847695	9.337000E+00	  0.043847695	1.782340E+02	  0.043847695	5.268900E+01
121	  0.044048097	-4.607000E+00	  0.044048097	7.384000E+00	  0.044048097	1.824250E+02	  0.044048097	4.219500E+01
122	  0.044248499	-4.655000E+00	  0.044248499	5.424000E+00	  0.044248499	1.853690E+02	  0.044248499	3.117800E+01
123	  0.044448901	-4.703000E+00	  0.044448901	3.459000E+00	  0.044448901	1.869000E+02	  0.044448901	1.984400E+01
124	  0.044649299	-4.752000E+00	  0.044649299	1.522000E+00	  0.044649299	1.868810E+02	  0.044649299	8.639000E+00
125	  0.044849701	-4.795000E+00	  0.044849701	-4.240000E-01	  0.044849701	1.856670E+02	  0.044849701	-2.368000E+00
126	  0.045050103	-4.840000E+00	  0.045050103	-2.366000E+00	  0.045050103	1.830980E+02	  0.045050103	-1.289200E+01
127	  0.045250501	-4.880000E+00	  0.045250501	-4.310000E+00	  0.045250501	1.794870E+02	  0.045250501	-2.278700E+01
128	  0.045450903	-4.920000E+00	  0.045450903	-6.223000E+00	  0.045450903	1.749640E+02	  0.045450903	-3.175500E+01
129	  0.045651305	-4.963000E+00	  0.045651305	-8.149000E+00	  0.045651305	1.695200E+02	  0.045651305	-3.984300E+01
130	  0.045851704	-5.002000E+00	  0.045851704	-1.006700E+01	  0.045851704	1.636240E+02	  0.045851704	-4.701800E+01
131	  0.046052106	-5.043000E+00	  0.046052106	-1.196100E+01	  0.046052106	1.573230E+02	  0.046052106	-5.311600E+01
132	  0.046252504	-5.082000E+00	  0.046252504	-1.385900E+01	  0.046252504	1.508070E+02	  0.046252504	-5.834400E+01
133	  0.046452906	-5.121000E+00	  0.046452906	-1.574500E+01	  0.046452906	1.442260E+02	  0.046452906	-6.267600E+01
134	  0.046653304	-5.155000E+00	  0.046653304	-1.764100E+01	  0.046653304	1.376950E+02	  0.046653304	-6.634000E+01
135	  0.046853706	-5.189000E+00	  0.046853706	-1.951200E+01	  0.046853706	1.313050E+02	  0.046853706	-6.921000E+01
136	  0.047054108	-5.222000E+00	  0.047054108	-2.134600E+01	  0.047054108	1.251840E+02	  0.047054108	-7.140200E+01
137	  0.047254506	-5.252000E+00	  0.047254506	-2.320400E+01	  0.047254506	1.192130E+02	  0.047254506	-7.314000E+01
138	  0.047454908	-5.282000E+00	  0.047454908	-2.499400E+01	  0.047454908	1.136540E+02	  0.047454908	-7.430100E+01
139	  0.047655310	-5.310000E+00	  0.047655310	-2.680600E+01	  0.047655310	1.082710E+02	  0.047655310	-7.509700E+01
140	  0.047855709	-5.338000E+00	  0.047855709	-2.856200E+01	  0.047855709	1.032930E+02	  0.047855709	-7.550900E+01
141	  0.048056111	-5.366000E+00	  0.048056111	-3.029300E+01	  0.048056111	9.861900E+01	  0.048056111	-7.561300E+01
142	  0.048256513	-5.394000E+00	  0.048256513	-3.202800E+01	  0.048256513	9.417200E+01	  0.048256513	-7.546300E+01
143	  0.048456915	-5.423000E+00	  0.048456915	-3.375500E+01	  0.048456915	8.998300E+01	  0.048456915	-7.510500E+01
144	  0.048657313	-5.454000E+00	  0.048657313	-3.549600E+01	  0.048657313	8.599600E+01	  0.048657313	-7.452000E+01
145	  0.048857715	-5.479000E+00	  0.048857715	-3.720600E+01	  0.048857715	8.229600E+01	  0.048857715	-7.388300E+01
146	  0.049058117	-5.506000E+00	  0.049058117	-3.893000E+01	  0.049058117	7.877800E+01	  0.049058117	-7.309000E+01
147	  0.049258515	-5.532000E+00	  0.049258515	-4.062100E+01	  0.049258515	7.552400E+01	  0.049258515	-7.222000E+01
148	  0.049458917	-5.557000E+00	  0.049458917	-4.231600E+01	  0.049458917	7.244700E+01	  0.049458917	-7.127100E+01
149	  0.049659319	-5.584000E+00	  0.049659319	-4.400100E+01	  0.049659319	6.956900E+01	  0.049659319	-7.023000E+01
150	  0.049859721	-5.613000E+00	  0.049859721	-4.566400E+01	  0.049859721	6.689900E+01	  0.049859721	-6.912900E+01
151	  0.050060119	-5.636000E+00	  0.050060119	-4.733900E+01	  0.050060119	6.434600E+01	  0.050060119	-6.804000E+01
152	  0.050260521	-5.663000E+00	  0.050260521	-4.900900E+01	  0.050260521	6.195500E+01	  0.050260521	-6.688700E+01
153	  0.050460923	-5.684000E+00	  0.050460923	-5.069200E+01	  0.050460923	5.966600E+01	  0.050460923	-6.574500E+01
154	  0.050661322	-5.704000E+00	  0.050661322	-5.236900E+01	  0.050661322	5.750700E+01	  0.050661322	-6.460200E+01
155	  0.050861724	-5.725000E+00	  0.050861724	-5.401100E+01	  0.050861724	5.551400E+01	  0.050861724	-6.345200E+01
156	  0.051062126	-5.743000E+00	  0.051062126	-5.567700E+01	  0.051062126	5.359200E+01	  0.051062126	-6.230000E+01
157	  0.051262524	-5.763000E+00	  0.051262524	-5.727400E+01	  0.051262524	5.186000E+01	  0.051262524	-6.116200E+01
158	  0.051462926	-5.776000E+00	  0.051462926	-5.888200E+01	  0.051462926	5.017900E+01	  0.051462926	-6.006600E+01
159	  0.051663328	-5.794000E+00	  0.051663328	-6.044800E+01	  0.051663328	4.864600E+01	  0.051663328	-5.895900E+01
160	  0.051863730	-5.811000E+00	  0.051863730	-6.201100E+01	  0.051863730	4.718800E+01	  0.051863730	-5.786700E+01
161	  0.052064128	-5.825000E+00	  0.052064128	-6.356700E+01	  0.052064128	4.580100E+01	  0.052064128	-5.679200E+01
162	  0.052264530	-5.843000E+00	  0.052264530	-6.513200E+01	  0.052264530	4.448900E+01	  0.052264530	-5.569800E+01
163	  0.052464932	-5.859000E+00	  0.052464932	-6.666300E+01	  0.052464932	4.326100E+01	  0.052464932	-5.464300E+01
164	  0.052665330	-5.876000E+00	  0.052665330	-6.822500E+01	  0.052665330	4.207300E+01	  0.052665330	-5.356900E+01
165	  0.052865732	-5.892000E+00	  0.052865732	-6.974900E+01	  0.052865732	4.096900E+01	  0.052865732	-5.253100E+01
166	  0.053066134	-5.911000E+00	  0.053066134	-7.128300E+01	  0.053066134	3.991800E+01	  0.053066134	-5.148600E+01
167	  0.053266536	-5.923000E+00	  0.053266536	-7.281300E+01	  0.053266536	3.889500E+01	  0.053266536	-5.048300E+01
168	  0.053466935	-5.935000E+00	  0.053466935	-7.435000E+01	  0.053466935	3.791400E+01	  0.053466935	-4.948400E+01
169	  0.053667337	-5.943000E+00	  0.053667337	-7.584800E+01	  0.053667337	3.698800E+01	  0.053667337	-4.853400E+01
170	  0.053867739	-5.954000E+00	  0.053867739	-7.732100E+01	  0.053867739	3.612900E+01	  0.053867739	-4.759600E+01
171	  0.054068137	-5.958000E+00	  0.054068137	-7.881100E+01	  0.054068137	3.526800E+01	  0.054068137	-4.668600E+01
172	  0.054268539	-5.967000E+00	  0.054268539	-8.026600E+01	  0.054268539	3.448300E+01	  0.054268539	-4.578500E+01
173	  0.054468941	-5.970000E+00	  0.054468941	-8.171200E+01	  0.054468941	3.371700E+01	  0.054468941	-4.491500E+01
174	  0.054669339	-5.982000E+00	  0.054669339	-8.311800E+01	  0.054669339	3.303300E+01	  0.054669339	-4.405000E+01
175	  0.054869737	-5.987000E+00	  0.054869737	-8.453300E+01	  0.054869737	3.235000E+01	  0.054869737	-4.320800E+01
176	  0.055070139	-5.997000E+00	  0.055070139	-8.591800E+01	  0.055070139	3.172400E+01	  0.055070139	-4.237800E+01
177	  0.055270538	-6.008000E+00	  0.055270538	-8.730000E+01	  0.055270538	3.112900E+01	  0.055270538	-4.155500E+01
178	  0.055470940	-6.019000E+00	  0.055470940	-8.866400E+01	  0.055470940	3.056400E+01	  0.055470940	-4.075200E+01
179	  0.055671342	-6.026000E+00	  0.055671342	-9.005000E+01	  0.055671342	3.000100E+01	  0.055671342	-3.995400E+01
180	  0.055871744	-6.036000E+00	  0.055871744	-9.143300E+01	  0.055871744	2.946800E+01	  0.055871744	-3.916100E+01
181	  0.056072142	-6.045000E+00	  0.056072142	-9.280800E+01	  0.056072142	2.895900E+01	  0.056072142	-3.838000E+01
182	  0.056272544	-6.059000E+00	  0.056272544	-9.418400E+01	  0.056272544	2.848500E+01	  0.056272544	-3.759600E+01
183	  0.056472946	-6.068000E+00	  0.056472946	-9.557800E+01	  0.056472946	2.800500E+01	  0.056472946	-3.682400E+01
184	  0.056673344	-6.080000E+00	  0.056673344	-9.696900E+01	  0.056673344	2.755400E+01	  0.056673344	-3.605500E+01
185	  0.056873746	-6.085000E+00	  0.056873746	-9.833200E+01	  0.056873746	2.711000E+01	  0.056873746	-3.532200E+01
186	  0.057074148	-6.094000E+00	  0.057074148	-9.971700E+01	  0.057074148	2.668500E+01	  0.057074148	-3.457900E+01
187	  0.057274550	-6.096000E+00	  0.057274550	-1.011000E+02	  0.057274550	2.625400E+01	  0.057274550	-3.385800E+01
188	  0.057474948	-6.098000E+00	  0.057474948	-1.024650E+02	  0.057474948	2.584700E+01	  0.057474948	-3.315200E+01
189	  0.057675350	-6.099000E+00	  0.057675350	-1.038080E+02	  0.057675350	2.545600E+01	  0.057675350	-3.246500E+01
190	  0.057875752	-6.100000E+00	  0.057875752	-1.051740E+02	  0.057875752	2.507200E+01	  0.057875752	-3.177400E+01
191	  0.058076151	-6.103000E+00	  0.058076151	-1.064850E+02	  0.058076151	2.472400E+01	  0.058076151	-3.111200E+01
192	  0.058276553	-6.099000E+00	  0.058276553	-1.077920E+02	  0.058276553	2.436600E+01	  0.058276553	-3.047000E+01
193	  0.058476955	-6.104000E+00	  0.058476955	-1.090970E+02	  0.058476955	2.405000E+01	  0.058476955	-2.981800E+01
194	  0.058677353	-6.104000E+00	  0.058677353	-1.103850E+02	  0.058677353	2.373300E+01	  0.058677353	-2.918900E+01
195	  0.058877755	-6.107000E+00	  0.058877755	-1.116720E+02	  0.058877755	2.343500E+01	  0.058877755	-2.856100E+01
196	  0.059078157	-6.108000E+00	  0.059078157	-1.129370E+02	  0.059078157	2.314700E+01	  0.059078157	-2.795200E+01
197	  0.059278559	-6.110000E+00	  0.059278559	-1.142220E+02	  0.059278559	2.286800E+01	  0.059278559	-2.733500E+01
198	  0.059478957	-6.108000E+00	  0.059478957	-1.154850E+02	  0.059478957	2.259200E+01	  0.059478957	-2.673900E+01
199	  0.059679359	-6.113000E+00	  0.059679359	-1.167480E+02	  0.059679359	2.234500E+01	  0.059679359	-2.613800E+01
200	  0.059879761	-6.115000E+00	  0.059879761	-1.180180E+02	  0.059879761	2.209700E+01	  0.059879761	-2.554300E+01
201	  0.060080159	-6.114000E+00	  0.060080159	-1.192420E+02	  0.060080159	2.185700E+01	  0.060080159	-2.497700E+01
202	  0.060280561	-6.114000E+00	  0.060280561	-1.205010E+02	  0.060280561	2.162200E+01	  0.060280561	-2.439800E+01
203	  0.060480963	-6.117000E+00	  0.060480963	-1.217260E+02	  0.060480963	2.140700E+01	  0.060480963	-2.383400E+01
204	  0.060681365	-6.115000E+00	  0.060681365	-1.229340E+02	  0.060681365	2.119000E+01	  0.060681365	-2.328800E+01
205	  0.060881764	-6.116000E+00	  0.060881764	-1.241390E+02	  0.060881764	2.098900E+01	  0.060881764	-2.274400E+01
206	  0.061082166	-6.116000E+00	  0.061082166	-1.253390E+02	  0.061082166	2.079300E+01	  0.061082166	-2.220500E+01
207	  0.061282568	-6.116000E+00	  0.061282568	-1.265370E+02	  0.061282568	2.060300E+01	  0.061282568	-2.167100E+01
208	  0.061482966	-6.116000E+00	  0.061482966	-1.277210E+02	  0.061482966	2.042000E+01	  0.061482966	-2.114800E+01
209	  0.061683368	-6.115000E+00	  0.061683368	-1.288690E+02	  0.061683368	2.024900E+01	  0.061683368	-2.064200E+01
210	  0.061883770	-6.121000E+00	  0.061883770	-1.300260E+02	  0.061883770	2.010000E+01	  0.061883770	-2.013000E+01
211	  0.062084168	-6.123000E+00	  0.062084168	-1.311520E+02	  0.062084168	1.994700E+01	  0.062084168	-1.963800E+01
212	  0.062284570	-6.128000E+00	  0.062284570	-1.322780E+02	  0.062284570	1.981200E+01	  0.062284570	-1.914600E+01
213	  0.062484972	-6.128000E+00	  0.062484972	-1.333460E+02	  0.062484972	1.967300E+01	  0.062484972	-1.868600E+01
214	  0.062685370	-6.137000E+00	  0.062685370	-1.344710E+02	  0.062685370	1.955500E+01	  0.062685370	-1.819600E+01
215	  0.062885776	-6.142000E+00	  0.062885776	-1.356170E+02	  0.062885776	1.942900E+01	  0.062885776	-1.770400E+01
216	  0.063086174	-6.150000E+00	  0.063086174	-1.367250E+02	  0.063086174	1.932100E+01	  0.063086174	-1.722800E+01
217	  0.063286573	-6.159000E+00	  0.063286573	-1.378720E+02	  0.063286573	1.921500E+01	  0.063286573	-1.673700E+01
218	  0.063486971	-6.166000E+00	  0.063486971	-1.389840E+02	  0.063486971	1.911100E+01	  0.063486971	-1.626600E+01
219	  0.063687377	-6.169000E+00	  0.063687377	-1.400860E+02	  0.063687377	1.900200E+01	  0.063687377	-1.580300E+01
220	  0.063887775	-6.171000E+00	  0.063887775	-1.411830E+02	  0.063887775	1.889400E+01	  0.063887775	-1.534600E+01
221	  0.064088173	-6.172000E+00	  0.064088173	-1.422800E+02	  0.064088173	1.878900E+01	  0.064088173	-1.489000E+01
222	  0.064288579	-6.177000E+00	  0.064288579	-1.433830E+02	  0.064288579	1.869600E+01	  0.064288579	-1.443200E+01
223	  0.064488977	-6.174000E+00	  0.064488977	-1.444630E+02	  0.064488977	1.858900E+01	  0.064488977	-1.399000E+01
224	  0.064689375	-6.178000E+00	  0.064689375	-1.455180E+02	  0.064689375	1.850500E+01	  0.064689375	-1.355600E+01
225	  0.064889781	-6.179000E+00	  0.064889781	-1.465690E+02	  0.064889781	1.841800E+01	  0.064889781	-1.312600E+01
226	  0.065090179	-6.174000E+00	  0.065090179	-1.476290E+02	  0.065090179	1.831700E+01	  0.065090179	-1.269800E+01
227	  0.065290578	-6.175000E+00	  0.065290578	-1.486440E+02	  0.065290578	1.823800E+01	  0.065290578	-1.228600E+01
228	  0.065490983	-6.170000E+00	  0.065490983	-1.496600E+02	  0.065490983	1.814600E+01	  0.065490983	-1.187800E+01
229	  0.065691382	-6.163000E+00	  0.065691382	-1.507020E+02	  0.065691382	1.805300E+01	  0.065691382	-1.146100E+01
230	  0.065891780	-6.157000E+00	  0.065891780	-1.517340E+02	  0.065891780	1.796100E+01	  0.065891780	-1.105000E+01
231	  0.066092186	-6.153000E+00	  0.066092186	-1.527530E+02	  0.066092186	1.788200E+01	  0.066092186	-1.064400E+01
232	  0.066292584	-6.150000E+00	  0.066292584	-1.537410E+02	  0.066292584	1.781000E+01	  0.066292584	-1.025000E+01
233	  0.066492982	-6.147000E+00	  0.066492982	-1.547650E+02	  0.066492982	1.773900E+01	  0.066492982	-9.842000E+00
234	  0.066693388	-6.141000E+00	  0.066693388	-1.557740E+02	  0.066693388	1.766300E+01	  0.066693388	-9.443000E+00
235	  0.066893786	-6.131000E+00	  0.066893786	-1.567800E+02	  0.066893786	1.758000E+01	  0.066893786	-9.048000E+00
236	  0.067094192	-6.125000E+00	  0.067094192	-1.577630E+02	  0.067094192	1.751100E+01	  0.067094192	-8.660000E+00
237	  0.067294590	-6.123000E+00	  0.067294590	-1.587960E+02	  0.067294590	1.745100E+01	  0.067294590	-8.252000E+00
238	  0.067494988	-6.115000E+00	  0.067494988	-1.597890E+02	  0.067494988	1.738400E+01	  0.067494988	-7.863000E+00
239	  0.067695394	-6.112000E+00	  0.067695394	-1.607950E+02	  0.067695394	1.732800E+01	  0.067695394	-7.467000E+00
240	  0.067895792	-6.112000E+00	  0.067895792	-1.618010E+02	  0.067895792	1.728300E+01	  0.067895792	-7.072000E+00
241	  0.068096191	-6.107000E+00	  0.068096191	-1.627960E+02	  0.068096191	1.723100E+01	  0.068096191	-6.682000E+00
242	  0.068296596	-6.108000E+00	  0.068296596	-1.638130E+02	  0.068296596	1.719300E+01	  0.068296596	-6.283000E+00
243	  0.068496995	-6.103000E+00	  0.068496995	-1.648400E+02	  0.068496995	1.714200E+01	  0.068496995	-5.883000E+00
244	  0.068697393	-6.100000E+00	  0.068697393	-1.658040E+02	  0.068697393	1.710200E+01	  0.068697393	-5.507000E+00
245	  0.068897791	-6.098000E+00	  0.068897791	-1.667910E+02	  0.068897791	1.706500E+01	  0.068897791	-5.122000E+00
246	  0.069098189	-6.097000E+00	  0.069098189	-1.677720E+02	  0.069098189	1.703400E+01	  0.069098189	-4.740000E+00
247	  0.069298595	-6.093000E+00	  0.069298595	-1.687940E+02	  0.069298595	1.699600E+01	  0.069298595	-4.342000E+00
248	  0.069498993	-6.091000E+00	  0.069498993	-1.697970E+02	  0.069498993	1.696700E+01	  0.069498993	-3.952000E+00
249	  0.069699399	-6.098000E+00	  0.069699399	-1.707940E+02	  0.069699399	1.696300E+01	  0.069699399	-3.564000E+00
250	  0.069899797	-6.096000E+00	  0.069899797	-1.718050E+02	  0.069899797	1.693600E+01	  0.069899797	-3.172000E+00
251	  0.070100196	-6.100000E+00	  0.070100196	-1.728000E+02	  0.070100196	1.692900E+01	  0.070100196	-2.786000E+00
252	  0.070300601	-6.098000E+00	  0.070300601	-1.737910E+02	  0.070300601	1.690900E+01	  0.070300601	-2.402000E+00
253	  0.070501000	-6.096000E+00	  0.070501000	-1.747990E+02	  0.070501000	1.689100E+01	  0.070501000	-2.012000E+00
254	  0.070701398	-6.100000E+00	  0.070701398	-1.758190E+02	  0.070701398	1.689000E+01	  0.070701398	-1.616000E+00
255	  0.070901804	-6.096000E+00	  0.070901804	-1.768240E+02	  0.070901804	1.687100E+01	  0.070901804	-1.228000E+00
256	  0.071102202	-6.096000E+00	  0.071102202	-1.778350E+02	  0.071102202	1.686500E+01	  0.071102202	-8.370000E-01
257	  0.071302600	-6.098000E+00	  0.071302600	-1.788290E+02	  0.071302600	1.686700E+01	  0.071302600	-4.520000E-01
258	  0.071503006	-6.101000E+00	  0.071503006	-1.798560E+02	  0.071503006	1.687300E+01	  0.071503006	-5.500000E-02
259	  0.071703404	-6.105000E+00	  0.071703404	1.791760E+02	  0.071703404	1.688300E+01	  0.071703404	3.180000E-01
260	  0.071903802	-6.107000E+00	  0.071903802	1.781660E+02	  0.071903802	1.689100E+01	  0.071903802	7.080000E-01
261	  0.072104208	-6.109000E+00	  0.072104208	1.771860E+02	  0.072104208	1.690200E+01	  0.072104208	1.087000E+00
262	  0.072304606	-6.105000E+00	  0.072304606	1.761960E+02	  0.072304606	1.690000E+01	  0.072304606	1.470000E+00
263	  0.072505005	-6.106000E+00	  0.072505005	1.752060E+02	  0.072505005	1.691100E+01	  0.072505005	1.853000E+00
264	  0.072705410	-6.114000E+00	  0.072705410	1.742280E+02	  0.072705410	1.694500E+01	  0.072705410	2.231000E+00
265	  0.072905809	-6.115000E+00	  0.072905809	1.732770E+02	  0.072905809	1.696000E+01	  0.072905809	2.599000E+00
266	  0.073106214	-6.117000E+00	  0.073106214	1.722940E+02	  0.073106214	1.698200E+01	  0.073106214	2.980000E+00
267	  0.073306613	-6.120000E+00	  0.073306613	1.713170E+02	  0.073306613	1.700900E+01	  0.073306613	3.358000E+00
268	  0.073507011	-6.120000E+00	  0.073507011	1.703560E+02	  0.073507011	1.702900E+01	  0.073507011	3.731000E+00
269	  0.073707417	-6.129000E+00	  0.073707417	1.694020E+02	  0.073707417	1.707200E+01	  0.073707417	4.100000E+00
270	  0.073907815	-6.131000E+00	  0.073907815	1.684550E+02	  0.073907815	1.710300E+01	  0.073907815	4.468000E+00
271	  0.074108213	-6.131000E+00	  0.074108213	1.675290E+02	  0.074108213	1.712800E+01	  0.074108213	4.828000E+00
272	  0.074308619	-6.140000E+00	  0.074308619	1.665890E+02	  0.074308619	1.717900E+01	  0.074308619	5.192000E+00
273	  0.074509017	-6.144000E+00	  0.074509017	1.656330E+02	  0.074509017	1.722000E+01	  0.074509017	5.564000E+00
274	  0.074709415	-6.146000E+00	  0.074709415	1.647140E+02	  0.074709415	1.725700E+01	  0.074709415	5.922000E+00
275	  0.074909821	-6.157000E+00	  0.074909821	1.637960E+02	  0.074909821	1.731900E+01	  0.074909821	6.278000E+00
276	  0.075110219	-6.167000E+00	  0.075110219	1.628810E+02	  0.075110219	1.738000E+01	  0.075110219	6.633000E+00
277	  0.075310618	-6.179000E+00	  0.075310618	1.619690E+02	  0.075310618	1.745000E+01	  0.075310618	6.987000E+00
278	  0.075511023	-6.186000E+00	  0.075511023	1.610770E+02	  0.075511023	1.750700E+01	  0.075511023	7.335000E+00
279	  0.075711422	-6.191000E+00	  0.075711422	1.601650E+02	  0.075711422	1.756300E+01	  0.075711422	7.691000E+00
280	  0.075911827	-6.203000E+00	  0.075911827	1.592920E+02	  0.075911827	1.763400E+01	  0.075911827	8.031000E+00
281	  0.076112226	-6.213000E+00	  0.076112226	1.583660E+02	  0.076112226	1.770700E+01	  0.076112226	8.392000E+00
282	  0.076312624	-6.226000E+00	  0.076312624	1.574920E+02	  0.076312624	1.778800E+01	  0.076312624	8.732000E+00
283	  0.076513030	-6.233000E+00	  0.076513030	1.565770E+02	  0.076513030	1.785800E+01	  0.076513030	9.090000E+00
284	  0.076713428	-6.245000E+00	  0.076713428	1.556760E+02	  0.076713428	1.794200E+01	  0.076713428	9.442000E+00
285	  0.076913826	-6.258000E+00	  0.076913826	1.547820E+02	  0.076913826	1.802800E+01	  0.076913826	9.791000E+00
286	  0.077114232	-6.272000E+00	  0.077114232	1.539100E+02	  0.077114232	1.811900E+01	  0.077114232	1.013100E+01
287	  0.077314630	-6.277000E+00	  0.077314630	1.530120E+02	  0.077314630	1.819100E+01	  0.077314630	1.048600E+01
288	  0.077515028	-6.287000E+00	  0.077515028	1.521600E+02	  0.077515028	1.827700E+01	  0.077515028	1.082000E+01
289	  0.077715434	-6.300000E+00	  0.077715434	1.513040E+02	  0.077715434	1.837000E+01	  0.077715434	1.115500E+01
290	  0.077915832	-6.308000E+00	  0.077915832	1.504220E+02	  0.077915832	1.845700E+01	  0.077915832	1.150400E+01
291	  0.078116231	-6.322000E+00	  0.078116231	1.495820E+02	  0.078116231	1.855600E+01	  0.078116231	1.183300E+01
292	  0.078316636	-6.338000E+00	  0.078316636	1.487100E+02	  0.078316636	1.866600E+01	  0.078316636	1.217500E+01
293	  0.078517035	-6.352000E+00	  0.078517035	1.478450E+02	  0.078517035	1.877200E+01	  0.078517035	1.251500E+01
294	  0.078717433	-6.368000E+00	  0.078717433	1.469930E+02	  0.078717433	1.888700E+01	  0.078717433	1.284900E+01
295	  0.078917839	-6.384000E+00	  0.078917839	1.461560E+02	  0.078917839	1.900200E+01	  0.078917839	1.317800E+01
296	  0.079118237	-6.397000E+00	  0.079118237	1.452940E+02	  0.079118237	1.911200E+01	  0.079118237	1.351800E+01
297	  0.079318643	-6.415000E+00	  0.079318643	1.444540E+02	  0.079318643	1.923800E+01	  0.079318643	1.384700E+01
298	  0.079519041	-6.433000E+00	  0.079519041	1.436200E+02	  0.079519041	1.936500E+01	  0.079519041	1.417400E+01
299	  0.079719439	-6.447000E+00	  0.079719439	1.428010E+02	  0.079719439	1.948200E+01	  0.079719439	1.449800E+01
300	  0.079919845	-6.466000E+00	  0.079919845	1.419390E+02	  0.079919845	1.961800E+01	  0.079919845	1.483700E+01
301	  0.080120243	-6.486000E+00	  0.080120243	1.411060E+02	  0.080120243	1.975700E+01	  0.080120243	1.516300E+01
302	  0.080320641	-6.496000E+00	  0.080320641	1.402690E+02	  0.080320641	1.987300E+01	  0.080320641	1.549800E+01
303	  0.080521047	-6.516000E+00	  0.080521047	1.394400E+02	  0.080521047	2.001700E+01	  0.080521047	1.582400E+01
304	  0.080721445	-6.535000E+00	  0.080721445	1.386100E+02	  0.080721445	2.016400E+01	  0.080721445	1.615000E+01
305	  0.080921844	-6.552000E+00	  0.080921844	1.378090E+02	  0.080921844	2.030200E+01	  0.080921844	1.646600E+01
306	  0.081122249	-6.571000E+00	  0.081122249	1.369760E+02	  0.081122249	2.045100E+01	  0.081122249	1.679500E+01
307	  0.081322648	-6.592000E+00	  0.081322648	1.361650E+02	  0.081322648	2.060700E+01	  0.081322648	1.711300E+01
308	  0.081523046	-6.612000E+00	  0.081523046	1.353720E+02	  0.081523046	2.076100E+01	  0.081523046	1.742500E+01
309	  0.081723452	-6.629000E+00	  0.081723452	1.345360E+02	  0.081723452	2.091400E+01	  0.081723452	1.775700E+01
310	  0.081923850	-6.647000E+00	  0.081923850	1.337310E+02	  0.081923850	2.107000E+01	  0.081923850	1.807500E+01
311	  0.082124248	-6.668000E+00	  0.082124248	1.329510E+02	  0.082124248	2.123300E+01	  0.082124248	1.838100E+01
312	  0.082324654	-6.689000E+00	  0.082324654	1.321790E+02	  0.082324654	2.139500E+01	  0.082324654	1.868500E+01
313	  0.082525052	-6.710000E+00	  0.082525052	1.313900E+02	  0.082525052	2.156700E+01	  0.082525052	1.899400E+01
314	  0.082725458	-6.733000E+00	  0.082725458	1.306380E+02	  0.082725458	2.173800E+01	  0.082725458	1.928700E+01
315	  0.082925856	-6.755000E+00	  0.082925856	1.298790E+02	  0.082925856	2.191100E+01	  0.082925856	1.958400E+01
316	  0.083126254	-6.779000E+00	  0.083126254	1.290740E+02	  0.083126254	2.210000E+01	  0.083126254	1.989800E+01
317	  0.083326660	-6.803000E+00	  0.083326660	1.282910E+02	  0.083326660	2.228800E+01	  0.083326660	2.020300E+01
318	  0.083527058	-6.820000E+00	  0.083527058	1.274880E+02	  0.083527058	2.246200E+01	  0.083527058	2.052400E+01
319	  0.083727457	-6.845000E+00	  0.083727457	1.267230E+02	  0.083727457	2.265700E+01	  0.083727457	2.081900E+01
320	  0.083927862	-6.861000E+00	  0.083927862	1.259830E+02	  0.083927862	2.282500E+01	  0.083927862	2.111400E+01
321	  0.084128261	-6.881000E+00	  0.084128261	1.252150E+02	  0.084128261	2.301100E+01	  0.084128261	2.141700E+01
322	  0.084328659	-6.908000E+00	  0.084328659	1.244710E+02	  0.084328659	2.321500E+01	  0.084328659	2.170200E+01
323	  0.084529065	-6.926000E+00	  0.084529065	1.237300E+02	  0.084529065	2.339900E+01	  0.084529065	2.199500E+01
324	  0.084729463	-6.952000E+00	  0.084729463	1.230180E+02	  0.084729463	2.359900E+01	  0.084729463	2.226800E+01
325	  0.084929861	-6.974000E+00	  0.084929861	1.222750E+02	  0.084929861	2.379900E+01	  0.084929861	2.255700E+01
326	  0.085130267	-6.992000E+00	  0.085130267	1.215230E+02	  0.085130267	2.399400E+01	  0.085130267	2.285500E+01
327	  0.085330658	-7.015000E+00	  0.085330658	1.207940E+02	  0.085330658	2.420000E+01	  0.085330658	2.313700E+01
328	  0.085531056	-7.041000E+00	  0.085531056	1.200610E+02	  0.085531056	2.441800E+01	  0.085531056	2.341700E+01
329	  0.085731462	-7.066000E+00	  0.085731462	1.193590E+02	  0.085731462	2.463000E+01	  0.085731462	2.368400E+01
330	  0.085931860	-7.091000E+00	  0.085931860	1.186370E+02	  0.085931860	2.484900E+01	  0.085931860	2.396000E+01
331	  0.086132258	-7.121000E+00	  0.086132258	1.179230E+02	  0.086132258	2.508300E+01	  0.086132258	2.422500E+01
332	  0.086332664	-7.148000E+00	  0.086332664	1.172360E+02	  0.086332664	2.530700E+01	  0.086332664	2.448200E+01
333	  0.086533062	-7.174000E+00	  0.086533062	1.165230E+02	  0.086533062	2.553500E+01	  0.086533062	2.475000E+01
334	  0.086733460	-7.204000E+00	  0.086733460	1.157900E+02	  0.086733460	2.578600E+01	  0.086733460	2.502000E+01
335	  0.086933866	-7.230000E+00	  0.086933866	1.150590E+02	  0.086933866	2.602500E+01	  0.086933866	2.529600E+01
336	  0.087134264	-7.259000E+00	  0.087134264	1.143410E+02	  0.087134264	2.627300E+01	  0.087134264	2.556000E+01
337	  0.087334670	-7.281000E+00	  0.087334670	1.136330E+02	  0.087334670	2.650400E+01	  0.087334670	2.583000E+01
338	  0.087535068	-7.308000E+00	  0.087535068	1.128780E+02	  0.087535068	2.676300E+01	  0.087535068	2.611200E+01
339	  0.087735467	-7.340000E+00	  0.087735467	1.121530E+02	  0.087735467	2.703100E+01	  0.087735467	2.637300E+01
340	  0.087935872	-7.365000E+00	  0.087935872	1.114660E+02	  0.087935872	2.727500E+01	  0.087935872	2.662600E+01
341	  0.088136271	-7.398000E+00	  0.088136271	1.107590E+02	  0.088136271	2.755100E+01	  0.088136271	2.687400E+01
342	  0.088336669	-7.427000E+00	  0.088336669	1.100530E+02	  0.088336669	2.781800E+01	  0.088336669	2.712700E+01
343	  0.088537075	-7.446000E+00	  0.088537075	1.093560E+02	  0.088537075	2.805500E+01	  0.088537075	2.739400E+01
344	  0.088737473	-7.476000E+00	  0.088737473	1.086470E+02	  0.088737473	2.833300E+01	  0.088737473	2.764500E+01
345	  0.088937871	-7.502000E+00	  0.088937871	1.079800E+02	  0.088937871	2.859100E+01	  0.088937871	2.788400E+01
346	  0.089138277	-7.530000E+00	  0.089138277	1.073260E+02	  0.089138277	2.885500E+01	  0.089138277	2.811300E+01
347	  0.089338675	-7.559000E+00	  0.089338675	1.066470E+02	  0.089338675	2.912800E+01	  0.089338675	2.835100E+01
348	  0.089539073	-7.591000E+00	  0.089539073	1.060230E+02	  0.089539073	2.940200E+01	  0.089539073	2.855500E+01
349	  0.089739479	-7.621000E+00	  0.089739479	1.054010E+02	  0.089739479	2.967100E+01	  0.089739479	2.876200E+01
350	  0.089939877	-7.648000E+00	  0.089939877	1.047780E+02	  0.089939877	2.993200E+01	  0.089939877	2.897600E+01
351	  0.090140276	-7.672000E+00	  0.090140276	1.041320E+02	  0.090140276	3.019600E+01	  0.090140276	2.920300E+01
352	  0.090340681	-7.702000E+00	  0.090340681	1.035040E+02	  0.090340681	3.047600E+01	  0.090340681	2.940800E+01
353	  0.090541080	-7.728000E+00	  0.090541080	1.028670E+02	  0.090541080	3.075100E+01	  0.090541080	2.962400E+01
354	  0.090741485	-7.752000E+00	  0.090741485	1.022590E+02	  0.090741485	3.101300E+01	  0.090741485	2.983100E+01
355	  0.090941884	-7.782000E+00	  0.090941884	1.016630E+02	  0.090941884	3.129100E+01	  0.090941884	3.001900E+01
356	  0.091142282	-7.809000E+00	  0.091142282	1.010220E+02	  0.091142282	3.157700E+01	  0.091142282	3.023200E+01
357	  0.091342688	-7.835000E+00	  0.091342688	1.004380E+02	  0.091342688	3.184400E+01	  0.091342688	3.042100E+01
358	  0.091543086	-7.862000E+00	  0.091543086	9.984000E+01	  0.091543086	3.212500E+01	  0.091543086	3.061000E+01
359	  0.091743484	-7.887000E+00	  0.091743484	9.924800E+01	  0.091743484	3.239700E+01	  0.091743484	3.080300E+01
360	  0.091943890	-7.910000E+00	  0.091943890	9.868500E+01	  0.091943890	3.265800E+01	  0.091943890	3.098500E+01
361	  0.092144288	-7.938000E+00	  0.092144288	9.811500E+01	  0.092144288	3.293800E+01	  0.092144288	3.115700E+01
362	  0.092344686	-7.957000E+00	  0.092344686	9.754000E+01	  0.092344686	3.319900E+01	  0.092344686	3.135000E+01
363	  0.092545092	-7.983000E+00	  0.092545092	9.698600E+01	  0.092545092	3.347100E+01	  0.092545092	3.151800E+01
364	  0.092745490	-8.013000E+00	  0.092745490	9.646800E+01	  0.092745490	3.374500E+01	  0.092745490	3.165800E+01
365	  0.092945889	-8.041000E+00	  0.092945889	9.591600E+01	  0.092945889	3.403000E+01	  0.092945889	3.181500E+01
366	  0.093146294	-8.071000E+00	  0.093146294	9.538400E+01	  0.093146294	3.431200E+01	  0.093146294	3.195900E+01
367	  0.093346693	-8.103000E+00	  0.093346693	9.485800E+01	  0.093346693	3.460200E+01	  0.093346693	3.209100E+01
368	  0.093547091	-8.131000E+00	  0.093547091	9.434900E+01	  0.093547091	3.487300E+01	  0.093547091	3.222800E+01
369	  0.093747497	-8.159000E+00	  0.093747497	9.377600E+01	  0.093747497	3.517600E+01	  0.093747497	3.238600E+01
370	  0.093947895	-8.183000E+00	  0.093947895	9.321200E+01	  0.093947895	3.546600E+01	  0.093947895	3.254900E+01
371	  0.094148301	-8.221000E+00	  0.094148301	9.268800E+01	  0.094148301	3.577900E+01	  0.094148301	3.265600E+01
372	  0.094348699	-8.246000E+00	  0.094348699	9.212700E+01	  0.094348699	3.607400E+01	  0.094348699	3.281300E+01
373	  0.094549097	-8.278000E+00	  0.094549097	9.157300E+01	  0.094549097	3.638800E+01	  0.094549097	3.294500E+01
374	  0.094749503	-8.304000E+00	  0.094749503	9.106700E+01	  0.094749503	3.666900E+01	  0.094749503	3.307100E+01
375	  0.094949901	-8.331000E+00	  0.094949901	9.052700E+01	  0.094949901	3.696900E+01	  0.094949901	3.320600E+01
376	  0.095150299	-8.359000E+00	  0.095150299	8.998600E+01	  0.095150299	3.727400E+01	  0.095150299	3.333800E+01
377	  0.095350705	-8.384000E+00	  0.095350705	8.947500E+01	  0.095350705	3.756000E+01	  0.095350705	3.346400E+01
378	  0.095551103	-8.411000E+00	  0.095551103	8.891000E+01	  0.095551103	3.787700E+01	  0.095551103	3.360200E+01
379	  0.095751502	-8.432000E+00	  0.095751502	8.842800E+01	  0.095751502	3.814600E+01	  0.095751502	3.372400E+01
380	  0.095951907	-8.460000E+00	  0.095951907	8.789600E+01	  0.095951907	3.845700E+01	  0.095951907	3.384200E+01
381	  0.096152306	-8.486000E+00	  0.096152306	8.739800E+01	  0.096152306	3.874900E+01	  0.096152306	3.395200E+01
382	  0.096352704	-8.507000E+00	  0.096352704	8.686200E+01	  0.096352704	3.904700E+01	  0.096352704	3.408900E+01
383	  0.096553110	-8.534000E+00	  0.096553110	8.637200E+01	  0.096553110	3.934200E+01	  0.096553110	3.418900E+01
384	  0.096753508	-8.556000E+00	  0.096753508	8.587300E+01	  0.096753508	3.963300E+01	  0.096753508	3.430200E+01
385	  0.096953906	-8.577000E+00	  0.096953906	8.540400E+01	  0.096953906	3.990500E+01	  0.096953906	3.441000E+01
386	  0.097154312	-8.602000E+00	  0.097154312	8.488400E+01	  0.097154312	4.021700E+01	  0.097154312	3.451800E+01
387	  0.097354710	-8.624000E+00	  0.097354710	8.438200E+01	  0.097354710	4.051500E+01	  0.097354710	3.462700E+01
388	  0.097555116	-8.643000E+00	  0.097555116	8.387700E+01	  0.097555116	4.080700E+01	  0.097555116	3.474800E+01
389	  0.097755514	-8.660000E+00	  0.097755514	8.341300E+01	  0.097755514	4.107900E+01	  0.097755514	3.485500E+01
390	  0.097955912	-8.681000E+00	  0.097955912	8.294000E+01	  0.097955912	4.136500E+01	  0.097955912	3.495300E+01
391	  0.098156318	-8.704000E+00	  0.098156318	8.249800E+01	  0.098156318	4.164000E+01	  0.098156318	3.503300E+01
392	  0.098356716	-8.721000E+00	  0.098356716	8.199300E+01	  0.098356716	4.193900E+01	  0.098356716	3.514900E+01
393	  0.098557115	-8.735000E+00	  0.098557115	8.153200E+01	  0.098557115	4.220900E+01	  0.098557115	3.525900E+01
394	  0.098757520	-8.749000E+00	  0.098757520	8.110600E+01	  0.098757520	4.246300E+01	  0.098757520	3.535700E+01
395	  0.098957919	-8.763000E+00	  0.098957919	8.064600E+01	  0.098957919	4.273500E+01	  0.098957919	3.546500E+01
396	  0.099158317	-8.777000E+00	  0.099158317	8.018900E+01	  0.099158317	4.301100E+01	  0.099158317	3.556700E+01
397	  0.099358723	-8.794000E+00	  0.099358723	7.977100E+01	  0.099358723	4.327100E+01	  0.099358723	3.564800E+01
398	  0.099559121	-8.807000E+00	  0.099559121	7.930000E+01	  0.099559121	4.355600E+01	  0.099559121	3.575500E+01
399	  0.099759519	-8.825000E+00	  0.099759519	7.891600E+01	  0.099759519	4.380300E+01	  0.099759519	3.581700E+01
400	  0.099959925	-8.844000E+00	  0.099959925	7.851700E+01	  0.099959925	4.406300E+01	  0.099959925	3.587800E+01
401	  0.100160323	-8.857000E+00	  0.100160323	7.811400E+01	  0.100160323	4.431500E+01	  0.100160323	3.595700E+01
402	  0.100360721	-8.865000E+00	  0.100360721	7.766500E+01	  0.100360721	4.458100E+01	  0.100360721	3.607300E+01
403	  0.100561127	-8.891000E+00	  0.100561127	7.720800E+01	  0.100561127	4.489200E+01	  0.100561127	3.612000E+01
404	  0.100761525	-8.898000E+00	  0.100761525	7.675300E+01	  0.100761525	4.516700E+01	  0.100761525	3.623300E+01
405	  0.100961931	-8.913000E+00	  0.100961931	7.633700E+01	  0.100961931	4.543500E+01	  0.100961931	3.630600E+01
406	  0.101162329	-8.924000E+00	  0.101162329	7.582700E+01	  0.101162329	4.575200E+01	  0.101162329	3.642000E+01
407	  0.101362728	-8.942000E+00	  0.101362728	7.539100E+01	  0.101362728	4.604300E+01	  0.101362728	3.648000E+01
408	  0.101563133	-8.951000E+00	  0.101563133	7.497700E+01	  0.101563133	4.630300E+01	  0.101563133	3.657000E+01
409	  0.101763532	-8.961000E+00	  0.101763532	7.452900E+01	  0.101763532	4.659000E+01	  0.101763532	3.666000E+01
410	  0.101963930	-8.986000E+00	  0.101963930	7.406000E+01	  0.101963930	4.691900E+01	  0.101963930	3.669700E+01
411	  0.102164336	-9.000000E+00	  0.102164336	7.356800E+01	  0.102164336	4.724200E+01	  0.102164336	3.678200E+01
412	  0.102364734	-9.007000E+00	  0.102364734	7.307500E+01	  0.102364734	4.755400E+01	  0.102364734	3.689400E+01
413	  0.102565132	-9.023000E+00	  0.102565132	7.262500E+01	  0.102565132	4.786000E+01	  0.102565132	3.695400E+01
414	  0.102765530	-9.026000E+00	  0.102765530	7.214400E+01	  0.102765530	4.816500E+01	  0.102765530	3.707000E+01
415	  0.102965929	-9.047000E+00	  0.102965929	7.164100E+01	  0.102965929	4.851700E+01	  0.102965929	3.711900E+01
416	  0.103166327	-9.073000E+00	  0.103166327	7.119700E+01	  0.103166327	4.884200E+01	  0.103166327	3.713000E+01
417	  0.103366733	-9.089000E+00	  0.103366733	7.074500E+01	  0.103366733	4.915500E+01	  0.103366733	3.718000E+01
418	  0.103567131	-9.097000E+00	  0.103567131	7.027500E+01	  0.103567131	4.947000E+01	  0.103567131	3.726600E+01
419	  0.103767529	-9.121000E+00	  0.103767529	6.980600E+01	  0.103767529	4.981300E+01	  0.103767529	3.727900E+01
420	  0.103967935	-9.147000E+00	  0.103967935	6.942500E+01	  0.103967935	5.010300E+01	  0.103967935	3.725900E+01
421	  0.104168333	-9.162000E+00	  0.104168333	6.893600E+01	  0.104168333	5.044700E+01	  0.104168333	3.730900E+01
422	  0.104368731	-9.188000E+00	  0.104368731	6.858300E+01	  0.104368731	5.071800E+01	  0.104368731	3.728100E+01
423	  0.104569137	-9.206000E+00	  0.104569137	6.819300E+01	  0.104569137	5.100300E+01	  0.104569137	3.729200E+01
424	  0.104769535	-9.220000E+00	  0.104769535	6.792500E+01	  0.104769535	5.120200E+01	  0.104769535	3.729000E+01
425	  0.104969934	-9.234000E+00	  0.104969934	6.759500E+01	  0.104969934	5.144300E+01	  0.104969934	3.730000E+01
426	  0.105170339	-9.241000E+00	  0.105170339	6.732200E+01	  0.105170339	5.163700E+01	  0.105170339	3.732700E+01
427	  0.105370738	-9.241000E+00	  0.105370738	6.705400E+01	  0.105370738	5.181700E+01	  0.105370738	3.738500E+01
428	  0.105571143	-9.246000E+00	  0.105571143	6.678600E+01	  0.105571143	5.200500E+01	  0.105571143	3.742100E+01
429	  0.105771542	-9.228000E+00	  0.105771542	6.657300E+01	  0.105771542	5.212500E+01	  0.105771542	3.754600E+01
430	  0.105971940	-9.218000E+00	  0.105971940	6.627200E+01	  0.105971940	5.231800E+01	  0.105971940	3.765300E+01
431	  0.106172346	-9.200000E+00	  0.106172346	6.598500E+01	  0.106172346	5.249200E+01	  0.106172346	3.779400E+01
432	  0.106372744	-9.182000E+00	  0.106372744	6.569100E+01	  0.106372744	5.267300E+01	  0.106372744	3.793400E+01
433	  0.106573142	-9.145000E+00	  0.106573142	6.545200E+01	  0.106573142	5.279000E+01	  0.106573142	3.815400E+01
434	  0.106773548	-9.129000E+00	  0.106773548	6.508900E+01	  0.106773548	5.302400E+01	  0.106773548	3.830400E+01
435	  0.106973946	-9.100000E+00	  0.106973946	6.469100E+01	  0.106973946	5.327000E+01	  0.106973946	3.852000E+01
436	  0.107174344	-9.067000E+00	  0.107174344	6.425500E+01	  0.107174344	5.354100E+01	  0.107174344	3.876200E+01
437	  0.107374750	-9.038000E+00	  0.107374750	6.381900E+01	  0.107374750	5.382100E+01	  0.107374750	3.898600E+01
438	  0.107575148	-9.008000E+00	  0.107575148	6.342200E+01	  0.107575148	5.407400E+01	  0.107575148	3.921300E+01
439	  0.107775547	-8.974000E+00	  0.107775547	6.293400E+01	  0.107775547	5.439400E+01	  0.107775547	3.947200E+01
440	  0.107975952	-8.946000E+00	  0.107975952	6.243900E+01	  0.107975952	5.473300E+01	  0.107975952	3.970400E+01
441	  0.108176351	-8.913000E+00	  0.108176351	6.191800E+01	  0.108176351	5.509000E+01	  0.108176351	3.996800E+01
442	  0.108376749	-8.891000E+00	  0.108376749	6.145900E+01	  0.108376749	5.541800E+01	  0.108376749	4.016600E+01
443	  0.108577155	-8.866000E+00	  0.108577155	6.087000E+01	  0.108577155	5.585000E+01	  0.108577155	4.040000E+01
444	  0.108777553	-8.833000E+00	  0.108777553	6.020700E+01	  0.108777553	5.633700E+01	  0.108777553	4.068900E+01
445	  0.108977959	-8.817000E+00	  0.108977959	5.963300E+01	  0.108977959	5.678200E+01	  0.108977959	4.087000E+01
446	  0.109178357	-8.792000E+00	  0.109178357	5.901500E+01	  0.109178357	5.725900E+01	  0.109178357	4.110400E+01
447	  0.109378755	-8.766000E+00	  0.109378755	5.837400E+01	  0.109378755	5.776300E+01	  0.109378755	4.134700E+01
448	  0.109579161	-8.751000E+00	  0.109579161	5.771800E+01	  0.109579161	5.829900E+01	  0.109579161	4.152400E+01
449	  0.109779559	-8.728000E+00	  0.109779559	5.704800E+01	  0.109779559	5.884800E+01	  0.109779559	4.175100E+01
450	  0.109979957	-8.701000E+00	  0.109979957	5.640300E+01	  0.109979957	5.938300E+01	  0.109979957	4.198700E+01
451	  0.110180363	-8.682000E+00	  0.110180363	5.577000E+01	  0.110180363	5.992100E+01	  0.110180363	4.218000E+01
452	  0.110380761	-8.663000E+00	  0.110380761	5.501400E+01	  0.110380761	6.057900E+01	  0.110380761	4.237700E+01
453	  0.110581160	-8.647000E+00	  0.110581160	5.427400E+01	  0.110581160	6.123600E+01	  0.110581160	4.254700E+01
454	  0.110781565	-8.634000E+00	  0.110781565	5.354400E+01	  0.110781565	6.189700E+01	  0.110781565	4.269100E+01
455	  0.110981964	-8.615000E+00	  0.110981964	5.288300E+01	  0.110981964	6.250100E+01	  0.110981964	4.286000E+01
456	  0.111182362	-8.593000E+00	  0.111182362	5.205900E+01	  0.111182362	6.326700E+01	  0.111182362	4.305800E+01
457	  0.111382768	-8.585000E+00	  0.111382768	5.134600E+01	  0.111382768	6.394700E+01	  0.111382768	4.314300E+01
458	  0.111583166	-8.571000E+00	  0.111583166	5.054000E+01	  0.111583166	6.472500E+01	  0.111583166	4.326900E+01
459	  0.111783572	-8.560000E+00	  0.111783572	4.977800E+01	  0.111783572	6.547400E+01	  0.111783572	4.336000E+01
460	  0.111983970	-8.547000E+00	  0.111983970	4.900500E+01	  0.111983970	6.624500E+01	  0.111983970	4.345000E+01
461	  0.112184368	-8.537000E+00	  0.112184368	4.822900E+01	  0.112184368	6.703000E+01	  0.112184368	4.350900E+01
462	  0.112384774	-8.525000E+00	  0.112384774	4.734100E+01	  0.112384774	6.794300E+01	  0.112384774	4.356500E+01
463	  0.112585172	-8.520000E+00	  0.112585172	4.655900E+01	  0.112585172	6.875800E+01	  0.112585172	4.356100E+01
464	  0.112785570	-8.518000E+00	  0.112785570	4.576100E+01	  0.112785570	6.959800E+01	  0.112785570	4.352300E+01
465	  0.112985976	-8.512000E+00	  0.112985976	4.494600E+01	  0.112985976	7.046800E+01	  0.112985976	4.348800E+01
466	  0.113186374	-8.506000E+00	  0.113186374	4.411200E+01	  0.113186374	7.136900E+01	  0.113186374	4.343900E+01
467	  0.113386773	-8.508000E+00	  0.113386773	4.328800E+01	  0.113386773	7.226300E+01	  0.113386773	4.331400E+01
468	  0.113587178	-8.505000E+00	  0.113587178	4.242000E+01	  0.113587178	7.322000E+01	  0.113587178	4.319800E+01
469	  0.113787577	-8.515000E+00	  0.113787577	4.158200E+01	  0.113787577	7.413700E+01	  0.113787577	4.296500E+01
470	  0.113987975	-8.511000E+00	  0.113987975	4.069400E+01	  0.113987975	7.513400E+01	  0.113987975	4.280400E+01
471	  0.114188381	-8.522000E+00	  0.114188381	3.984700E+01	  0.114188381	7.607000E+01	  0.114188381	4.251900E+01
472	  0.114388779	-8.530000E+00	  0.114388779	3.897300E+01	  0.114388779	7.704600E+01	  0.114388779	4.222200E+01
473	  0.114589177	-8.534000E+00	  0.114589177	3.807200E+01	  0.114589177	7.806300E+01	  0.114589177	4.191400E+01
474	  0.114789583	-8.542000E+00	  0.114789583	3.717800E+01	  0.114789583	7.906900E+01	  0.114789583	4.155100E+01
475	  0.114989981	-8.547000E+00	  0.114989981	3.630800E+01	  0.114989981	8.005800E+01	  0.114989981	4.119700E+01
476	  0.115190387	-8.562000E+00	  0.115190387	3.531700E+01	  0.115190387	8.115900E+01	  0.115190387	4.068200E+01
477	  0.115390785	-8.576000E+00	  0.115390785	3.443000E+01	  0.115390785	8.213900E+01	  0.115390785	4.017700E+01
478	  0.115591183	-8.594000E+00	  0.115591183	3.349400E+01	  0.115591183	8.316100E+01	  0.115591183	3.959800E+01
479	  0.115791589	-8.601000E+00	  0.115791589	3.248500E+01	  0.115791589	8.429600E+01	  0.115791589	3.902200E+01
480	  0.115991987	-8.624000E+00	  0.115991987	3.155100E+01	  0.115991987	8.527900E+01	  0.115991987	3.832300E+01
481	  0.116192386	-8.643000E+00	  0.116192386	3.055300E+01	  0.116192386	8.634100E+01	  0.116192386	3.759000E+01
482	  0.116392791	-8.660000E+00	  0.116392791	2.952900E+01	  0.116392791	8.742100E+01	  0.116392791	3.680200E+01
483	  0.116593190	-8.682000E+00	  0.116593190	2.852100E+01	  0.116593190	8.845100E+01	  0.116593190	3.595700E+01
484	  0.116793588	-8.711000E+00	  0.116793588	2.752200E+01	  0.116793588	8.941400E+01	  0.116793588	3.502300E+01
485	  0.116993994	-8.736000E+00	  0.116993994	2.642300E+01	  0.116993994	9.047700E+01	  0.116993994	3.400000E+01
486	  0.117194392	-8.758000E+00	  0.117194392	2.535700E+01	  0.117194392	9.149200E+01	  0.117194392	3.297700E+01
487	  0.117394790	-8.794000E+00	  0.117394790	2.425800E+01	  0.117394790	9.242900E+01	  0.117394790	3.178700E+01
488	  0.117595196	-8.826000E+00	  0.117595196	2.318200E+01	  0.117595196	9.333200E+01	  0.117595196	3.061000E+01
489	  0.117795594	-8.861000E+00	  0.117795594	2.204600E+01	  0.117795594	9.422500E+01	  0.117795594	2.930800E+01
490	  0.117995992	-8.903000E+00	  0.117995992	2.096100E+01	  0.117995992	9.498400E+01	  0.117995992	2.798600E+01
491	  0.118196398	-8.940000E+00	  0.118196398	1.977300E+01	  0.118196398	9.581100E+01	  0.118196398	2.654700E+01
492	  0.118396796	-8.992000E+00	  0.118396796	1.863700E+01	  0.118396796	9.643100E+01	  0.118396796	2.504600E+01
493	  0.118597202	-9.033000E+00	  0.118597202	1.740100E+01	  0.118597202	9.714600E+01	  0.118597202	2.346800E+01
494	  0.118797600	-9.089000E+00	  0.118797600	1.616800E+01	  0.118797600	9.767600E+01	  0.118797600	2.178900E+01
495	  0.118997999	-9.141000E+00	  0.118997999	1.492700E+01	  0.118997999	9.817100E+01	  0.118997999	2.010500E+01
496	  0.119198404	-9.203000E+00	  0.119198404	1.372000E+01	  0.119198404	9.848000E+01	  0.119198404	1.840200E+01
497	  0.119398803	-9.257000E+00	  0.119398803	1.241400E+01	  0.119398803	9.883700E+01	  0.119398803	1.660700E+01
498	  0.119599201	-9.326000E+00	  0.119599201	1.117400E+01	  0.119599201	9.894900E+01	  0.119599201	1.483700E+01
499	  0.119799607	-9.393000E+00	  0.119799607	9.888000E+00	  0.119799607	9.902100E+01	  0.119799607	1.303000E+01
500	  0.120000005	-9.465000E+00	  0.120000005	8.522000E+00	  0.120000005	9.900100E+01	  0.120000005	1.112500E+01
