! Anritsu VNA Master:             	Model: MS2036C/10/77
! SN:             	1601066
! /bd0/18may07/256.ns.m5.txt
! Existing Calibration Information:
! TYPE:             	Current Settings	Active Cal Settings
! TIME:             	05/07/2018 03:07:52 PM	05/07/2018 02:58:54 PM
! INTERNAL TEMP:    	59.8 C	58.8 C
! # POINTS:         	500	500
! START FREQ:       	20.000 MHz	20.000 MHz
! STOP FREQ:        	120.000 MHz	120.000 MHz
! SOURCE POWER:     	High	High
! IFBW:             	50 Hz	50 Hz
! AVG FACTOR:       	  1 	  1 
! REF PLANE 1:      	0 mm	0 mm
! REF PLANE 2:      	0 mm	0 mm
! CAL TYPE:         	Full S11	Full S11
! CAL METHOD:       	SOLT	SOLT
! CAL LINE TYPE:    	Coax	Coax
! DUT PORT 1:       	K-Conn(F)	K-Conn(F)
! DUT PORT 2:       	K-Conn(F)	K-Conn(F)
! CAL STATUS:       	OK: Accuracy High	--
! PROP-V:       	0.700
! CABLE LOSS:       	0.000 dB/m
! REF IMPEDANCE:       	50.0
! Trace Specific Parameters:	TR1	TR2	TR3	TR4
! TRACE.#.Y (GRAPH TYPE)	LOG MAG	PHASE	REAL IMPEDANCE	IMAGINARY IMPEDANCE
! TRACE.#.X 	FREQ.GHZ	FREQ.GHZ	FREQ.GHZ	FREQ.GHZ
! S-PARAMETER	S11	S11	S11	S11
! SMOOTH/APERTURE %	0	0	0	0
! WINDOW	NSL	NSL	NSL	NSL
! GATING	OFF	OFF	OFF	OFF
! FGTD	OFF	OFF	OFF	OFF
Marker Information per Trace:	TR1	TR2	TR3	TR4
!MK1	--	"MK1 TR2:  20.000 MHz,PH:-125.91°"	--	--
!MK2	--	--	"MK2 TR3:  70.100 200 MHz,Z:(17.082 ohm, -2.913 ohm)"	--
!MK3	--	--	--	--
!MK4	--	--	--	--
!MK5	--	--	--	--
!MK6	--	--	--	--
!MK7	--	--	--	--
!MK8	--	--	--	--
PNT	TR1.FREQ.GHZ	TR1.LOG MAG.dB	TR2.FREQ.GHZ	TR2.PHASE.deg	TR3.FREQ.GHZ	TR3.REAL IMPEDANCE.ohm	TR4.FREQ.GHZ	TR4.IMAGINARY IMPEDANCE.ohm
1	  0.020000000	-6.330000E-01	  0.020000000	-1.259130E+02	  0.020000000	2.296000E+00	  0.020000000	-2.548100E+01
2	  0.020200402	-6.320000E-01	  0.020200402	-1.273880E+02	  0.020200402	2.264000E+00	  0.020200402	-2.467600E+01
3	  0.020400802	-6.330000E-01	  0.020400802	-1.288520E+02	  0.020400802	2.238000E+00	  0.020400802	-2.388800E+01
4	  0.020601204	-6.350000E-01	  0.020601204	-1.303230E+02	  0.020601204	2.220000E+00	  0.020601204	-2.310600E+01
5	  0.020801604	-6.410000E-01	  0.020801604	-1.318200E+02	  0.020801604	2.214000E+00	  0.020801604	-2.231800E+01
6	  0.021002004	-6.450000E-01	  0.021002004	-1.333500E+02	  0.021002004	2.203000E+00	  0.021002004	-2.152300E+01
7	  0.021202406	-6.530000E-01	  0.021202406	-1.348770E+02	  0.021202406	2.202000E+00	  0.021202406	-2.073800E+01
8	  0.021402806	-6.570000E-01	  0.021402806	-1.364170E+02	  0.021402806	2.193000E+00	  0.021402806	-1.995600E+01
9	  0.021603208	-6.620000E-01	  0.021603208	-1.379550E+02	  0.021603208	2.185000E+00	  0.021603208	-1.918300E+01
10	  0.021803608	-6.660000E-01	  0.021803608	-1.394960E+02	  0.021803608	2.178000E+00	  0.021803608	-1.841600E+01
11	  0.022004008	-6.720000E-01	  0.022004008	-1.410540E+02	  0.022004008	2.176000E+00	  0.022004008	-1.764900E+01
12	  0.022204408	-6.790000E-01	  0.022204408	-1.426210E+02	  0.022204408	2.179000E+00	  0.022204408	-1.688500E+01
13	  0.022404809	-6.870000E-01	  0.022404809	-1.441900E+02	  0.022404809	2.183000E+00	  0.022404809	-1.612600E+01
14	  0.022605211	-6.900000E-01	  0.022605211	-1.457800E+02	  0.022605211	2.172000E+00	  0.022605211	-1.536400E+01
15	  0.022805611	-6.930000E-01	  0.022805611	-1.473820E+02	  0.022805611	2.166000E+00	  0.022805611	-1.460300E+01
16	  0.023006011	-6.950000E-01	  0.023006011	-1.489750E+02	  0.023006011	2.153000E+00	  0.023006011	-1.385300E+01
17	  0.023206413	-6.950000E-01	  0.023206413	-1.505770E+02	  0.023206413	2.137000E+00	  0.023206413	-1.310500E+01
18	  0.023406813	-7.000000E-01	  0.023406813	-1.521760E+02	  0.023406813	2.138000E+00	  0.023406813	-1.236300E+01
19	  0.023607215	-7.070000E-01	  0.023607215	-1.537810E+02	  0.023607215	2.144000E+00	  0.023607215	-1.162300E+01
20	  0.023807615	-7.130000E-01	  0.023807615	-1.553810E+02	  0.023807615	2.150000E+00	  0.023807615	-1.089000E+01
21	  0.024008015	-7.210000E-01	  0.024008015	-1.570190E+02	  0.024008015	2.161000E+00	  0.024008015	-1.014500E+01
22	  0.024208417	-7.310000E-01	  0.024208417	-1.586550E+02	  0.024208417	2.179000E+00	  0.024208417	-9.405000E+00
23	  0.024408817	-7.420000E-01	  0.024408817	-1.603180E+02	  0.024408817	2.198000E+00	  0.024408817	-8.656000E+00
24	  0.024609219	-7.510000E-01	  0.024609219	-1.619710E+02	  0.024609219	2.216000E+00	  0.024609219	-7.916000E+00
25	  0.024809619	-7.610000E-01	  0.024809619	-1.636320E+02	  0.024809619	2.236000E+00	  0.024809619	-7.176000E+00
26	  0.025010020	-7.750000E-01	  0.025010020	-1.652920E+02	  0.025010020	2.268000E+00	  0.025010020	-6.439000E+00
27	  0.025210422	-7.860000E-01	  0.025210422	-1.669870E+02	  0.025210422	2.292000E+00	  0.025210422	-5.690000E+00
28	  0.025410822	-8.010000E-01	  0.025410822	-1.686720E+02	  0.025410822	2.328000E+00	  0.025410822	-4.948000E+00
29	  0.025611224	-8.170000E-01	  0.025611224	-1.703790E+02	  0.025611224	2.367000E+00	  0.025611224	-4.198000E+00
30	  0.025811624	-8.300000E-01	  0.025811624	-1.721070E+02	  0.025811624	2.399000E+00	  0.025811624	-3.441000E+00
31	  0.026012026	-8.420000E-01	  0.026012026	-1.738540E+02	  0.026012026	2.429000E+00	  0.026012026	-2.677000E+00
32	  0.026212426	-8.540000E-01	  0.026212426	-1.755870E+02	  0.026212426	2.460000E+00	  0.026212426	-1.921000E+00
33	  0.026412826	-8.660000E-01	  0.026412826	-1.773270E+02	  0.026412826	2.492000E+00	  0.026412826	-1.163000E+00
34	  0.026613226	-8.820000E-01	  0.026613226	-1.790860E+02	  0.026613226	2.538000E+00	  0.026613226	-3.970000E-01
35	  0.026813626	-8.980000E-01	  0.026813626	1.791400E+02	  0.026813626	2.583000E+00	  0.026813626	3.730000E-01
36	  0.027014028	-9.140000E-01	  0.027014028	1.773510E+02	  0.027014028	2.631000E+00	  0.027014028	1.152000E+00
37	  0.027214428	-9.320000E-01	  0.027214428	1.755580E+02	  0.027214428	2.686000E+00	  0.027214428	1.933000E+00
38	  0.027414829	-9.480000E-01	  0.027414829	1.737490E+02	  0.027414829	2.736000E+00	  0.027414829	2.721000E+00
39	  0.027615231	-9.650000E-01	  0.027615231	1.719430E+02	  0.027615231	2.790000E+00	  0.027615231	3.510000E+00
40	  0.027815631	-9.830000E-01	  0.027815631	1.701100E+02	  0.027815631	2.849000E+00	  0.027815631	4.312000E+00
41	  0.028016033	-1.004000E+00	  0.028016033	1.682790E+02	  0.028016033	2.919000E+00	  0.028016033	5.114000E+00
42	  0.028216433	-1.025000E+00	  0.028216433	1.664430E+02	  0.028216433	2.989000E+00	  0.028216433	5.921000E+00
43	  0.028416833	-1.045000E+00	  0.028416833	1.645900E+02	  0.028416833	3.060000E+00	  0.028416833	6.739000E+00
44	  0.028617235	-1.064000E+00	  0.028617235	1.627470E+02	  0.028617235	3.129000E+00	  0.028617235	7.556000E+00
45	  0.028817635	-1.083000E+00	  0.028817635	1.608910E+02	  0.028817635	3.201000E+00	  0.028817635	8.382000E+00
46	  0.029018037	-1.101000E+00	  0.029018037	1.590660E+02	  0.029018037	3.274000E+00	  0.029018037	9.198000E+00
47	  0.029218437	-1.120000E+00	  0.029218437	1.572260E+02	  0.029218437	3.351000E+00	  0.029218437	1.002600E+01
48	  0.029418837	-1.144000E+00	  0.029418837	1.554030E+02	  0.029418837	3.445000E+00	  0.029418837	1.085000E+01
49	  0.029619239	-1.167000E+00	  0.029619239	1.535490E+02	  0.029619239	3.540000E+00	  0.029619239	1.169400E+01
50	  0.029819639	-1.196000E+00	  0.029819639	1.516670E+02	  0.029819639	3.656000E+00	  0.029819639	1.255600E+01
51	  0.030020041	-1.227000E+00	  0.030020041	1.497720E+02	  0.030020041	3.783000E+00	  0.030020041	1.343100E+01
52	  0.030220442	-1.257000E+00	  0.030220442	1.478510E+02	  0.030220442	3.912000E+00	  0.030220442	1.432600E+01
53	  0.030420844	-1.287000E+00	  0.030420844	1.459180E+02	  0.030420844	4.045000E+00	  0.030420844	1.523300E+01
54	  0.030621244	-1.319000E+00	  0.030621244	1.440060E+02	  0.030621244	4.187000E+00	  0.030621244	1.613900E+01
55	  0.030821644	-1.351000E+00	  0.030821644	1.420950E+02	  0.030821644	4.336000E+00	  0.030821644	1.705400E+01
56	  0.031022044	-1.386000E+00	  0.031022044	1.401510E+02	  0.031022044	4.501000E+00	  0.031022044	1.799300E+01
57	  0.031222444	-1.419000E+00	  0.031222444	1.382270E+02	  0.031222444	4.665000E+00	  0.031222444	1.893400E+01
58	  0.031422846	-1.456000E+00	  0.031422846	1.362540E+02	  0.031422846	4.850000E+00	  0.031422846	1.990900E+01
59	  0.031623244	-1.495000E+00	  0.031623244	1.342470E+02	  0.031623244	5.052000E+00	  0.031623244	2.091300E+01
60	  0.031823646	-1.532000E+00	  0.031823646	1.322510E+02	  0.031823646	5.254000E+00	  0.031823646	2.192500E+01
61	  0.032024048	-1.570000E+00	  0.032024048	1.302310E+02	  0.032024048	5.468000E+00	  0.032024048	2.296300E+01
62	  0.032224450	-1.608000E+00	  0.032224450	1.282230E+02	  0.032224450	5.691000E+00	  0.032224450	2.401000E+01
63	  0.032424849	-1.645000E+00	  0.032424849	1.261990E+02	  0.032424849	5.923000E+00	  0.032424849	2.508300E+01
64	  0.032625251	-1.679000E+00	  0.032625251	1.241830E+02	  0.032625251	6.154000E+00	  0.032625251	2.616800E+01
65	  0.032825653	-1.716000E+00	  0.032825653	1.221800E+02	  0.032825653	6.407000E+00	  0.032825653	2.726400E+01
66	  0.033026051	-1.755000E+00	  0.033026051	1.201660E+02	  0.033026051	6.680000E+00	  0.033026051	2.838300E+01
67	  0.033226453	-1.797000E+00	  0.033226453	1.181830E+02	  0.033226453	6.977000E+00	  0.033226453	2.950300E+01
68	  0.033426855	-1.844000E+00	  0.033426855	1.162030E+02	  0.033426855	7.304000E+00	  0.033426855	3.063900E+01
69	  0.033627257	-1.892000E+00	  0.033627257	1.141740E+02	  0.033627257	7.658000E+00	  0.033627257	3.182400E+01
70	  0.033827655	-1.942000E+00	  0.033827655	1.121590E+02	  0.033827655	8.041000E+00	  0.033827655	3.302200E+01
71	  0.034028057	-1.995000E+00	  0.034028057	1.101130E+02	  0.034028057	8.455000E+00	  0.034028057	3.426000E+01
72	  0.034228459	-2.044000E+00	  0.034228459	1.080040E+02	  0.034228459	8.886000E+00	  0.034228459	3.556700E+01
73	  0.034428857	-2.096000E+00	  0.034428857	1.058960E+02	  0.034428857	9.349000E+00	  0.034428857	3.690100E+01
74	  0.034629259	-2.141000E+00	  0.034629259	1.037710E+02	  0.034629259	9.817000E+00	  0.034629259	3.828000E+01
75	  0.034829661	-2.189000E+00	  0.034829661	1.016450E+02	  0.034829661	1.032400E+01	  0.034829661	3.969100E+01
76	  0.035030060	-2.237000E+00	  0.035030060	9.953100E+01	  0.035030060	1.086300E+01	  0.035030060	4.112600E+01
77	  0.035230462	-2.281000E+00	  0.035230462	9.743000E+01	  0.035230462	1.141500E+01	  0.035230462	4.259300E+01
78	  0.035430863	-2.324000E+00	  0.035430863	9.531200E+01	  0.035430863	1.199600E+01	  0.035430863	4.411200E+01
79	  0.035631265	-2.367000E+00	  0.035631265	9.323600E+01	  0.035631265	1.261100E+01	  0.035631265	4.563800E+01
80	  0.035831664	-2.412000E+00	  0.035831664	9.114900E+01	  0.035831664	1.328300E+01	  0.035831664	4.720900E+01
81	  0.036032066	-2.456000E+00	  0.036032066	8.908700E+01	  0.036032066	1.398800E+01	  0.036032066	4.880600E+01
82	  0.036232468	-2.501000E+00	  0.036232468	8.703700E+01	  0.036232468	1.474700E+01	  0.036232468	5.043200E+01
83	  0.036432866	-2.550000E+00	  0.036432866	8.498300E+01	  0.036432866	1.557700E+01	  0.036432866	5.210200E+01
84	  0.036633268	-2.601000E+00	  0.036633268	8.292300E+01	  0.036633268	1.648900E+01	  0.036633268	5.381600E+01
85	  0.036833670	-2.657000E+00	  0.036833670	8.086300E+01	  0.036833670	1.749000E+01	  0.036833670	5.556700E+01
86	  0.037034072	-2.717000E+00	  0.037034072	7.880300E+01	  0.037034072	1.859100E+01	  0.037034072	5.735500E+01
87	  0.037234470	-2.779000E+00	  0.037234470	7.672200E+01	  0.037234470	1.979600E+01	  0.037234470	5.920400E+01
88	  0.037434869	-2.846000E+00	  0.037434869	7.462500E+01	  0.037434869	2.113700E+01	  0.037434869	6.110100E+01
89	  0.037635271	-2.918000E+00	  0.037635271	7.253000E+01	  0.037635271	2.262000E+01	  0.037635271	6.302000E+01
90	  0.037835669	-2.991000E+00	  0.037835669	7.050000E+01	  0.037835669	2.419000E+01	  0.037835669	6.491000E+01
91	  0.038036071	-3.049000E+00	  0.038036071	6.847000E+01	  0.038036071	2.576900E+01	  0.038036071	6.689500E+01
92	  0.038236473	-3.100000E+00	  0.038236473	6.637800E+01	  0.038236473	2.746800E+01	  0.038236473	6.902100E+01
93	  0.038436871	-3.148000E+00	  0.038436871	6.422600E+01	  0.038436871	2.932800E+01	  0.038436871	7.128700E+01
94	  0.038637273	-3.196000E+00	  0.038637273	6.205300E+01	  0.038637273	3.137300E+01	  0.038637273	7.363400E+01
95	  0.038837675	-3.242000E+00	  0.038837675	5.993400E+01	  0.038837675	3.354300E+01	  0.038837675	7.598100E+01
96	  0.039038073	-3.287000E+00	  0.039038073	5.783700E+01	  0.039038073	3.587500E+01	  0.039038073	7.836100E+01
97	  0.039238475	-3.329000E+00	  0.039238475	5.575900E+01	  0.039238475	3.837900E+01	  0.039238475	8.077700E+01
98	  0.039438877	-3.374000E+00	  0.039438877	5.369500E+01	  0.039438877	4.111800E+01	  0.039438877	8.319500E+01
99	  0.039639279	-3.425000E+00	  0.039639279	5.167700E+01	  0.039639279	4.410700E+01	  0.039639279	8.552100E+01
100	  0.039839678	-3.478000E+00	  0.039839678	4.964100E+01	  0.039839678	4.741300E+01	  0.039839678	8.785100E+01
101	  0.040040080	-3.535000E+00	  0.040040080	4.760700E+01	  0.040040080	5.105100E+01	  0.040040080	9.011000E+01
102	  0.040240481	-3.587000E+00	  0.040240481	4.554700E+01	  0.040240481	5.500800E+01	  0.040240481	9.241400E+01
103	  0.040440880	-3.646000E+00	  0.040440880	4.348500E+01	  0.040440880	5.939400E+01	  0.040440880	9.456300E+01
104	  0.040641282	-3.703000E+00	  0.040641282	4.142300E+01	  0.040641282	6.415500E+01	  0.040641282	9.660500E+01
105	  0.040841684	-3.760000E+00	  0.040841684	3.937500E+01	  0.040841684	6.930300E+01	  0.040841684	9.845500E+01
106	  0.041042086	-3.812000E+00	  0.041042086	3.734500E+01	  0.041042086	7.480200E+01	  0.041042086	1.001390E+02
107	  0.041242484	-3.864000E+00	  0.041242484	3.528900E+01	  0.041242484	8.083400E+01	  0.041242484	1.015730E+02
108	  0.041442886	-3.919000E+00	  0.041442886	3.326300E+01	  0.041442886	8.727000E+01	  0.041442886	1.025700E+02
109	  0.041643288	-3.972000E+00	  0.041643288	3.121400E+01	  0.041643288	9.424600E+01	  0.041643288	1.031520E+02
110	  0.041843686	-4.022000E+00	  0.041843686	2.918200E+01	  0.041843686	1.016210E+02	  0.041843686	1.032500E+02
111	  0.042044088	-4.074000E+00	  0.042044088	2.715200E+01	  0.042044088	1.094410E+02	  0.042044088	1.026750E+02
112	  0.042244490	-4.122000E+00	  0.042244490	2.515500E+01	  0.042244490	1.175160E+02	  0.042244490	1.013880E+02
113	  0.042444889	-4.171000E+00	  0.042444889	2.315800E+01	  0.042444889	1.259050E+02	  0.042444889	9.923000E+01
114	  0.042645290	-4.222000E+00	  0.042645290	2.116300E+01	  0.042645290	1.344720E+02	  0.042645290	9.602700E+01
115	  0.042845692	-4.274000E+00	  0.042845692	1.917800E+01	  0.042845692	1.430310E+02	  0.042845692	9.172200E+01
116	  0.043046094	-4.326000E+00	  0.043046094	1.720800E+01	  0.043046094	1.513850E+02	  0.043046094	8.630400E+01
117	  0.043246493	-4.374000E+00	  0.043246493	1.521700E+01	  0.043246493	1.595380E+02	  0.043246493	7.972200E+01
118	  0.043446895	-4.425000E+00	  0.043446895	1.322500E+01	  0.043446895	1.670960E+02	  0.043446895	7.188700E+01
119	  0.043647297	-4.473000E+00	  0.043647297	1.124800E+01	  0.043647297	1.737990E+02	  0.043647297	6.299800E+01
120	  0.043847695	-4.520000E+00	  0.043847695	9.242000E+00	  0.043847695	1.796300E+02	  0.043847695	5.301000E+01
121	  0.044048097	-4.569000E+00	  0.044048097	7.276000E+00	  0.044048097	1.839790E+02	  0.044048097	4.231200E+01
122	  0.044248499	-4.617000E+00	  0.044248499	5.291000E+00	  0.044248499	1.870080E+02	  0.044248499	3.096300E+01
123	  0.044448901	-4.665000E+00	  0.044448901	3.338000E+00	  0.044448901	1.884490E+02	  0.044448901	1.947800E+01
124	  0.044649299	-4.711000E+00	  0.044649299	1.367000E+00	  0.044649299	1.884880E+02	  0.044649299	7.896000E+00
125	  0.044849701	-4.754000E+00	  0.044849701	-5.680000E-01	  0.044849701	1.871610E+02	  0.044849701	-3.227000E+00
126	  0.045050103	-4.797000E+00	  0.045050103	-2.502000E+00	  0.045050103	1.844920E+02	  0.045050103	-1.386500E+01
127	  0.045250501	-4.836000E+00	  0.045250501	-4.456000E+00	  0.045250501	1.807780E+02	  0.045250501	-2.397000E+01
128	  0.045450903	-4.873000E+00	  0.045450903	-6.384000E+00	  0.045450903	1.761320E+02	  0.045450903	-3.314300E+01
129	  0.045651305	-4.912000E+00	  0.045651305	-8.306000E+00	  0.045651305	1.705930E+02	  0.045651305	-4.133500E+01
130	  0.045851704	-4.949000E+00	  0.045851704	-1.021400E+01	  0.045851704	1.645640E+02	  0.045851704	-4.853700E+01
131	  0.046052106	-4.988000E+00	  0.046052106	-1.208800E+01	  0.046052106	1.581910E+02	  0.046052106	-5.463100E+01
132	  0.046252504	-5.025000E+00	  0.046252504	-1.394900E+01	  0.046252504	1.516470E+02	  0.046252504	-5.979600E+01
133	  0.046452906	-5.063000E+00	  0.046452906	-1.579900E+01	  0.046452906	1.450150E+02	  0.046452906	-6.403300E+01
134	  0.046653304	-5.100000E+00	  0.046653304	-1.765800E+01	  0.046653304	1.384090E+02	  0.046653304	-6.755300E+01
135	  0.046853706	-5.134000E+00	  0.046853706	-1.950000E+01	  0.046853706	1.319730E+02	  0.046853706	-7.035400E+01
136	  0.047054108	-5.170000E+00	  0.047054108	-2.132800E+01	  0.047054108	1.257270E+02	  0.047054108	-7.246200E+01
137	  0.047254506	-5.202000E+00	  0.047254506	-2.314000E+01	  0.047254506	1.197740E+02	  0.047254506	-7.408300E+01
138	  0.047454908	-5.232000E+00	  0.047454908	-2.492600E+01	  0.047454908	1.141320E+02	  0.047454908	-7.521000E+01
139	  0.047655310	-5.262000E+00	  0.047655310	-2.671000E+01	  0.047655310	1.087430E+02	  0.047655310	-7.593500E+01
140	  0.047855709	-5.292000E+00	  0.047855709	-2.845300E+01	  0.047855709	1.037220E+02	  0.047855709	-7.629700E+01
141	  0.048056111	-5.321000E+00	  0.048056111	-3.017200E+01	  0.048056111	9.901200E+01	  0.048056111	-7.636000E+01
142	  0.048256513	-5.353000E+00	  0.048256513	-3.188900E+01	  0.048256513	9.455200E+01	  0.048256513	-7.612900E+01
143	  0.048456915	-5.386000E+00	  0.048456915	-3.359700E+01	  0.048456915	9.035700E+01	  0.048456915	-7.568300E+01
144	  0.048657313	-5.418000E+00	  0.048657313	-3.530300E+01	  0.048657313	8.640300E+01	  0.048657313	-7.507300E+01
145	  0.048857715	-5.445000E+00	  0.048857715	-3.702900E+01	  0.048857715	8.262600E+01	  0.048857715	-7.439700E+01
146	  0.049058117	-5.477000E+00	  0.049058117	-3.873200E+01	  0.049058117	7.912400E+01	  0.049058117	-7.352800E+01
147	  0.049258515	-5.506000E+00	  0.049258515	-4.044800E+01	  0.049258515	7.579500E+01	  0.049258515	-7.259900E+01
148	  0.049458917	-5.534000E+00	  0.049458917	-4.212500E+01	  0.049458917	7.273000E+01	  0.049458917	-7.162200E+01
149	  0.049659319	-5.562000E+00	  0.049659319	-4.382400E+01	  0.049659319	6.980700E+01	  0.049659319	-7.055400E+01
150	  0.049859721	-5.591000E+00	  0.049859721	-4.549800E+01	  0.049859721	6.709700E+01	  0.049859721	-6.944500E+01
151	  0.050060119	-5.621000E+00	  0.050060119	-4.718500E+01	  0.050060119	6.452800E+01	  0.050060119	-6.827700E+01
152	  0.050260521	-5.647000E+00	  0.050260521	-4.886600E+01	  0.050260521	6.210600E+01	  0.050260521	-6.711700E+01
153	  0.050460923	-5.668000E+00	  0.050460923	-5.056700E+01	  0.050460923	5.977600E+01	  0.050460923	-6.596700E+01
154	  0.050661322	-5.688000E+00	  0.050661322	-5.224100E+01	  0.050661322	5.761000E+01	  0.050661322	-6.481600E+01
155	  0.050861724	-5.705000E+00	  0.050861724	-5.390200E+01	  0.050861724	5.557100E+01	  0.050861724	-6.367600E+01
156	  0.051062126	-5.726000E+00	  0.051062126	-5.553700E+01	  0.051062126	5.368800E+01	  0.051062126	-6.251300E+01
157	  0.051262524	-5.743000E+00	  0.051262524	-5.716500E+01	  0.051262524	5.190000E+01	  0.051262524	-6.137500E+01
158	  0.051462926	-5.757000E+00	  0.051462926	-5.873600E+01	  0.051462926	5.025400E+01	  0.051462926	-6.029000E+01
159	  0.051663328	-5.771000E+00	  0.051663328	-6.032400E+01	  0.051663328	4.867500E+01	  0.051663328	-5.919000E+01
160	  0.051863730	-5.786000E+00	  0.051863730	-6.189000E+01	  0.051863730	4.720000E+01	  0.051863730	-5.810100E+01
161	  0.052064128	-5.803000E+00	  0.052064128	-6.342100E+01	  0.052064128	4.584200E+01	  0.052064128	-5.701700E+01
162	  0.052264530	-5.819000E+00	  0.052264530	-6.496400E+01	  0.052264530	4.453200E+01	  0.052264530	-5.594400E+01
163	  0.052464932	-5.833000E+00	  0.052464932	-6.647200E+01	  0.052464932	4.330800E+01	  0.052464932	-5.490800E+01
164	  0.052665330	-5.848000E+00	  0.052665330	-6.802700E+01	  0.052665330	4.211300E+01	  0.052665330	-5.383800E+01
165	  0.052865732	-5.865000E+00	  0.052865732	-6.953500E+01	  0.052865732	4.101600E+01	  0.052865732	-5.280200E+01
166	  0.053066134	-5.882000E+00	  0.053066134	-7.104600E+01	  0.053066134	3.996900E+01	  0.053066134	-5.177200E+01
167	  0.053266536	-5.894000E+00	  0.053266536	-7.256800E+01	  0.053266536	3.894700E+01	  0.053266536	-5.076300E+01
168	  0.053466935	-5.908000E+00	  0.053466935	-7.406200E+01	  0.053466935	3.799300E+01	  0.053466935	-4.977900E+01
169	  0.053667337	-5.919000E+00	  0.053667337	-7.553800E+01	  0.053667337	3.708400E+01	  0.053667337	-4.882500E+01
170	  0.053867739	-5.928000E+00	  0.053867739	-7.702400E+01	  0.053867739	3.620200E+01	  0.053867739	-4.788100E+01
171	  0.054068137	-5.932000E+00	  0.054068137	-7.850100E+01	  0.054068137	3.534200E+01	  0.054068137	-4.697200E+01
172	  0.054268539	-5.942000E+00	  0.054268539	-7.995300E+01	  0.054268539	3.455800E+01	  0.054268539	-4.606200E+01
173	  0.054468941	-5.951000E+00	  0.054468941	-8.136300E+01	  0.054468941	3.382500E+01	  0.054468941	-4.519000E+01
174	  0.054669339	-5.962000E+00	  0.054669339	-8.276400E+01	  0.054669339	3.313800E+01	  0.054669339	-4.432400E+01
175	  0.054869737	-5.970000E+00	  0.054869737	-8.415500E+01	  0.054869737	3.246800E+01	  0.054869737	-4.348400E+01
176	  0.055070139	-5.981000E+00	  0.055070139	-8.556200E+01	  0.055070139	3.183200E+01	  0.055070139	-4.263200E+01
177	  0.055270538	-5.993000E+00	  0.055270538	-8.692200E+01	  0.055270538	3.124400E+01	  0.055270538	-4.181600E+01
178	  0.055470940	-6.006000E+00	  0.055470940	-8.828600E+01	  0.055470940	3.068100E+01	  0.055470940	-4.100300E+01
179	  0.055671342	-6.016000E+00	  0.055671342	-8.966500E+01	  0.055671342	3.012600E+01	  0.055671342	-4.019700E+01
180	  0.055871744	-6.029000E+00	  0.055871744	-9.105100E+01	  0.055871744	2.959700E+01	  0.055871744	-3.939100E+01
181	  0.056072142	-6.041000E+00	  0.056072142	-9.241400E+01	  0.056072142	2.909800E+01	  0.056072142	-3.860600E+01
182	  0.056272544	-6.051000E+00	  0.056272544	-9.382300E+01	  0.056272544	2.859000E+01	  0.056272544	-3.781300E+01
183	  0.056472946	-6.062000E+00	  0.056472946	-9.519600E+01	  0.056472946	2.812300E+01	  0.056472946	-3.704300E+01
184	  0.056673344	-6.071000E+00	  0.056673344	-9.657300E+01	  0.056673344	2.766300E+01	  0.056673344	-3.628400E+01
185	  0.056873746	-6.079000E+00	  0.056873746	-9.794000E+01	  0.056873746	2.721800E+01	  0.056873746	-3.554300E+01
186	  0.057074148	-6.085000E+00	  0.057074148	-9.930300E+01	  0.057074148	2.678900E+01	  0.057074148	-3.481300E+01
187	  0.057274550	-6.086000E+00	  0.057274550	-1.006730E+02	  0.057274550	2.635300E+01	  0.057274550	-3.409900E+01
188	  0.057474948	-6.092000E+00	  0.057474948	-1.020330E+02	  0.057474948	2.595400E+01	  0.057474948	-3.338600E+01
189	  0.057675350	-6.092000E+00	  0.057675350	-1.033860E+02	  0.057675350	2.555500E+01	  0.057675350	-3.269300E+01
190	  0.057875752	-6.092000E+00	  0.057875752	-1.046930E+02	  0.057875752	2.518000E+01	  0.057875752	-3.203100E+01
191	  0.058076151	-6.095000E+00	  0.058076151	-1.059960E+02	  0.058076151	2.482700E+01	  0.058076151	-3.137200E+01
192	  0.058276553	-6.094000E+00	  0.058276553	-1.072860E+02	  0.058276553	2.448200E+01	  0.058276553	-3.072900E+01
193	  0.058476955	-6.097000E+00	  0.058476955	-1.085520E+02	  0.058476955	2.416400E+01	  0.058476955	-3.009800E+01
194	  0.058677353	-6.097000E+00	  0.058677353	-1.097950E+02	  0.058677353	2.385300E+01	  0.058677353	-2.948900E+01
195	  0.058877755	-6.098000E+00	  0.058877755	-1.110700E+02	  0.058877755	2.355000E+01	  0.058877755	-2.886600E+01
196	  0.059078157	-6.100000E+00	  0.059078157	-1.123350E+02	  0.059078157	2.325800E+01	  0.059078157	-2.825200E+01
197	  0.059278559	-6.104000E+00	  0.059278559	-1.135710E+02	  0.059278559	2.299300E+01	  0.059278559	-2.765400E+01
198	  0.059478957	-6.103000E+00	  0.059478957	-1.148160E+02	  0.059478957	2.271900E+01	  0.059478957	-2.706200E+01
199	  0.059679359	-6.110000E+00	  0.059679359	-1.160510E+02	  0.059679359	2.247800E+01	  0.059679359	-2.647000E+01
200	  0.059879761	-6.115000E+00	  0.059879761	-1.173150E+02	  0.059879761	2.223600E+01	  0.059879761	-2.587100E+01
201	  0.060080159	-6.118000E+00	  0.060080159	-1.185000E+02	  0.060080159	2.201300E+01	  0.060080159	-2.531500E+01
202	  0.060280561	-6.121000E+00	  0.060280561	-1.197310E+02	  0.060280561	2.178700E+01	  0.060280561	-2.474300E+01
203	  0.060480963	-6.126000E+00	  0.060480963	-1.209520E+02	  0.060480963	2.157400E+01	  0.060480963	-2.417700E+01
204	  0.060681365	-6.130000E+00	  0.060681365	-1.221540E+02	  0.060681365	2.137000E+01	  0.060681365	-2.362500E+01
205	  0.060881764	-6.132000E+00	  0.060881764	-1.233650E+02	  0.060881764	2.116700E+01	  0.060881764	-2.307400E+01
206	  0.061082166	-6.137000E+00	  0.061082166	-1.245730E+02	  0.061082166	2.097900E+01	  0.061082166	-2.252600E+01
207	  0.061282568	-6.141000E+00	  0.061282568	-1.257520E+02	  0.061282568	2.080000E+01	  0.061282568	-2.199400E+01
208	  0.061482966	-6.145000E+00	  0.061482966	-1.269380E+02	  0.061482966	2.062400E+01	  0.061482966	-2.146400E+01
209	  0.061683368	-6.145000E+00	  0.061683368	-1.281050E+02	  0.061683368	2.044700E+01	  0.061683368	-2.095000E+01
210	  0.061883770	-6.149000E+00	  0.061883770	-1.292890E+02	  0.061883770	2.028600E+01	  0.061883770	-2.042500E+01
211	  0.062084168	-6.158000E+00	  0.062084168	-1.304400E+02	  0.062084168	2.014700E+01	  0.062084168	-1.991600E+01
212	  0.062284570	-6.164000E+00	  0.062284570	-1.315760E+02	  0.062284570	2.000900E+01	  0.062284570	-1.941700E+01
213	  0.062484972	-6.160000E+00	  0.062484972	-1.326900E+02	  0.062484972	1.984900E+01	  0.062484972	-1.894100E+01
214	  0.062685370	-6.169000E+00	  0.062685370	-1.338270E+02	  0.062685370	1.972600E+01	  0.062685370	-1.844600E+01
215	  0.062885776	-6.174000E+00	  0.062885776	-1.349880E+02	  0.062885776	1.959500E+01	  0.062885776	-1.794600E+01
216	  0.063086174	-6.180000E+00	  0.063086174	-1.361280E+02	  0.063086174	1.947600E+01	  0.063086174	-1.745700E+01
217	  0.063286573	-6.190000E+00	  0.063286573	-1.372640E+02	  0.063286573	1.937100E+01	  0.063286573	-1.697000E+01
218	  0.063486971	-6.191000E+00	  0.063486971	-1.384070E+02	  0.063486971	1.924300E+01	  0.063486971	-1.648900E+01
219	  0.063687377	-6.193000E+00	  0.063687377	-1.395680E+02	  0.063687377	1.912400E+01	  0.063687377	-1.600200E+01
220	  0.063887775	-6.196000E+00	  0.063887775	-1.406900E+02	  0.063887775	1.901300E+01	  0.063887775	-1.553300E+01
221	  0.064088173	-6.197000E+00	  0.064088173	-1.418120E+02	  0.064088173	1.890200E+01	  0.064088173	-1.506700E+01
222	  0.064288579	-6.195000E+00	  0.064288579	-1.429000E+02	  0.064288579	1.879100E+01	  0.064288579	-1.461900E+01
223	  0.064488977	-6.195000E+00	  0.064488977	-1.440120E+02	  0.064488977	1.868700E+01	  0.064488977	-1.416200E+01
224	  0.064689375	-6.189000E+00	  0.064689375	-1.450570E+02	  0.064689375	1.857500E+01	  0.064689375	-1.373800E+01
225	  0.064889781	-6.188000E+00	  0.064889781	-1.461060E+02	  0.064889781	1.848200E+01	  0.064889781	-1.331000E+01
226	  0.065090179	-6.183000E+00	  0.065090179	-1.471700E+02	  0.065090179	1.837800E+01	  0.065090179	-1.288000E+01
227	  0.065290578	-6.176000E+00	  0.065290578	-1.481980E+02	  0.065290578	1.827600E+01	  0.065290578	-1.246600E+01
228	  0.065490983	-6.171000E+00	  0.065490983	-1.492240E+02	  0.065490983	1.818200E+01	  0.065490983	-1.205400E+01
229	  0.065691382	-6.163000E+00	  0.065691382	-1.502290E+02	  0.065691382	1.808700E+01	  0.065691382	-1.165200E+01
230	  0.065891780	-6.157000E+00	  0.065891780	-1.512500E+02	  0.065891780	1.799700E+01	  0.065891780	-1.124400E+01
231	  0.066092186	-6.155000E+00	  0.066092186	-1.522720E+02	  0.066092186	1.792100E+01	  0.066092186	-1.083500E+01
232	  0.066292584	-6.148000E+00	  0.066292584	-1.532670E+02	  0.066292584	1.783500E+01	  0.066292584	-1.044000E+01
233	  0.066492982	-6.146000E+00	  0.066492982	-1.542740E+02	  0.066492982	1.776600E+01	  0.066492982	-1.003900E+01
234	  0.066693388	-6.145000E+00	  0.066693388	-1.552830E+02	  0.066693388	1.770100E+01	  0.066693388	-9.637000E+00
235	  0.066893786	-6.140000E+00	  0.066893786	-1.562570E+02	  0.066893786	1.763200E+01	  0.066893786	-9.252000E+00
236	  0.067094192	-6.132000E+00	  0.067094192	-1.572570E+02	  0.067094192	1.755700E+01	  0.067094192	-8.858000E+00
237	  0.067294590	-6.141000E+00	  0.067294590	-1.582540E+02	  0.067294590	1.752600E+01	  0.067294590	-8.460000E+00
238	  0.067494988	-6.134000E+00	  0.067494988	-1.592970E+02	  0.067494988	1.745600E+01	  0.067494988	-8.051000E+00
239	  0.067695394	-6.135000E+00	  0.067695394	-1.602710E+02	  0.067695394	1.741200E+01	  0.067695394	-7.667000E+00
240	  0.067895792	-6.135000E+00	  0.067895792	-1.612660E+02	  0.067895792	1.736700E+01	  0.067895792	-7.275000E+00
241	  0.068096191	-6.135000E+00	  0.068096191	-1.622980E+02	  0.068096191	1.732200E+01	  0.068096191	-6.870000E+00
242	  0.068296596	-6.138000E+00	  0.068296596	-1.633150E+02	  0.068296596	1.729000E+01	  0.068296596	-6.471000E+00
243	  0.068496995	-6.143000E+00	  0.068496995	-1.643090E+02	  0.068496995	1.726500E+01	  0.068496995	-6.081000E+00
244	  0.068697393	-6.142000E+00	  0.068697393	-1.653160E+02	  0.068697393	1.722600E+01	  0.068697393	-5.688000E+00
245	  0.068897791	-6.148000E+00	  0.068897791	-1.663000E+02	  0.068897791	1.720900E+01	  0.068897791	-5.303000E+00
246	  0.069098189	-6.151000E+00	  0.069098189	-1.673520E+02	  0.069098189	1.718500E+01	  0.069098189	-4.893000E+00
247	  0.069298595	-6.150000E+00	  0.069298595	-1.683570E+02	  0.069298595	1.715400E+01	  0.069298595	-4.503000E+00
248	  0.069498993	-6.147000E+00	  0.069498993	-1.693730E+02	  0.069498993	1.712100E+01	  0.069498993	-4.108000E+00
249	  0.069699399	-6.155000E+00	  0.069699399	-1.703730E+02	  0.069699399	1.711800E+01	  0.069699399	-3.719000E+00
250	  0.069899797	-6.157000E+00	  0.069899797	-1.714590E+02	  0.069899797	1.709900E+01	  0.069899797	-3.299000E+00
251	  0.070100196	-6.157000E+00	  0.070100196	-1.724560E+02	  0.070100196	1.708100E+01	  0.070100196	-2.913000E+00
252	  0.070300601	-6.161000E+00	  0.070300601	-1.734710E+02	  0.070300601	1.707300E+01	  0.070300601	-2.520000E+00
253	  0.070501000	-6.160000E+00	  0.070501000	-1.744640E+02	  0.070501000	1.705900E+01	  0.070501000	-2.136000E+00
254	  0.070701398	-6.154000E+00	  0.070701398	-1.754800E+02	  0.070701398	1.703100E+01	  0.070701398	-1.744000E+00
255	  0.070901804	-6.153000E+00	  0.070901804	-1.765370E+02	  0.070901804	1.702000E+01	  0.070901804	-1.336000E+00
256	  0.071102202	-6.154000E+00	  0.071102202	-1.775450E+02	  0.071102202	1.701400E+01	  0.071102202	-9.470000E-01
257	  0.071302600	-6.152000E+00	  0.071302600	-1.785290E+02	  0.071302600	1.700400E+01	  0.071302600	-5.670000E-01
258	  0.071503006	-6.156000E+00	  0.071503006	-1.795610E+02	  0.071503006	1.701200E+01	  0.071503006	-1.690000E-01
259	  0.071703404	-6.151000E+00	  0.071703404	1.794510E+02	  0.071703404	1.700100E+01	  0.071703404	2.110000E-01
260	  0.071903802	-6.152000E+00	  0.071903802	1.784980E+02	  0.071903802	1.700600E+01	  0.071903802	5.790000E-01
261	  0.072104208	-6.152000E+00	  0.072104208	1.775130E+02	  0.072104208	1.700900E+01	  0.072104208	9.590000E-01
262	  0.072304606	-6.148000E+00	  0.072304606	1.765490E+02	  0.072304606	1.700600E+01	  0.072304606	1.332000E+00
263	  0.072505005	-6.148000E+00	  0.072505005	1.755780E+02	  0.072505005	1.701600E+01	  0.072505005	1.706000E+00
264	  0.072705410	-6.149000E+00	  0.072705410	1.746120E+02	  0.072705410	1.702900E+01	  0.072705410	2.080000E+00
265	  0.072905809	-6.149000E+00	  0.072905809	1.736560E+02	  0.072905809	1.704200E+01	  0.072905809	2.449000E+00
266	  0.073106214	-6.153000E+00	  0.073106214	1.727080E+02	  0.073106214	1.706600E+01	  0.073106214	2.816000E+00
267	  0.073306613	-6.151000E+00	  0.073306613	1.717840E+02	  0.073306613	1.707800E+01	  0.073306613	3.173000E+00
268	  0.073507011	-6.157000E+00	  0.073507011	1.708330E+02	  0.073507011	1.711100E+01	  0.073507011	3.541000E+00
269	  0.073707417	-6.160000E+00	  0.073707417	1.699200E+02	  0.073707417	1.713900E+01	  0.073707417	3.894000E+00
270	  0.073907815	-6.166000E+00	  0.073907815	1.689630E+02	  0.073907815	1.717900E+01	  0.073907815	4.264000E+00
271	  0.074108213	-6.167000E+00	  0.074108213	1.680580E+02	  0.074108213	1.720600E+01	  0.074108213	4.616000E+00
272	  0.074308619	-6.170000E+00	  0.074308619	1.671190E+02	  0.074308619	1.724100E+01	  0.074308619	4.980000E+00
273	  0.074509017	-6.183000E+00	  0.074509017	1.661740E+02	  0.074509017	1.730300E+01	  0.074509017	5.345000E+00
274	  0.074709415	-6.188000E+00	  0.074709415	1.652640E+02	  0.074709415	1.734700E+01	  0.074709415	5.698000E+00
275	  0.074909821	-6.196000E+00	  0.074909821	1.643220E+02	  0.074909821	1.740000E+01	  0.074909821	6.063000E+00
276	  0.075110219	-6.207000E+00	  0.075110219	1.633890E+02	  0.075110219	1.746500E+01	  0.075110219	6.424000E+00
277	  0.075310618	-6.221000E+00	  0.075310618	1.625000E+02	  0.075310618	1.753600E+01	  0.075310618	6.768000E+00
278	  0.075511023	-6.232000E+00	  0.075511023	1.615870E+02	  0.075511023	1.760200E+01	  0.075511023	7.122000E+00
279	  0.075711422	-6.241000E+00	  0.075711422	1.606700E+02	  0.075711422	1.766800E+01	  0.075711422	7.478000E+00
280	  0.075911827	-6.252000E+00	  0.075911827	1.597440E+02	  0.075911827	1.774100E+01	  0.075911827	7.837000E+00
281	  0.076112226	-6.263000E+00	  0.076112226	1.588270E+02	  0.076112226	1.781300E+01	  0.076112226	8.194000E+00
282	  0.076312624	-6.273000E+00	  0.076312624	1.579000E+02	  0.076312624	1.788800E+01	  0.076312624	8.554000E+00
283	  0.076513030	-6.287000E+00	  0.076513030	1.569680E+02	  0.076513030	1.797400E+01	  0.076513030	8.916000E+00
284	  0.076713428	-6.298000E+00	  0.076713428	1.560420E+02	  0.076713428	1.805800E+01	  0.076713428	9.276000E+00
285	  0.076913826	-6.314000E+00	  0.076913826	1.551270E+02	  0.076913826	1.815300E+01	  0.076913826	9.632000E+00
286	  0.077114232	-6.321000E+00	  0.077114232	1.541900E+02	  0.077114232	1.823100E+01	  0.077114232	9.999000E+00
287	  0.077314630	-6.329000E+00	  0.077314630	1.533050E+02	  0.077314630	1.830900E+01	  0.077314630	1.034600E+01
288	  0.077515028	-6.338000E+00	  0.077515028	1.523930E+02	  0.077515028	1.839500E+01	  0.077515028	1.070400E+01
289	  0.077715434	-6.349000E+00	  0.077715434	1.514930E+02	  0.077715434	1.848600E+01	  0.077715434	1.105700E+01
290	  0.077915832	-6.359000E+00	  0.077915832	1.506130E+02	  0.077915832	1.857500E+01	  0.077915832	1.140300E+01
291	  0.078116231	-6.372000E+00	  0.078116231	1.497160E+02	  0.078116231	1.867800E+01	  0.078116231	1.175400E+01
292	  0.078316636	-6.386000E+00	  0.078316636	1.488370E+02	  0.078316636	1.878300E+01	  0.078316636	1.209900E+01
293	  0.078517035	-6.399000E+00	  0.078517035	1.479630E+02	  0.078517035	1.888900E+01	  0.078517035	1.244200E+01
294	  0.078717433	-6.416000E+00	  0.078717433	1.470970E+02	  0.078717433	1.900500E+01	  0.078717433	1.278000E+01
295	  0.078917839	-6.427000E+00	  0.078917839	1.462050E+02	  0.078917839	1.911100E+01	  0.078917839	1.313300E+01
296	  0.079118237	-6.442000E+00	  0.079118237	1.453820E+02	  0.079118237	1.922400E+01	  0.079118237	1.345600E+01
297	  0.079318643	-6.454000E+00	  0.079318643	1.445460E+02	  0.079318643	1.933400E+01	  0.079318643	1.378600E+01
298	  0.079519041	-6.469000E+00	  0.079519041	1.437030E+02	  0.079519041	1.945300E+01	  0.079519041	1.411800E+01
299	  0.079719439	-6.490000E+00	  0.079719439	1.428510E+02	  0.079719439	1.959100E+01	  0.079719439	1.445000E+01
300	  0.079919845	-6.504000E+00	  0.079919845	1.419960E+02	  0.079919845	1.971400E+01	  0.079919845	1.478800E+01
301	  0.080120243	-6.522000E+00	  0.080120243	1.411540E+02	  0.080120243	1.984900E+01	  0.080120243	1.511900E+01
302	  0.080320641	-6.536000E+00	  0.080320641	1.403200E+02	  0.080320641	1.997800E+01	  0.080320641	1.544800E+01
303	  0.080521047	-6.558000E+00	  0.080521047	1.394920E+02	  0.080521047	2.012500E+01	  0.080521047	1.577200E+01
304	  0.080721445	-6.570000E+00	  0.080721445	1.387080E+02	  0.080721445	2.024700E+01	  0.080721445	1.608400E+01
305	  0.080921844	-6.590000E+00	  0.080921844	1.378830E+02	  0.080921844	2.039600E+01	  0.080921844	1.640700E+01
306	  0.081122249	-6.614000E+00	  0.081122249	1.370950E+02	  0.081122249	2.055300E+01	  0.081122249	1.671200E+01
307	  0.081322648	-6.628000E+00	  0.081322648	1.362830E+02	  0.081322648	2.069100E+01	  0.081322648	1.703500E+01
308	  0.081523046	-6.646000E+00	  0.081523046	1.354640E+02	  0.081523046	2.084300E+01	  0.081523046	1.735800E+01
309	  0.081723452	-6.669000E+00	  0.081723452	1.346670E+02	  0.081723452	2.100700E+01	  0.081723452	1.766900E+01
310	  0.081923850	-6.686000E+00	  0.081923850	1.338810E+02	  0.081923850	2.115600E+01	  0.081923850	1.797900E+01
311	  0.082124248	-6.706000E+00	  0.082124248	1.330900E+02	  0.082124248	2.131600E+01	  0.082124248	1.829000E+01
312	  0.082324654	-6.727000E+00	  0.082324654	1.323140E+02	  0.082324654	2.148100E+01	  0.082324654	1.859400E+01
313	  0.082525052	-6.752000E+00	  0.082525052	1.315340E+02	  0.082525052	2.166000E+01	  0.082525052	1.889500E+01
314	  0.082725458	-6.773000E+00	  0.082725458	1.307990E+02	  0.082725458	2.182500E+01	  0.082725458	1.918100E+01
315	  0.082925856	-6.797000E+00	  0.082925856	1.300290E+02	  0.082925856	2.200600E+01	  0.082925856	1.947900E+01
316	  0.083126254	-6.822000E+00	  0.083126254	1.292530E+02	  0.083126254	2.219100E+01	  0.083126254	1.977900E+01
317	  0.083326660	-6.843000E+00	  0.083326660	1.284610E+02	  0.083326660	2.237200E+01	  0.083326660	2.009000E+01
318	  0.083527058	-6.864000E+00	  0.083527058	1.276850E+02	  0.083527058	2.255400E+01	  0.083527058	2.039300E+01
319	  0.083727457	-6.887000E+00	  0.083727457	1.268950E+02	  0.083727457	2.274500E+01	  0.083727457	2.070100E+01
320	  0.083927862	-6.908000E+00	  0.083927862	1.261540E+02	  0.083927862	2.292600E+01	  0.083927862	2.099000E+01
321	  0.084128261	-6.931000E+00	  0.084128261	1.253730E+02	  0.084128261	2.312500E+01	  0.084128261	2.129300E+01
322	  0.084328659	-6.950000E+00	  0.084328659	1.246030E+02	  0.084328659	2.331100E+01	  0.084328659	2.159700E+01
323	  0.084529065	-6.970000E+00	  0.084529065	1.238920E+02	  0.084529065	2.349400E+01	  0.084529065	2.187500E+01
324	  0.084729463	-6.993000E+00	  0.084729463	1.231420E+02	  0.084729463	2.369400E+01	  0.084729463	2.216500E+01
325	  0.084929861	-7.014000E+00	  0.084929861	1.224240E+02	  0.084929861	2.388300E+01	  0.084929861	2.244500E+01
326	  0.085130267	-7.035000E+00	  0.085130267	1.216830E+02	  0.085130267	2.408400E+01	  0.085130267	2.273300E+01
327	  0.085330658	-7.055000E+00	  0.085330658	1.209540E+02	  0.085330658	2.428000E+01	  0.085330658	2.301800E+01
328	  0.085531056	-7.075000E+00	  0.085531056	1.202300E+02	  0.085531056	2.447900E+01	  0.085531056	2.330100E+01
329	  0.085731462	-7.103000E+00	  0.085731462	1.195350E+02	  0.085731462	2.469700E+01	  0.085731462	2.356000E+01
330	  0.085931860	-7.127000E+00	  0.085931860	1.188410E+02	  0.085931860	2.490700E+01	  0.085931860	2.382400E+01
331	  0.086132258	-7.147000E+00	  0.086132258	1.181200E+02	  0.086132258	2.511500E+01	  0.086132258	2.410400E+01
332	  0.086332664	-7.175000E+00	  0.086332664	1.174200E+02	  0.086332664	2.534300E+01	  0.086332664	2.436400E+01
333	  0.086533062	-7.200000E+00	  0.086533062	1.167240E+02	  0.086533062	2.556600E+01	  0.086533062	2.462600E+01
334	  0.086733460	-7.226000E+00	  0.086733460	1.160150E+02	  0.086733460	2.579800E+01	  0.086733460	2.489100E+01
335	  0.086933866	-7.252000E+00	  0.086933866	1.153280E+02	  0.086933866	2.602500E+01	  0.086933866	2.514800E+01
336	  0.087134264	-7.280000E+00	  0.087134264	1.145900E+02	  0.087134264	2.627600E+01	  0.087134264	2.542000E+01
337	  0.087334670	-7.303000E+00	  0.087334670	1.139010E+02	  0.087334670	2.650300E+01	  0.087334670	2.568000E+01
338	  0.087535068	-7.334000E+00	  0.087535068	1.131690E+02	  0.087535068	2.676600E+01	  0.087535068	2.594500E+01
339	  0.087735467	-7.358000E+00	  0.087735467	1.124700E+02	  0.087735467	2.700400E+01	  0.087735467	2.620600E+01
340	  0.087935872	-7.386000E+00	  0.087935872	1.117880E+02	  0.087935872	2.725500E+01	  0.087935872	2.645200E+01
341	  0.088136271	-7.412000E+00	  0.088136271	1.111250E+02	  0.088136271	2.749500E+01	  0.088136271	2.669400E+01
342	  0.088336669	-7.444000E+00	  0.088336669	1.104380E+02	  0.088336669	2.776500E+01	  0.088336669	2.693300E+01
343	  0.088537075	-7.467000E+00	  0.088537075	1.097550E+02	  0.088537075	2.800900E+01	  0.088537075	2.718600E+01
344	  0.088737473	-7.498000E+00	  0.088737473	1.090880E+02	  0.088737473	2.827400E+01	  0.088737473	2.741700E+01
345	  0.088937871	-7.527000E+00	  0.088937871	1.084170E+02	  0.088937871	2.853900E+01	  0.088937871	2.765200E+01
346	  0.089138277	-7.554000E+00	  0.089138277	1.077670E+02	  0.089138277	2.879700E+01	  0.089138277	2.788000E+01
347	  0.089338675	-7.579000E+00	  0.089338675	1.071570E+02	  0.089338675	2.904100E+01	  0.089338675	2.809300E+01
348	  0.089539073	-7.617000E+00	  0.089539073	1.065550E+02	  0.089539073	2.931900E+01	  0.089539073	2.827900E+01
349	  0.089739479	-7.643000E+00	  0.089739479	1.059080E+02	  0.089739479	2.958100E+01	  0.089739479	2.850400E+01
350	  0.089939877	-7.682000E+00	  0.089939877	1.053280E+02	  0.089939877	2.986200E+01	  0.089939877	2.867400E+01
351	  0.090140276	-7.703000E+00	  0.090140276	1.046690E+02	  0.090140276	3.012000E+01	  0.090140276	2.891100E+01
352	  0.090340681	-7.738000E+00	  0.090340681	1.040610E+02	  0.090340681	3.040300E+01	  0.090340681	2.909900E+01
353	  0.090541080	-7.766000E+00	  0.090541080	1.034120E+02	  0.090541080	3.068300E+01	  0.090541080	2.931500E+01
354	  0.090741485	-7.799000E+00	  0.090741485	1.027940E+02	  0.090741485	3.097000E+01	  0.090741485	2.950700E+01
355	  0.090941884	-7.824000E+00	  0.090941884	1.021820E+02	  0.090941884	3.123600E+01	  0.090941884	2.971100E+01
356	  0.091142282	-7.849000E+00	  0.091142282	1.015820E+02	  0.091142282	3.150400E+01	  0.091142282	2.990800E+01
357	  0.091342688	-7.885000E+00	  0.091342688	1.010060E+02	  0.091342688	3.179300E+01	  0.091342688	3.007100E+01
358	  0.091543086	-7.912000E+00	  0.091543086	1.003730E+02	  0.091543086	3.207900E+01	  0.091543086	3.027600E+01
359	  0.091743484	-7.945000E+00	  0.091743484	9.980100E+01	  0.091743484	3.236700E+01	  0.091743484	3.043800E+01
360	  0.091943890	-7.969000E+00	  0.091943890	9.922300E+01	  0.091943890	3.263000E+01	  0.091943890	3.062500E+01
361	  0.092144288	-7.991000E+00	  0.092144288	9.866400E+01	  0.092144288	3.288900E+01	  0.092144288	3.080300E+01
362	  0.092344686	-8.017000E+00	  0.092344686	9.806100E+01	  0.092344686	3.317200E+01	  0.092344686	3.099300E+01
363	  0.092545092	-8.050000E+00	  0.092545092	9.749000E+01	  0.092545092	3.346800E+01	  0.092545092	3.114900E+01
364	  0.092745490	-8.075000E+00	  0.092745490	9.696500E+01	  0.092745490	3.373000E+01	  0.092745490	3.130100E+01
365	  0.092945889	-8.104000E+00	  0.092945889	9.642800E+01	  0.092945889	3.400600E+01	  0.092945889	3.145100E+01
366	  0.093146294	-8.140000E+00	  0.093146294	9.586700E+01	  0.093146294	3.431300E+01	  0.093146294	3.158900E+01
367	  0.093346693	-8.167000E+00	  0.093346693	9.535100E+01	  0.093346693	3.458300E+01	  0.093346693	3.172800E+01
368	  0.093547091	-8.195000E+00	  0.093547091	9.480400E+01	  0.093547091	3.486800E+01	  0.093547091	3.187800E+01
369	  0.093747497	-8.224000E+00	  0.093747497	9.425600E+01	  0.093747497	3.515800E+01	  0.093747497	3.202400E+01
370	  0.093947895	-8.254000E+00	  0.093947895	9.370000E+01	  0.093947895	3.545700E+01	  0.093947895	3.216600E+01
371	  0.094148301	-8.280000E+00	  0.094148301	9.315000E+01	  0.094148301	3.574500E+01	  0.094148301	3.231700E+01
372	  0.094348699	-8.309000E+00	  0.094348699	9.261200E+01	  0.094348699	3.604000E+01	  0.094348699	3.245000E+01
373	  0.094549097	-8.336000E+00	  0.094549097	9.208300E+01	  0.094549097	3.632500E+01	  0.094549097	3.258600E+01
374	  0.094749503	-8.367000E+00	  0.094749503	9.158200E+01	  0.094749503	3.661400E+01	  0.094749503	3.269600E+01
375	  0.094949901	-8.385000E+00	  0.094949901	9.108800E+01	  0.094949901	3.686900E+01	  0.094949901	3.283600E+01
376	  0.095150299	-8.415000E+00	  0.095150299	9.059700E+01	  0.095150299	3.715200E+01	  0.095150299	3.294300E+01
377	  0.095350705	-8.437000E+00	  0.095350705	9.007200E+01	  0.095350705	3.743400E+01	  0.095350705	3.308200E+01
378	  0.095551103	-8.461000E+00	  0.095551103	8.957100E+01	  0.095551103	3.771200E+01	  0.095551103	3.320500E+01
379	  0.095751502	-8.486000E+00	  0.095751502	8.910200E+01	  0.095751502	3.798000E+01	  0.095751502	3.331100E+01
380	  0.095951907	-8.503000E+00	  0.095951907	8.859300E+01	  0.095951907	3.825000E+01	  0.095951907	3.345200E+01
381	  0.096152306	-8.532000E+00	  0.096152306	8.814100E+01	  0.096152306	3.852300E+01	  0.096152306	3.353600E+01
382	  0.096352704	-8.549000E+00	  0.096352704	8.770800E+01	  0.096352704	3.876100E+01	  0.096352704	3.364800E+01
383	  0.096553110	-8.580000E+00	  0.096553110	8.725100E+01	  0.096553110	3.904600E+01	  0.096553110	3.372300E+01
384	  0.096753508	-8.603000E+00	  0.096753508	8.680400E+01	  0.096753508	3.930900E+01	  0.096753508	3.381600E+01
385	  0.096953906	-8.624000E+00	  0.096953906	8.633700E+01	  0.096953906	3.957700E+01	  0.096953906	3.392300E+01
386	  0.097154312	-8.643000E+00	  0.097154312	8.587800E+01	  0.097154312	3.983900E+01	  0.097154312	3.402900E+01
387	  0.097354710	-8.668000E+00	  0.097354710	8.542500E+01	  0.097354710	4.011300E+01	  0.097354710	3.411400E+01
388	  0.097555116	-8.695000E+00	  0.097555116	8.499100E+01	  0.097555116	4.038500E+01	  0.097555116	3.418400E+01
389	  0.097755514	-8.715000E+00	  0.097755514	8.454300E+01	  0.097755514	4.065000E+01	  0.097755514	3.427700E+01
390	  0.097955912	-8.734000E+00	  0.097955912	8.407600E+01	  0.097955912	4.092200E+01	  0.097955912	3.438100E+01
391	  0.098156318	-8.759000E+00	  0.098156318	8.369400E+01	  0.098156318	4.116700E+01	  0.098156318	3.443300E+01
392	  0.098356716	-8.781000E+00	  0.098356716	8.320700E+01	  0.098356716	4.145900E+01	  0.098356716	3.453000E+01
393	  0.098557115	-8.797000E+00	  0.098557115	8.281600E+01	  0.098557115	4.169100E+01	  0.098557115	3.461200E+01
394	  0.098757520	-8.807000E+00	  0.098757520	8.240500E+01	  0.098757520	4.192300E+01	  0.098757520	3.471800E+01
395	  0.098957919	-8.828000E+00	  0.098957919	8.193900E+01	  0.098957919	4.220800E+01	  0.098957919	3.480400E+01
396	  0.099158317	-8.844000E+00	  0.099158317	8.153800E+01	  0.099158317	4.245000E+01	  0.099158317	3.488500E+01
397	  0.099358723	-8.863000E+00	  0.099358723	8.116400E+01	  0.099358723	4.268500E+01	  0.099358723	3.494400E+01
398	  0.099559121	-8.881000E+00	  0.099559121	8.073600E+01	  0.099559121	4.294800E+01	  0.099559121	3.502300E+01
399	  0.099759519	-8.891000E+00	  0.099759519	8.031700E+01	  0.099759519	4.319100E+01	  0.099759519	3.512500E+01
400	  0.099959925	-8.896000E+00	  0.099959925	7.987300E+01	  0.099959925	4.343800E+01	  0.099959925	3.525200E+01
401	  0.100160323	-8.916000E+00	  0.100160323	7.951100E+01	  0.100160323	4.367400E+01	  0.100160323	3.529900E+01
402	  0.100360721	-8.933000E+00	  0.100360721	7.904000E+01	  0.100360721	4.396300E+01	  0.100360721	3.539000E+01
403	  0.100561127	-8.944000E+00	  0.100561127	7.863800E+01	  0.100561127	4.420600E+01	  0.100561127	3.547800E+01
404	  0.100761525	-8.959000E+00	  0.100761525	7.822900E+01	  0.100761525	4.446200E+01	  0.100761525	3.555000E+01
405	  0.100961931	-8.959000E+00	  0.100961931	7.784700E+01	  0.100961931	4.467500E+01	  0.100961931	3.566700E+01
406	  0.101162329	-8.976000E+00	  0.101162329	7.745000E+01	  0.101162329	4.493100E+01	  0.101162329	3.572700E+01
407	  0.101362728	-8.970000E+00	  0.101362728	7.701000E+01	  0.101362728	4.516700E+01	  0.101362728	3.588400E+01
408	  0.101563133	-8.992000E+00	  0.101563133	7.661300E+01	  0.101563133	4.543500E+01	  0.101563133	3.592400E+01
409	  0.101763532	-8.992000E+00	  0.101763532	7.617700E+01	  0.101763532	4.568400E+01	  0.101763532	3.605500E+01
410	  0.101963930	-8.999000E+00	  0.101963930	7.576400E+01	  0.101963930	4.593700E+01	  0.101963930	3.614900E+01
411	  0.102164336	-8.994000E+00	  0.102164336	7.536900E+01	  0.102164336	4.615700E+01	  0.102164336	3.628800E+01
412	  0.102364734	-9.006000E+00	  0.102364734	7.492100E+01	  0.102364734	4.644300E+01	  0.102364734	3.637100E+01
413	  0.102565132	-8.998000E+00	  0.102565132	7.447800E+01	  0.102565132	4.669000E+01	  0.102565132	3.653100E+01
414	  0.102765530	-8.997000E+00	  0.102765530	7.408200E+01	  0.102765530	4.692500E+01	  0.102765530	3.664900E+01
415	  0.102965929	-8.986000E+00	  0.102965929	7.369900E+01	  0.102965929	4.713600E+01	  0.102965929	3.680100E+01
416	  0.103166327	-8.992000E+00	  0.103166327	7.334600E+01	  0.103166327	4.736200E+01	  0.103166327	3.687600E+01
417	  0.103366733	-8.991000E+00	  0.103366733	7.292400E+01	  0.103366733	4.761800E+01	  0.103366733	3.700000E+01
418	  0.103567131	-8.991000E+00	  0.103567131	7.252700E+01	  0.103567131	4.786300E+01	  0.103567131	3.711100E+01
419	  0.103767529	-8.989000E+00	  0.103767529	7.212300E+01	  0.103767529	4.811000E+01	  0.103767529	3.723200E+01
420	  0.103967935	-8.984000E+00	  0.103967935	7.174000E+01	  0.103967935	4.834300E+01	  0.103967935	3.735400E+01
421	  0.104168333	-8.989000E+00	  0.104168333	7.132300E+01	  0.104168333	4.861600E+01	  0.104168333	3.744600E+01
422	  0.104368731	-8.978000E+00	  0.104368731	7.099600E+01	  0.104368731	4.880500E+01	  0.104368731	3.758100E+01
423	  0.104569137	-8.981000E+00	  0.104569137	7.060600E+01	  0.104569137	4.906000E+01	  0.104569137	3.767300E+01
424	  0.104769535	-8.964000E+00	  0.104769535	7.020800E+01	  0.104769535	4.928900E+01	  0.104769535	3.784800E+01
425	  0.104969934	-8.972000E+00	  0.104969934	6.981000E+01	  0.104969934	4.956300E+01	  0.104969934	3.791800E+01
426	  0.105170339	-8.966000E+00	  0.105170339	6.947600E+01	  0.105170339	4.977200E+01	  0.105170339	3.803100E+01
427	  0.105370738	-8.944000E+00	  0.105370738	6.912200E+01	  0.105370738	4.997100E+01	  0.105370738	3.821600E+01
428	  0.105571143	-8.941000E+00	  0.105571143	6.870900E+01	  0.105571143	5.024200E+01	  0.105571143	3.833500E+01
429	  0.105771542	-8.928000E+00	  0.105771542	6.827300E+01	  0.105771542	5.051400E+01	  0.105771542	3.850400E+01
430	  0.105971940	-8.922000E+00	  0.105971940	6.787900E+01	  0.105971940	5.077400E+01	  0.105971940	3.862700E+01
431	  0.106172346	-8.906000E+00	  0.106172346	6.752500E+01	  0.106172346	5.099100E+01	  0.106172346	3.878600E+01
432	  0.106372744	-8.888000E+00	  0.106372744	6.701900E+01	  0.106372744	5.131400E+01	  0.106372744	3.899200E+01
433	  0.106573142	-8.862000E+00	  0.106573142	6.664100E+01	  0.106573142	5.153700E+01	  0.106573142	3.920700E+01
434	  0.106773548	-8.847000E+00	  0.106773548	6.607400E+01	  0.106773548	5.191700E+01	  0.106773548	3.941000E+01
435	  0.106973946	-8.827000E+00	  0.106973946	6.566100E+01	  0.106973946	5.218200E+01	  0.106973946	3.960200E+01
436	  0.107174344	-8.809000E+00	  0.107174344	6.511600E+01	  0.107174344	5.254900E+01	  0.107174344	3.981700E+01
437	  0.107374750	-8.791000E+00	  0.107374750	6.458700E+01	  0.107374750	5.291100E+01	  0.107374750	4.002300E+01
438	  0.107575148	-8.764000E+00	  0.107575148	6.400000E+01	  0.107575148	5.330800E+01	  0.107575148	4.028700E+01
439	  0.107775547	-8.742000E+00	  0.107775547	6.341300E+01	  0.107775547	5.371900E+01	  0.107775547	4.052900E+01
440	  0.107975952	-8.716000E+00	  0.107975952	6.283900E+01	  0.107975952	5.412000E+01	  0.107975952	4.078700E+01
441	  0.108176351	-8.703000E+00	  0.108176351	6.219600E+01	  0.108176351	5.460100E+01	  0.108176351	4.098900E+01
442	  0.108376749	-8.663000E+00	  0.108376749	6.153100E+01	  0.108376749	5.507100E+01	  0.108376749	4.133300E+01
443	  0.108577155	-8.641000E+00	  0.108577155	6.092000E+01	  0.108577155	5.553100E+01	  0.108577155	4.157100E+01
444	  0.108777553	-8.617000E+00	  0.108777553	6.026000E+01	  0.108777553	5.603500E+01	  0.108777553	4.183200E+01
445	  0.108977959	-8.605000E+00	  0.108977959	5.960400E+01	  0.108977959	5.656000E+01	  0.108977959	4.202200E+01
446	  0.109178357	-8.572000E+00	  0.109178357	5.888500E+01	  0.109178357	5.712300E+01	  0.109178357	4.233400E+01
447	  0.109378755	-8.550000E+00	  0.109378755	5.823000E+01	  0.109378755	5.765300E+01	  0.109378755	4.257700E+01
448	  0.109579161	-8.528000E+00	  0.109579161	5.755800E+01	  0.109579161	5.821000E+01	  0.109579161	4.281100E+01
449	  0.109779559	-8.506000E+00	  0.109779559	5.686600E+01	  0.109779559	5.879300E+01	  0.109779559	4.305200E+01
450	  0.109979957	-8.480000E+00	  0.109979957	5.612400E+01	  0.109979957	5.942800E+01	  0.109979957	4.331700E+01
451	  0.110180363	-8.455000E+00	  0.110180363	5.544100E+01	  0.110180363	6.002300E+01	  0.110180363	4.356200E+01
452	  0.110380761	-8.437000E+00	  0.110380761	5.477300E+01	  0.110380761	6.062100E+01	  0.110380761	4.376100E+01
453	  0.110581160	-8.422000E+00	  0.110581160	5.404400E+01	  0.110581160	6.128900E+01	  0.110581160	4.394500E+01
454	  0.110781565	-8.397000E+00	  0.110781565	5.332300E+01	  0.110781565	6.195400E+01	  0.110781565	4.418600E+01
455	  0.110981964	-8.381000E+00	  0.110981964	5.261500E+01	  0.110981964	6.262400E+01	  0.110981964	4.435900E+01
456	  0.111182362	-8.366000E+00	  0.111182362	5.188100E+01	  0.111182362	6.333300E+01	  0.111182362	4.451700E+01
457	  0.111382768	-8.350000E+00	  0.111382768	5.114200E+01	  0.111382768	6.405800E+01	  0.111382768	4.468000E+01
458	  0.111583166	-8.337000E+00	  0.111583166	5.042700E+01	  0.111583166	6.477100E+01	  0.111583166	4.480700E+01
459	  0.111783572	-8.334000E+00	  0.111783572	4.967200E+01	  0.111783572	6.554100E+01	  0.111783572	4.486600E+01
460	  0.111983970	-8.326000E+00	  0.111983970	4.897600E+01	  0.111983970	6.625800E+01	  0.111983970	4.494200E+01
461	  0.112184368	-8.323000E+00	  0.112184368	4.820800E+01	  0.112184368	6.706200E+01	  0.112184368	4.497300E+01
462	  0.112384774	-8.331000E+00	  0.112384774	4.739500E+01	  0.112384774	6.792100E+01	  0.112384774	4.491200E+01
463	  0.112585172	-8.323000E+00	  0.112585172	4.662600E+01	  0.112585172	6.874700E+01	  0.112585172	4.494500E+01
464	  0.112785570	-8.326000E+00	  0.112785570	4.579800E+01	  0.112785570	6.964500E+01	  0.112785570	4.488400E+01
465	  0.112985976	-8.327000E+00	  0.112985976	4.494600E+01	  0.112985976	7.058000E+01	  0.112985976	4.481900E+01
466	  0.113186374	-8.336000E+00	  0.113186374	4.416100E+01	  0.113186374	7.144400E+01	  0.113186374	4.468000E+01
467	  0.113386773	-8.345000E+00	  0.113386773	4.332200E+01	  0.113386773	7.237700E+01	  0.113386773	4.450800E+01
468	  0.113587178	-8.359000E+00	  0.113587178	4.246700E+01	  0.113587178	7.332900E+01	  0.113587178	4.428500E+01
469	  0.113787577	-8.368000E+00	  0.113787577	4.160300E+01	  0.113787577	7.430200E+01	  0.113787577	4.406600E+01
470	  0.113987975	-8.375000E+00	  0.113987975	4.067200E+01	  0.113987975	7.536100E+01	  0.113987975	4.382300E+01
471	  0.114188381	-8.384000E+00	  0.114188381	3.975600E+01	  0.114188381	7.640700E+01	  0.114188381	4.354000E+01
472	  0.114388779	-8.399000E+00	  0.114388779	3.882300E+01	  0.114388779	7.746800E+01	  0.114388779	4.317400E+01
473	  0.114589177	-8.420000E+00	  0.114589177	3.785600E+01	  0.114589177	7.855600E+01	  0.114589177	4.271800E+01
474	  0.114789583	-8.430000E+00	  0.114789583	3.695000E+01	  0.114789583	7.959700E+01	  0.114789583	4.233200E+01
475	  0.114989981	-8.451000E+00	  0.114989981	3.598100E+01	  0.114989981	8.068400E+01	  0.114989981	4.180300E+01
476	  0.115190387	-8.460000E+00	  0.115190387	3.499900E+01	  0.115190387	8.181700E+01	  0.115190387	4.132400E+01
477	  0.115390785	-8.479000E+00	  0.115390785	3.395400E+01	  0.115390785	8.299400E+01	  0.115390785	4.070400E+01
478	  0.115591183	-8.496000E+00	  0.115591183	3.297800E+01	  0.115591183	8.408900E+01	  0.115591183	4.008700E+01
479	  0.115791589	-8.519000E+00	  0.115791589	3.197700E+01	  0.115791589	8.518000E+01	  0.115791589	3.936500E+01
480	  0.115991987	-8.526000E+00	  0.115991987	3.091100E+01	  0.115991987	8.640000E+01	  0.115991987	3.869300E+01
481	  0.116192386	-8.555000E+00	  0.116192386	2.987600E+01	  0.116192386	8.748200E+01	  0.116192386	3.782000E+01
482	  0.116392791	-8.581000E+00	  0.116392791	2.879400E+01	  0.116392791	8.861000E+01	  0.116392791	3.689600E+01
483	  0.116593190	-8.603000E+00	  0.116593190	2.781400E+01	  0.116593190	8.961700E+01	  0.116593190	3.603000E+01
484	  0.116793588	-8.615000E+00	  0.116793588	2.674000E+01	  0.116793588	9.075800E+01	  0.116793588	3.512000E+01
485	  0.116993994	-8.645000E+00	  0.116993994	2.560900E+01	  0.116993994	9.184400E+01	  0.116993994	3.398500E+01
486	  0.117194392	-8.672000E+00	  0.117194392	2.451100E+01	  0.117194392	9.287700E+01	  0.117194392	3.285600E+01
487	  0.117394790	-8.699000E+00	  0.117394790	2.345900E+01	  0.117394790	9.382000E+01	  0.117394790	3.171500E+01
488	  0.117595196	-8.731000E+00	  0.117595196	2.234200E+01	  0.117595196	9.476300E+01	  0.117595196	3.044100E+01
489	  0.117795594	-8.769000E+00	  0.117795594	2.122000E+01	  0.117795594	9.562300E+01	  0.117795594	2.908000E+01
490	  0.117995992	-8.812000E+00	  0.117995992	2.013500E+01	  0.117995992	9.636600E+01	  0.117995992	2.769600E+01
491	  0.118196398	-8.855000E+00	  0.118196398	1.901700E+01	  0.118196398	9.708300E+01	  0.118196398	2.624200E+01
492	  0.118396796	-8.905000E+00	  0.118396796	1.792100E+01	  0.118396796	9.766600E+01	  0.118396796	2.474400E+01
493	  0.118597202	-8.947000E+00	  0.118597202	1.672300E+01	  0.118597202	9.833000E+01	  0.118597202	2.315000E+01
494	  0.118797600	-9.008000E+00	  0.118797600	1.555100E+01	  0.118797600	9.875800E+01	  0.118797600	2.146700E+01
495	  0.118997999	-9.063000E+00	  0.118997999	1.442800E+01	  0.118997999	9.912300E+01	  0.118997999	1.986200E+01
496	  0.119198404	-9.132000E+00	  0.119198404	1.320300E+01	  0.119198404	9.937400E+01	  0.119198404	1.806900E+01
497	  0.119398803	-9.200000E+00	  0.119398803	1.197800E+01	  0.119398803	9.955100E+01	  0.119398803	1.628500E+01
498	  0.119599201	-9.272000E+00	  0.119599201	1.076200E+01	  0.119599201	9.960700E+01	  0.119599201	1.450700E+01
499	  0.119799607	-9.361000E+00	  0.119799607	9.474000E+00	  0.119799607	9.947500E+01	  0.119799607	1.260700E+01
500	  0.120000005	-9.451000E+00	  0.120000005	8.235000E+00	  0.120000005	9.922700E+01	  0.120000005	1.080100E+01
