! Anritsu VNA Master:             	Model: MS2036C/10/77
! SN:             	1601066
! /bd0/18may07/256.ns.m.txt
! Existing Calibration Information:
! TYPE:             	Current Settings	Active Cal Settings
! TIME:             	05/07/2018 03:05:46 PM	05/07/2018 02:58:54 PM
! INTERNAL TEMP:    	59.5 C	58.8 C
! # POINTS:         	500	500
! START FREQ:       	20.000 MHz	20.000 MHz
! STOP FREQ:        	120.000 MHz	120.000 MHz
! SOURCE POWER:     	High	High
! IFBW:             	50 Hz	50 Hz
! AVG FACTOR:       	  1 	  1 
! REF PLANE 1:      	0 mm	0 mm
! REF PLANE 2:      	0 mm	0 mm
! CAL TYPE:         	Full S11	Full S11
! CAL METHOD:       	SOLT	SOLT
! CAL LINE TYPE:    	Coax	Coax
! DUT PORT 1:       	K-Conn(F)	K-Conn(F)
! DUT PORT 2:       	K-Conn(F)	K-Conn(F)
! CAL STATUS:       	OK: Accuracy High	--
! PROP-V:       	0.700
! CABLE LOSS:       	0.000 dB/m
! REF IMPEDANCE:       	50.0
! Trace Specific Parameters:	TR1	TR2	TR3	TR4
! TRACE.#.Y (GRAPH TYPE)	LOG MAG	PHASE	REAL IMPEDANCE	IMAGINARY IMPEDANCE
! TRACE.#.X 	FREQ.GHZ	FREQ.GHZ	FREQ.GHZ	FREQ.GHZ
! S-PARAMETER	S11	S11	S11	S11
! SMOOTH/APERTURE %	0	0	0	0
! WINDOW	NSL	NSL	NSL	NSL
! GATING	OFF	OFF	OFF	OFF
! FGTD	OFF	OFF	OFF	OFF
Marker Information per Trace:	TR1	TR2	TR3	TR4
!MK1	--	"MK1 TR2:  20.000 MHz,PH:-125.96°"	--	--
!MK2	--	--	"MK2 TR3:  70.100 200 MHz,Z:(17.038 ohm, -2.864 ohm)"	--
!MK3	--	--	--	--
!MK4	--	--	--	--
!MK5	--	--	--	--
!MK6	--	--	--	--
!MK7	--	--	--	--
!MK8	--	--	--	--
PNT	TR1.FREQ.GHZ	TR1.LOG MAG.dB	TR2.FREQ.GHZ	TR2.PHASE.deg	TR3.FREQ.GHZ	TR3.REAL IMPEDANCE.ohm	TR4.FREQ.GHZ	TR4.IMAGINARY IMPEDANCE.ohm
1	  0.020000000	-6.300000E-01	  0.020000000	-1.259600E+02	  0.020000000	2.286000E+00	  0.020000000	-2.545500E+01
2	  0.020200402	-6.300000E-01	  0.020200402	-1.274330E+02	  0.020200402	2.254000E+00	  0.020200402	-2.465300E+01
3	  0.020400802	-6.300000E-01	  0.020400802	-1.288940E+02	  0.020400802	2.227000E+00	  0.020400802	-2.386600E+01
4	  0.020601204	-6.320000E-01	  0.020601204	-1.303690E+02	  0.020601204	2.207000E+00	  0.020601204	-2.308200E+01
5	  0.020801604	-6.370000E-01	  0.020801604	-1.318760E+02	  0.020801604	2.198000E+00	  0.020801604	-2.228900E+01
6	  0.021002004	-6.420000E-01	  0.021002004	-1.333960E+02	  0.021002004	2.190000E+00	  0.021002004	-2.150000E+01
7	  0.021202406	-6.500000E-01	  0.021202406	-1.349230E+02	  0.021202406	2.191000E+00	  0.021202406	-2.071500E+01
8	  0.021402806	-6.550000E-01	  0.021402806	-1.364680E+02	  0.021402806	2.185000E+00	  0.021402806	-1.993100E+01
9	  0.021603208	-6.590000E-01	  0.021603208	-1.380030E+02	  0.021603208	2.174000E+00	  0.021603208	-1.915900E+01
10	  0.021803608	-6.630000E-01	  0.021803608	-1.395470E+02	  0.021803608	2.168000E+00	  0.021803608	-1.839100E+01
11	  0.022004008	-6.700000E-01	  0.022004008	-1.410930E+02	  0.022004008	2.167000E+00	  0.022004008	-1.763000E+01
12	  0.022204408	-6.760000E-01	  0.022204408	-1.426610E+02	  0.022204408	2.167000E+00	  0.022204408	-1.686500E+01
13	  0.022404809	-6.820000E-01	  0.022404809	-1.442390E+02	  0.022404809	2.168000E+00	  0.022404809	-1.610300E+01
14	  0.022605211	-6.880000E-01	  0.022605211	-1.458240E+02	  0.022605211	2.166000E+00	  0.022605211	-1.534300E+01
15	  0.022805611	-6.910000E-01	  0.022805611	-1.474260E+02	  0.022805611	2.158000E+00	  0.022805611	-1.458300E+01
16	  0.023006011	-6.930000E-01	  0.023006011	-1.490220E+02	  0.023006011	2.148000E+00	  0.023006011	-1.383200E+01
17	  0.023206413	-6.920000E-01	  0.023206413	-1.506210E+02	  0.023206413	2.129000E+00	  0.023206413	-1.308500E+01
18	  0.023406813	-6.980000E-01	  0.023406813	-1.522160E+02	  0.023406813	2.131000E+00	  0.023406813	-1.234400E+01
19	  0.023607215	-7.040000E-01	  0.023607215	-1.538190E+02	  0.023607215	2.134000E+00	  0.023607215	-1.160600E+01
20	  0.023807615	-7.100000E-01	  0.023807615	-1.554250E+02	  0.023807615	2.142000E+00	  0.023807615	-1.087100E+01
21	  0.024008015	-7.190000E-01	  0.024008015	-1.570610E+02	  0.024008015	2.155000E+00	  0.024008015	-1.012600E+01
22	  0.024208417	-7.300000E-01	  0.024208417	-1.586990E+02	  0.024208417	2.174000E+00	  0.024208417	-9.385000E+00
23	  0.024408817	-7.400000E-01	  0.024408817	-1.603600E+02	  0.024408817	2.192000E+00	  0.024408817	-8.638000E+00
24	  0.024609219	-7.500000E-01	  0.024609219	-1.620170E+02	  0.024609219	2.213000E+00	  0.024609219	-7.896000E+00
25	  0.024809619	-7.600000E-01	  0.024809619	-1.636760E+02	  0.024809619	2.232000E+00	  0.024809619	-7.157000E+00
26	  0.025010020	-7.730000E-01	  0.025010020	-1.653390E+02	  0.025010020	2.260000E+00	  0.025010020	-6.419000E+00
27	  0.025210422	-7.840000E-01	  0.025210422	-1.670250E+02	  0.025210422	2.285000E+00	  0.025210422	-5.673000E+00
28	  0.025410822	-7.990000E-01	  0.025410822	-1.687190E+02	  0.025410822	2.321000E+00	  0.025410822	-4.927000E+00
29	  0.025611224	-8.140000E-01	  0.025611224	-1.704250E+02	  0.025611224	2.358000E+00	  0.025611224	-4.178000E+00
30	  0.025811624	-8.280000E-01	  0.025811624	-1.721460E+02	  0.025811624	2.392000E+00	  0.025811624	-3.424000E+00
31	  0.026012026	-8.380000E-01	  0.026012026	-1.738910E+02	  0.026012026	2.419000E+00	  0.026012026	-2.661000E+00
32	  0.026212426	-8.500000E-01	  0.026212426	-1.756350E+02	  0.026212426	2.449000E+00	  0.026212426	-1.900000E+00
33	  0.026412826	-8.640000E-01	  0.026412826	-1.773780E+02	  0.026412826	2.486000E+00	  0.026412826	-1.141000E+00
34	  0.026613226	-8.800000E-01	  0.026613226	-1.791340E+02	  0.026613226	2.532000E+00	  0.026613226	-3.760000E-01
35	  0.026813626	-8.950000E-01	  0.026813626	1.790950E+02	  0.026813626	2.576000E+00	  0.026813626	3.930000E-01
36	  0.027014028	-9.120000E-01	  0.027014028	1.773140E+02	  0.027014028	2.625000E+00	  0.027014028	1.168000E+00
37	  0.027214428	-9.300000E-01	  0.027214428	1.755110E+02	  0.027214428	2.680000E+00	  0.027214428	1.953000E+00
38	  0.027414829	-9.470000E-01	  0.027414829	1.737030E+02	  0.027414829	2.731000E+00	  0.027414829	2.742000E+00
39	  0.027615231	-9.620000E-01	  0.027615231	1.718960E+02	  0.027615231	2.782000E+00	  0.027615231	3.530000E+00
40	  0.027815631	-9.820000E-01	  0.027815631	1.700620E+02	  0.027815631	2.845000E+00	  0.027815631	4.332000E+00
41	  0.028016033	-1.003000E+00	  0.028016033	1.682340E+02	  0.028016033	2.914000E+00	  0.028016033	5.134000E+00
42	  0.028216433	-1.025000E+00	  0.028216433	1.663850E+02	  0.028216433	2.988000E+00	  0.028216433	5.947000E+00
43	  0.028416833	-1.042000E+00	  0.028416833	1.645440E+02	  0.028416833	3.053000E+00	  0.028416833	6.760000E+00
44	  0.028617235	-1.062000E+00	  0.028617235	1.626970E+02	  0.028617235	3.125000E+00	  0.028617235	7.578000E+00
45	  0.028817635	-1.082000E+00	  0.028817635	1.608460E+02	  0.028817635	3.199000E+00	  0.028817635	8.402000E+00
46	  0.029018037	-1.100000E+00	  0.029018037	1.590110E+02	  0.029018037	3.270000E+00	  0.029018037	9.223000E+00
47	  0.029218437	-1.119000E+00	  0.029218437	1.571740E+02	  0.029218437	3.348000E+00	  0.029218437	1.004900E+01
48	  0.029418837	-1.142000E+00	  0.029418837	1.553470E+02	  0.029418837	3.440000E+00	  0.029418837	1.087600E+01
49	  0.029619239	-1.167000E+00	  0.029619239	1.534930E+02	  0.029619239	3.540000E+00	  0.029619239	1.172000E+01
50	  0.029819639	-1.195000E+00	  0.029819639	1.516180E+02	  0.029819639	3.654000E+00	  0.029819639	1.257900E+01
51	  0.030020041	-1.227000E+00	  0.030020041	1.497130E+02	  0.030020041	3.783000E+00	  0.030020041	1.345900E+01
52	  0.030220442	-1.256000E+00	  0.030220442	1.477930E+02	  0.030220442	3.908000E+00	  0.030220442	1.435300E+01
53	  0.030420844	-1.286000E+00	  0.030420844	1.458600E+02	  0.030420844	4.042000E+00	  0.030420844	1.526100E+01
54	  0.030621244	-1.317000E+00	  0.030621244	1.439490E+02	  0.030621244	4.183000E+00	  0.030621244	1.616700E+01
55	  0.030821644	-1.350000E+00	  0.030821644	1.420420E+02	  0.030821644	4.334000E+00	  0.030821644	1.707900E+01
56	  0.031022044	-1.384000E+00	  0.031022044	1.401000E+02	  0.031022044	4.497000E+00	  0.031022044	1.801900E+01
57	  0.031222444	-1.416000E+00	  0.031222444	1.381670E+02	  0.031222444	4.658000E+00	  0.031222444	1.896400E+01
58	  0.031422846	-1.455000E+00	  0.031422846	1.362030E+02	  0.031422846	4.848000E+00	  0.031422846	1.993500E+01
59	  0.031623244	-1.492000E+00	  0.031623244	1.341990E+02	  0.031623244	5.044000E+00	  0.031623244	2.093800E+01
60	  0.031823646	-1.531000E+00	  0.031823646	1.321930E+02	  0.031823646	5.251000E+00	  0.031823646	2.195500E+01
61	  0.032024048	-1.568000E+00	  0.032024048	1.301830E+02	  0.032024048	5.462000E+00	  0.032024048	2.298900E+01
62	  0.032224450	-1.606000E+00	  0.032224450	1.281750E+02	  0.032224450	5.688000E+00	  0.032224450	2.403600E+01
63	  0.032424849	-1.642000E+00	  0.032424849	1.261600E+02	  0.032424849	5.916000E+00	  0.032424849	2.510400E+01
64	  0.032625251	-1.678000E+00	  0.032625251	1.241420E+02	  0.032625251	6.153000E+00	  0.032625251	2.619100E+01
65	  0.032825653	-1.715000E+00	  0.032825653	1.221450E+02	  0.032825653	6.405000E+00	  0.032825653	2.728300E+01
66	  0.033026051	-1.753000E+00	  0.033026051	1.201300E+02	  0.033026051	6.675000E+00	  0.033026051	2.840400E+01
67	  0.033226453	-1.797000E+00	  0.033226453	1.181420E+02	  0.033226453	6.978000E+00	  0.033226453	2.952700E+01
68	  0.033426855	-1.842000E+00	  0.033426855	1.161600E+02	  0.033426855	7.300000E+00	  0.033426855	3.066500E+01
69	  0.033627257	-1.892000E+00	  0.033627257	1.141470E+02	  0.033627257	7.662000E+00	  0.033627257	3.184000E+01
70	  0.033827655	-1.942000E+00	  0.033827655	1.121200E+02	  0.033827655	8.042000E+00	  0.033827655	3.304600E+01
71	  0.034028057	-1.995000E+00	  0.034028057	1.100840E+02	  0.034028057	8.461000E+00	  0.034028057	3.427800E+01
72	  0.034228459	-2.044000E+00	  0.034228459	1.079740E+02	  0.034228459	8.890000E+00	  0.034228459	3.558700E+01
73	  0.034428857	-2.097000E+00	  0.034428857	1.058560E+02	  0.034428857	9.358000E+00	  0.034428857	3.692600E+01
74	  0.034629259	-2.144000E+00	  0.034629259	1.037230E+02	  0.034629259	9.834000E+00	  0.034629259	3.831000E+01
75	  0.034829661	-2.192000E+00	  0.034829661	1.015990E+02	  0.034829661	1.034200E+01	  0.034829661	3.972000E+01
76	  0.035030060	-2.238000E+00	  0.035030060	9.947700E+01	  0.035030060	1.087600E+01	  0.035030060	4.116400E+01
77	  0.035230462	-2.283000E+00	  0.035230462	9.737500E+01	  0.035230462	1.143300E+01	  0.035230462	4.263100E+01
78	  0.035430863	-2.327000E+00	  0.035430863	9.525800E+01	  0.035430863	1.202200E+01	  0.035430863	4.414900E+01
79	  0.035631265	-2.370000E+00	  0.035631265	9.317300E+01	  0.035631265	1.264000E+01	  0.035631265	4.568300E+01
80	  0.035831664	-2.416000E+00	  0.035831664	9.109200E+01	  0.035831664	1.331800E+01	  0.035831664	4.724900E+01
81	  0.036032066	-2.458000E+00	  0.036032066	8.902000E+01	  0.036032066	1.401700E+01	  0.036032066	4.885700E+01
82	  0.036232468	-2.504000E+00	  0.036232468	8.697400E+01	  0.036232468	1.477800E+01	  0.036232468	5.048100E+01
83	  0.036432866	-2.553000E+00	  0.036432866	8.491300E+01	  0.036432866	1.561500E+01	  0.036432866	5.215700E+01
84	  0.036633268	-2.605000E+00	  0.036633268	8.284900E+01	  0.036633268	1.653500E+01	  0.036633268	5.387400E+01
85	  0.036833670	-2.660000E+00	  0.036833670	8.078400E+01	  0.036833670	1.753400E+01	  0.036833670	5.563400E+01
86	  0.037034072	-2.719000E+00	  0.037034072	7.872400E+01	  0.037034072	1.863200E+01	  0.037034072	5.742600E+01
87	  0.037234470	-2.781000E+00	  0.037234470	7.664900E+01	  0.037234470	1.984000E+01	  0.037234470	5.927000E+01
88	  0.037434869	-2.847000E+00	  0.037434869	7.454700E+01	  0.037434869	2.118300E+01	  0.037434869	6.117400E+01
89	  0.037635271	-2.918000E+00	  0.037635271	7.245200E+01	  0.037635271	2.265500E+01	  0.037635271	6.310400E+01
90	  0.037835669	-2.990000E+00	  0.037835669	7.042600E+01	  0.037835669	2.422400E+01	  0.037835669	6.499200E+01
91	  0.038036071	-3.050000E+00	  0.038036071	6.840100E+01	  0.038036071	2.581500E+01	  0.038036071	6.696900E+01
92	  0.038236473	-3.099000E+00	  0.038236473	6.630700E+01	  0.038236473	2.750900E+01	  0.038236473	6.910700E+01
93	  0.038436871	-3.147000E+00	  0.038436871	6.415700E+01	  0.038436871	2.937000E+01	  0.038436871	7.137400E+01
94	  0.038637273	-3.196000E+00	  0.038637273	6.198700E+01	  0.038637273	3.142300E+01	  0.038637273	7.371700E+01
95	  0.038837675	-3.243000E+00	  0.038837675	5.986300E+01	  0.038837675	3.360900E+01	  0.038837675	7.606700E+01
96	  0.039038073	-3.286000E+00	  0.039038073	5.778300E+01	  0.039038073	3.592600E+01	  0.039038073	7.843200E+01
97	  0.039238475	-3.330000E+00	  0.039238475	5.569400E+01	  0.039238475	3.845500E+01	  0.039238475	8.085900E+01
98	  0.039438877	-3.374000E+00	  0.039438877	5.363900E+01	  0.039438877	4.118900E+01	  0.039438877	8.326700E+01
99	  0.039639279	-3.425000E+00	  0.039639279	5.161500E+01	  0.039639279	4.418900E+01	  0.039639279	8.560700E+01
100	  0.039839678	-3.481000E+00	  0.039839678	4.958000E+01	  0.039839678	4.753000E+01	  0.039839678	8.790600E+01
101	  0.040040080	-3.536000E+00	  0.040040080	4.753600E+01	  0.040040080	5.116900E+01	  0.040040080	9.020400E+01
102	  0.040240481	-3.591000E+00	  0.040240481	4.549700E+01	  0.040240481	5.513500E+01	  0.040240481	9.243900E+01
103	  0.040440880	-3.649000E+00	  0.040440880	4.342400E+01	  0.040440880	5.954400E+01	  0.040440880	9.460400E+01
104	  0.040641282	-3.706000E+00	  0.040641282	4.136400E+01	  0.040641282	6.430900E+01	  0.040641282	9.664400E+01
105	  0.040841684	-3.763000E+00	  0.040841684	3.931400E+01	  0.040841684	6.947600E+01	  0.040841684	9.848200E+01
106	  0.041042086	-3.815000E+00	  0.041042086	3.726900E+01	  0.041042086	7.502600E+01	  0.041042086	1.001820E+02
107	  0.041242484	-3.868000E+00	  0.041242484	3.522400E+01	  0.041242484	8.104700E+01	  0.041242484	1.015710E+02
108	  0.041442886	-3.922000E+00	  0.041442886	3.319300E+01	  0.041442886	8.750900E+01	  0.041442886	1.025580E+02
109	  0.041643288	-3.978000E+00	  0.041643288	3.113400E+01	  0.041643288	9.454200E+01	  0.041643288	1.030920E+02
110	  0.041843686	-4.027000E+00	  0.041843686	2.910300E+01	  0.041843686	1.019270E+02	  0.041843686	1.031710E+02
111	  0.042044088	-4.077000E+00	  0.042044088	2.707000E+01	  0.042044088	1.097640E+02	  0.042044088	1.025890E+02
112	  0.042244490	-4.127000E+00	  0.042244490	2.506800E+01	  0.042244490	1.178700E+02	  0.042244490	1.012410E+02
113	  0.042444889	-4.178000E+00	  0.042444889	2.306700E+01	  0.042444889	1.262740E+02	  0.042444889	9.899300E+01
114	  0.042645290	-4.227000E+00	  0.042645290	2.107600E+01	  0.042645290	1.348340E+02	  0.042645290	9.580100E+01
115	  0.042845692	-4.279000E+00	  0.042845692	1.908600E+01	  0.042845692	1.434010E+02	  0.042845692	9.143400E+01
116	  0.043046094	-4.327000E+00	  0.043046094	1.711100E+01	  0.043046094	1.518100E+02	  0.043046094	8.604700E+01
117	  0.043246493	-4.379000E+00	  0.043246493	1.512700E+01	  0.043246493	1.598540E+02	  0.043246493	7.934100E+01
118	  0.043446895	-4.426000E+00	  0.043446895	1.314400E+01	  0.043446895	1.673900E+02	  0.043446895	7.155200E+01
119	  0.043647297	-4.475000E+00	  0.043647297	1.116000E+01	  0.043647297	1.741010E+02	  0.043647297	6.260100E+01
120	  0.043847695	-4.521000E+00	  0.043847695	9.175000E+00	  0.043847695	1.798110E+02	  0.043847695	5.266600E+01
121	  0.044048097	-4.569000E+00	  0.044048097	7.193000E+00	  0.044048097	1.841960E+02	  0.044048097	4.188100E+01
122	  0.044248499	-4.617000E+00	  0.044248499	5.232000E+00	  0.044248499	1.871230E+02	  0.044248499	3.063500E+01
123	  0.044448901	-4.664000E+00	  0.044448901	3.268000E+00	  0.044448901	1.886020E+02	  0.044448901	1.909200E+01
124	  0.044649299	-4.710000E+00	  0.044649299	1.300000E+00	  0.044649299	1.885600E+02	  0.044649299	7.518000E+00
125	  0.044849701	-4.755000E+00	  0.044849701	-6.280000E-01	  0.044849701	1.871280E+02	  0.044849701	-3.570000E+00
126	  0.045050103	-4.798000E+00	  0.045050103	-2.555000E+00	  0.045050103	1.844230E+02	  0.045050103	-1.415300E+01
127	  0.045250501	-4.837000E+00	  0.045250501	-4.495000E+00	  0.045250501	1.806910E+02	  0.045250501	-2.416500E+01
128	  0.045450903	-4.874000E+00	  0.045450903	-6.418000E+00	  0.045450903	1.760230E+02	  0.045450903	-3.328700E+01
129	  0.045651305	-4.914000E+00	  0.045651305	-8.328000E+00	  0.045651305	1.704980E+02	  0.045651305	-4.140400E+01
130	  0.045851704	-4.952000E+00	  0.045851704	-1.023400E+01	  0.045851704	1.644400E+02	  0.045851704	-4.856800E+01
131	  0.046052106	-4.991000E+00	  0.046052106	-1.211400E+01	  0.046052106	1.580350E+02	  0.046052106	-5.465000E+01
132	  0.046252504	-5.029000E+00	  0.046252504	-1.397300E+01	  0.046252504	1.514900E+02	  0.046252504	-5.977900E+01
133	  0.046452906	-5.067000E+00	  0.046452906	-1.582900E+01	  0.046452906	1.448600E+02	  0.046452906	-6.403100E+01
134	  0.046653304	-5.104000E+00	  0.046653304	-1.769400E+01	  0.046653304	1.382360E+02	  0.046653304	-6.754700E+01
135	  0.046853706	-5.138000E+00	  0.046853706	-1.953700E+01	  0.046853706	1.318070E+02	  0.046853706	-7.033300E+01
136	  0.047054108	-5.175000E+00	  0.047054108	-2.136600E+01	  0.047054108	1.255600E+02	  0.047054108	-7.240900E+01
137	  0.047254506	-5.207000E+00	  0.047254506	-2.317900E+01	  0.047254506	1.196130E+02	  0.047254506	-7.400900E+01
138	  0.047454908	-5.239000E+00	  0.047454908	-2.496100E+01	  0.047454908	1.139890E+02	  0.047454908	-7.510100E+01
139	  0.047655310	-5.270000E+00	  0.047655310	-2.676300E+01	  0.047655310	1.085600E+02	  0.047655310	-7.582600E+01
140	  0.047855709	-5.299000E+00	  0.047855709	-2.851100E+01	  0.047855709	1.035390E+02	  0.047855709	-7.618300E+01
141	  0.048056111	-5.328000E+00	  0.048056111	-3.022700E+01	  0.048056111	9.885600E+01	  0.048056111	-7.624500E+01
142	  0.048256513	-5.359000E+00	  0.048256513	-3.196700E+01	  0.048256513	9.435200E+01	  0.048256513	-7.603600E+01
143	  0.048456915	-5.392000E+00	  0.048456915	-3.366300E+01	  0.048456915	9.020000E+01	  0.048456915	-7.558100E+01
144	  0.048657313	-5.424000E+00	  0.048657313	-3.539000E+01	  0.048657313	8.621000E+01	  0.048657313	-7.497200E+01
145	  0.048857715	-5.452000E+00	  0.048857715	-3.711500E+01	  0.048857715	8.245200E+01	  0.048857715	-7.428900E+01
146	  0.049058117	-5.483000E+00	  0.049058117	-3.881700E+01	  0.049058117	7.896300E+01	  0.049058117	-7.342300E+01
147	  0.049258515	-5.511000E+00	  0.049258515	-4.054000E+01	  0.049258515	7.562900E+01	  0.049258515	-7.251300E+01
148	  0.049458917	-5.538000E+00	  0.049458917	-4.222400E+01	  0.049458917	7.256300E+01	  0.049458917	-7.152800E+01
149	  0.049659319	-5.567000E+00	  0.049659319	-4.391900E+01	  0.049659319	6.965900E+01	  0.049659319	-7.045700E+01
150	  0.049859721	-5.595000E+00	  0.049859721	-4.559900E+01	  0.049859721	6.694500E+01	  0.049859721	-6.935100E+01
151	  0.050060119	-5.624000E+00	  0.050060119	-4.727200E+01	  0.050060119	6.440600E+01	  0.050060119	-6.819500E+01
152	  0.050260521	-5.650000E+00	  0.050260521	-4.894800E+01	  0.050260521	6.199800E+01	  0.050260521	-6.704300E+01
153	  0.050460923	-5.670000E+00	  0.050460923	-5.065500E+01	  0.050460923	5.966500E+01	  0.050460923	-6.589100E+01
154	  0.050661322	-5.691000E+00	  0.050661322	-5.232900E+01	  0.050661322	5.750900E+01	  0.050661322	-6.473400E+01
155	  0.050861724	-5.709000E+00	  0.050861724	-5.398100E+01	  0.050861724	5.548800E+01	  0.050861724	-6.360100E+01
156	  0.051062126	-5.726000E+00	  0.051062126	-5.561500E+01	  0.051062126	5.359600E+01	  0.051062126	-6.246600E+01
157	  0.051262524	-5.745000E+00	  0.051262524	-5.723400E+01	  0.051262524	5.183100E+01	  0.051262524	-6.131900E+01
158	  0.051462926	-5.758000E+00	  0.051462926	-5.881500E+01	  0.051462926	5.017400E+01	  0.051462926	-6.023500E+01
159	  0.051663328	-5.772000E+00	  0.051663328	-6.037300E+01	  0.051663328	4.862900E+01	  0.051663328	-5.915500E+01
160	  0.051863730	-5.786000E+00	  0.051863730	-6.193800E+01	  0.051863730	4.715500E+01	  0.051863730	-5.806800E+01
161	  0.052064128	-5.804000E+00	  0.052064128	-6.348200E+01	  0.052064128	4.579100E+01	  0.052064128	-5.697300E+01
162	  0.052264530	-5.818000E+00	  0.052264530	-6.500600E+01	  0.052264530	4.449200E+01	  0.052264530	-5.592200E+01
163	  0.052464932	-5.835000E+00	  0.052464932	-6.654300E+01	  0.052464932	4.326000E+01	  0.052464932	-5.485000E+01
164	  0.052665330	-5.852000E+00	  0.052665330	-6.807600E+01	  0.052665330	4.209100E+01	  0.052665330	-5.378700E+01
165	  0.052865732	-5.867000E+00	  0.052865732	-6.959200E+01	  0.052865732	4.098100E+01	  0.052865732	-5.275700E+01
166	  0.053066134	-5.883000E+00	  0.053066134	-7.110600E+01	  0.053066134	3.993000E+01	  0.053066134	-5.173000E+01
167	  0.053266536	-5.899000E+00	  0.053266536	-7.261900E+01	  0.053266536	3.893100E+01	  0.053266536	-5.071100E+01
168	  0.053466935	-5.911000E+00	  0.053466935	-7.411600E+01	  0.053466935	3.796900E+01	  0.053466935	-4.973400E+01
169	  0.053667337	-5.925000E+00	  0.053667337	-7.561000E+01	  0.053667337	3.706300E+01	  0.053667337	-4.875500E+01
170	  0.053867739	-5.932000E+00	  0.053867739	-7.709600E+01	  0.053867739	3.617400E+01	  0.053867739	-4.782100E+01
171	  0.054068137	-5.935000E+00	  0.054068137	-7.855800E+01	  0.054068137	3.532300E+01	  0.054068137	-4.692500E+01
172	  0.054268539	-5.945000E+00	  0.054268539	-8.001400E+01	  0.054268539	3.453600E+01	  0.054268539	-4.601400E+01
173	  0.054468941	-5.952000E+00	  0.054468941	-8.143600E+01	  0.054468941	3.379400E+01	  0.054468941	-4.514100E+01
174	  0.054669339	-5.963000E+00	  0.054669339	-8.282900E+01	  0.054669339	3.310800E+01	  0.054669339	-4.428200E+01
175	  0.054869737	-5.972000E+00	  0.054869737	-8.424000E+01	  0.054869737	3.243500E+01	  0.054869737	-4.342700E+01
176	  0.055070139	-5.982000E+00	  0.055070139	-8.563600E+01	  0.055070139	3.180000E+01	  0.055070139	-4.258600E+01
177	  0.055270538	-5.995000E+00	  0.055270538	-8.700200E+01	  0.055270538	3.121400E+01	  0.055270538	-4.176500E+01
178	  0.055470940	-6.005000E+00	  0.055470940	-8.836500E+01	  0.055470940	3.064300E+01	  0.055470940	-4.096100E+01
179	  0.055671342	-6.017000E+00	  0.055671342	-8.974100E+01	  0.055671342	3.009700E+01	  0.055671342	-4.015300E+01
180	  0.055871744	-6.027000E+00	  0.055871744	-9.113500E+01	  0.055871744	2.955700E+01	  0.055871744	-3.934900E+01
181	  0.056072142	-6.041000E+00	  0.056072142	-9.249000E+01	  0.056072142	2.906600E+01	  0.056072142	-3.856600E+01
182	  0.056272544	-6.049000E+00	  0.056272544	-9.387000E+01	  0.056272544	2.856700E+01	  0.056272544	-3.779200E+01
183	  0.056472946	-6.061000E+00	  0.056472946	-9.527600E+01	  0.056472946	2.808800E+01	  0.056472946	-3.700300E+01
184	  0.056673344	-6.070000E+00	  0.056673344	-9.664100E+01	  0.056673344	2.763300E+01	  0.056673344	-3.625200E+01
185	  0.056873746	-6.077000E+00	  0.056873746	-9.798600E+01	  0.056873746	2.719800E+01	  0.056873746	-3.552200E+01
186	  0.057074148	-6.084000E+00	  0.057074148	-9.936100E+01	  0.057074148	2.676500E+01	  0.057074148	-3.478600E+01
187	  0.057274550	-6.085000E+00	  0.057274550	-1.007240E+02	  0.057274550	2.633600E+01	  0.057274550	-3.407400E+01
188	  0.057474948	-6.090000E+00	  0.057474948	-1.020930E+02	  0.057474948	2.593000E+01	  0.057474948	-3.335900E+01
189	  0.057675350	-6.091000E+00	  0.057675350	-1.034470E+02	  0.057675350	2.553300E+01	  0.057675350	-3.266400E+01
190	  0.057875752	-6.091000E+00	  0.057875752	-1.047430E+02	  0.057875752	2.516100E+01	  0.057875752	-3.200800E+01
191	  0.058076151	-6.094000E+00	  0.058076151	-1.060530E+02	  0.058076151	2.480900E+01	  0.058076151	-3.134500E+01
192	  0.058276553	-6.097000E+00	  0.058276553	-1.073350E+02	  0.058276553	2.447800E+01	  0.058276553	-3.070000E+01
193	  0.058476955	-6.099000E+00	  0.058476955	-1.086040E+02	  0.058476955	2.415700E+01	  0.058476955	-3.006900E+01
194	  0.058677353	-6.096000E+00	  0.058677353	-1.098310E+02	  0.058677353	2.384200E+01	  0.058677353	-2.947200E+01
195	  0.058877755	-6.101000E+00	  0.058877755	-1.111170E+02	  0.058877755	2.354800E+01	  0.058877755	-2.883800E+01
196	  0.059078157	-6.102000E+00	  0.059078157	-1.123780E+02	  0.059078157	2.325600E+01	  0.059078157	-2.822900E+01
197	  0.059278559	-6.107000E+00	  0.059278559	-1.136280E+02	  0.059278559	2.299000E+01	  0.059278559	-2.762200E+01
198	  0.059478957	-6.109000E+00	  0.059478957	-1.148740E+02	  0.059478957	2.272600E+01	  0.059478957	-2.702600E+01
199	  0.059679359	-6.113000E+00	  0.059679359	-1.161290E+02	  0.059679359	2.247300E+01	  0.059679359	-2.642900E+01
200	  0.059879761	-6.119000E+00	  0.059879761	-1.173830E+02	  0.059879761	2.223600E+01	  0.059879761	-2.583300E+01
201	  0.060080159	-6.122000E+00	  0.060080159	-1.185940E+02	  0.060080159	2.200700E+01	  0.060080159	-2.526600E+01
202	  0.060280561	-6.125000E+00	  0.060280561	-1.198170E+02	  0.060280561	2.178200E+01	  0.060280561	-2.469800E+01
203	  0.060480963	-6.131000E+00	  0.060480963	-1.210480E+02	  0.060480963	2.157100E+01	  0.060480963	-2.412700E+01
204	  0.060681365	-6.132000E+00	  0.060681365	-1.222520E+02	  0.060681365	2.136100E+01	  0.060681365	-2.357700E+01
205	  0.060881764	-6.134000E+00	  0.060881764	-1.234610E+02	  0.060881764	2.115800E+01	  0.060881764	-2.302800E+01
206	  0.061082166	-6.139000E+00	  0.061082166	-1.246780E+02	  0.061082166	2.096800E+01	  0.061082166	-2.247600E+01
207	  0.061282568	-6.141000E+00	  0.061282568	-1.258700E+02	  0.061282568	2.078000E+01	  0.061282568	-2.194200E+01
208	  0.061482966	-6.144000E+00	  0.061482966	-1.270520E+02	  0.061482966	2.060300E+01	  0.061482966	-2.141500E+01
209	  0.061683368	-6.144000E+00	  0.061683368	-1.282310E+02	  0.061683368	2.042500E+01	  0.061683368	-2.089500E+01
210	  0.061883770	-6.148000E+00	  0.061883770	-1.294040E+02	  0.061883770	2.026600E+01	  0.061883770	-2.037700E+01
211	  0.062084168	-6.154000E+00	  0.062084168	-1.305470E+02	  0.062084168	2.012100E+01	  0.062084168	-1.987300E+01
212	  0.062284570	-6.160000E+00	  0.062284570	-1.316760E+02	  0.062284570	1.998300E+01	  0.062284570	-1.937800E+01
213	  0.062484972	-6.156000E+00	  0.062484972	-1.328110E+02	  0.062484972	1.982100E+01	  0.062484972	-1.889200E+01
214	  0.062685370	-6.163000E+00	  0.062685370	-1.339260E+02	  0.062685370	1.969800E+01	  0.062685370	-1.840800E+01
215	  0.062885776	-6.167000E+00	  0.062885776	-1.350800E+02	  0.062885776	1.956500E+01	  0.062885776	-1.791300E+01
216	  0.063086174	-6.173000E+00	  0.063086174	-1.362210E+02	  0.063086174	1.944400E+01	  0.063086174	-1.742400E+01
217	  0.063286573	-6.184000E+00	  0.063286573	-1.373500E+02	  0.063286573	1.934500E+01	  0.063286573	-1.693800E+01
218	  0.063486971	-6.183000E+00	  0.063486971	-1.384890E+02	  0.063486971	1.921200E+01	  0.063486971	-1.646100E+01
219	  0.063687377	-6.184000E+00	  0.063687377	-1.396270E+02	  0.063687377	1.909300E+01	  0.063687377	-1.598300E+01
220	  0.063887775	-6.186000E+00	  0.063887775	-1.407590E+02	  0.063887775	1.897900E+01	  0.063887775	-1.551100E+01
221	  0.064088173	-6.189000E+00	  0.064088173	-1.418630E+02	  0.064088173	1.887700E+01	  0.064088173	-1.505100E+01
222	  0.064288579	-6.185000E+00	  0.064288579	-1.429710E+02	  0.064288579	1.875700E+01	  0.064288579	-1.459600E+01
223	  0.064488977	-6.187000E+00	  0.064488977	-1.440680E+02	  0.064488977	1.865800E+01	  0.064488977	-1.414400E+01
224	  0.064689375	-6.180000E+00	  0.064689375	-1.451210E+02	  0.064689375	1.854600E+01	  0.064689375	-1.371700E+01
225	  0.064889781	-6.183000E+00	  0.064889781	-1.461570E+02	  0.064889781	1.846400E+01	  0.064889781	-1.329200E+01
226	  0.065090179	-6.175000E+00	  0.065090179	-1.472310E+02	  0.065090179	1.835100E+01	  0.065090179	-1.285900E+01
227	  0.065290578	-6.172000E+00	  0.065290578	-1.482360E+02	  0.065290578	1.826300E+01	  0.065290578	-1.245300E+01
228	  0.065490983	-6.166000E+00	  0.065490983	-1.492810E+02	  0.065490983	1.816400E+01	  0.065490983	-1.203300E+01
229	  0.065691382	-6.160000E+00	  0.065691382	-1.502900E+02	  0.065691382	1.807300E+01	  0.065691382	-1.162900E+01
230	  0.065891780	-6.157000E+00	  0.065891780	-1.513170E+02	  0.065891780	1.799300E+01	  0.065891780	-1.121700E+01
231	  0.066092186	-6.153000E+00	  0.066092186	-1.523090E+02	  0.066092186	1.791400E+01	  0.066092186	-1.082100E+01
232	  0.066292584	-6.145000E+00	  0.066292584	-1.533410E+02	  0.066292584	1.782300E+01	  0.066292584	-1.041100E+01
233	  0.066492982	-6.146000E+00	  0.066492982	-1.543330E+02	  0.066492982	1.776300E+01	  0.066492982	-1.001500E+01
234	  0.066693388	-6.145000E+00	  0.066693388	-1.553600E+02	  0.066693388	1.769900E+01	  0.066693388	-9.606000E+00
235	  0.066893786	-6.138000E+00	  0.066893786	-1.563510E+02	  0.066893786	1.762300E+01	  0.066893786	-9.215000E+00
236	  0.067094192	-6.132000E+00	  0.067094192	-1.573500E+02	  0.067094192	1.755200E+01	  0.067094192	-8.821000E+00
237	  0.067294590	-6.135000E+00	  0.067294590	-1.583680E+02	  0.067294590	1.750600E+01	  0.067294590	-8.417000E+00
238	  0.067494988	-6.132000E+00	  0.067494988	-1.593930E+02	  0.067494988	1.744600E+01	  0.067494988	-8.014000E+00
239	  0.067695394	-6.132000E+00	  0.067695394	-1.603760E+02	  0.067695394	1.739800E+01	  0.067695394	-7.626000E+00
240	  0.067895792	-6.130000E+00	  0.067895792	-1.613880E+02	  0.067895792	1.734800E+01	  0.067895792	-7.229000E+00
241	  0.068096191	-6.129000E+00	  0.068096191	-1.624240E+02	  0.068096191	1.730200E+01	  0.068096191	-6.823000E+00
242	  0.068296596	-6.132000E+00	  0.068296596	-1.634360E+02	  0.068296596	1.726900E+01	  0.068296596	-6.425000E+00
243	  0.068496995	-6.136000E+00	  0.068496995	-1.644570E+02	  0.068496995	1.724100E+01	  0.068496995	-6.025000E+00
244	  0.068697393	-6.133000E+00	  0.068697393	-1.654420E+02	  0.068697393	1.719800E+01	  0.068697393	-5.641000E+00
245	  0.068897791	-6.138000E+00	  0.068897791	-1.664420E+02	  0.068897791	1.718000E+01	  0.068897791	-5.250000E+00
246	  0.069098189	-6.145000E+00	  0.069098189	-1.674660E+02	  0.069098189	1.716500E+01	  0.069098189	-4.850000E+00
247	  0.069298595	-6.136000E+00	  0.069298595	-1.684940E+02	  0.069298595	1.711400E+01	  0.069298595	-4.452000E+00
248	  0.069498993	-6.135000E+00	  0.069498993	-1.694910E+02	  0.069498993	1.708700E+01	  0.069498993	-4.065000E+00
249	  0.069699399	-6.141000E+00	  0.069699399	-1.704990E+02	  0.069699399	1.707900E+01	  0.069699399	-3.672000E+00
250	  0.069899797	-6.142000E+00	  0.069899797	-1.715730E+02	  0.069899797	1.705900E+01	  0.069899797	-3.256000E+00
251	  0.070100196	-6.141000E+00	  0.070100196	-1.725870E+02	  0.070100196	1.703800E+01	  0.070100196	-2.864000E+00
252	  0.070300601	-6.146000E+00	  0.070300601	-1.735650E+02	  0.070300601	1.703500E+01	  0.070300601	-2.485000E+00
253	  0.070501000	-6.146000E+00	  0.070501000	-1.746020E+02	  0.070501000	1.702100E+01	  0.070501000	-2.084000E+00
254	  0.070701398	-6.140000E+00	  0.070701398	-1.756360E+02	  0.070701398	1.699300E+01	  0.070701398	-1.685000E+00
255	  0.070901804	-6.141000E+00	  0.070901804	-1.766450E+02	  0.070901804	1.698700E+01	  0.070901804	-1.295000E+00
256	  0.071102202	-6.141000E+00	  0.071102202	-1.776570E+02	  0.071102202	1.698000E+01	  0.071102202	-9.040000E-01
257	  0.071302600	-6.138000E+00	  0.071302600	-1.786570E+02	  0.071302600	1.696900E+01	  0.071302600	-5.180000E-01
258	  0.071503006	-6.140000E+00	  0.071503006	-1.796870E+02	  0.071503006	1.697300E+01	  0.071503006	-1.200000E-01
259	  0.071703404	-6.136000E+00	  0.071703404	1.793420E+02	  0.071703404	1.696300E+01	  0.071703404	2.530000E-01
260	  0.071903802	-6.141000E+00	  0.071903802	1.783840E+02	  0.071903802	1.697600E+01	  0.071903802	6.230000E-01
261	  0.072104208	-6.139000E+00	  0.072104208	1.773820E+02	  0.072104208	1.697800E+01	  0.072104208	1.010000E+00
262	  0.072304606	-6.137000E+00	  0.072304606	1.764160E+02	  0.072304606	1.698000E+01	  0.072304606	1.383000E+00
263	  0.072505005	-6.134000E+00	  0.072505005	1.754410E+02	  0.072505005	1.698100E+01	  0.072505005	1.760000E+00
264	  0.072705410	-6.139000E+00	  0.072705410	1.744860E+02	  0.072705410	1.700500E+01	  0.072705410	2.129000E+00
265	  0.072905809	-6.140000E+00	  0.072905809	1.735160E+02	  0.072905809	1.702000E+01	  0.072905809	2.504000E+00
266	  0.073106214	-6.140000E+00	  0.073106214	1.725520E+02	  0.073106214	1.703600E+01	  0.073106214	2.877000E+00
267	  0.073306613	-6.143000E+00	  0.073306613	1.716470E+02	  0.073306613	1.705900E+01	  0.073306613	3.227000E+00
268	  0.073507011	-6.143000E+00	  0.073507011	1.706860E+02	  0.073507011	1.708000E+01	  0.073507011	3.600000E+00
269	  0.073707417	-6.150000E+00	  0.073707417	1.697570E+02	  0.073707417	1.711800E+01	  0.073707417	3.959000E+00
270	  0.073907815	-6.154000E+00	  0.073907815	1.687700E+02	  0.073907815	1.715300E+01	  0.073907815	4.341000E+00
271	  0.074108213	-6.158000E+00	  0.074108213	1.678520E+02	  0.074108213	1.718800E+01	  0.074108213	4.697000E+00
272	  0.074308619	-6.161000E+00	  0.074308619	1.669260E+02	  0.074308619	1.722400E+01	  0.074308619	5.057000E+00
273	  0.074509017	-6.171000E+00	  0.074509017	1.659850E+02	  0.074509017	1.727900E+01	  0.074509017	5.421000E+00
274	  0.074709415	-6.178000E+00	  0.074709415	1.650480E+02	  0.074709415	1.732800E+01	  0.074709415	5.784000E+00
275	  0.074909821	-6.183000E+00	  0.074909821	1.641170E+02	  0.074909821	1.737400E+01	  0.074909821	6.146000E+00
276	  0.075110219	-6.196000E+00	  0.075110219	1.631990E+02	  0.075110219	1.744500E+01	  0.075110219	6.501000E+00
277	  0.075310618	-6.210000E+00	  0.075310618	1.622900E+02	  0.075310618	1.751600E+01	  0.075310618	6.853000E+00
278	  0.075511023	-6.220000E+00	  0.075511023	1.613750E+02	  0.075511023	1.758100E+01	  0.075511023	7.208000E+00
279	  0.075711422	-6.227000E+00	  0.075711422	1.604450E+02	  0.075711422	1.764300E+01	  0.075711422	7.570000E+00
280	  0.075911827	-6.238000E+00	  0.075911827	1.595600E+02	  0.075911827	1.771200E+01	  0.075911827	7.914000E+00
281	  0.076112226	-6.249000E+00	  0.076112226	1.586320E+02	  0.076112226	1.778900E+01	  0.076112226	8.275000E+00
282	  0.076312624	-6.259000E+00	  0.076312624	1.577070E+02	  0.076312624	1.786300E+01	  0.076312624	8.635000E+00
283	  0.076513030	-6.272000E+00	  0.076513030	1.567780E+02	  0.076513030	1.794600E+01	  0.076513030	8.996000E+00
284	  0.076713428	-6.287000E+00	  0.076713428	1.558570E+02	  0.076713428	1.804000E+01	  0.076713428	9.354000E+00
285	  0.076913826	-6.298000E+00	  0.076913826	1.549500E+02	  0.076913826	1.812300E+01	  0.076913826	9.708000E+00
286	  0.077114232	-6.307000E+00	  0.077114232	1.540100E+02	  0.077114232	1.820500E+01	  0.077114232	1.007600E+01
287	  0.077314630	-6.316000E+00	  0.077314630	1.531500E+02	  0.077314630	1.828500E+01	  0.077314630	1.041300E+01
288	  0.077515028	-6.322000E+00	  0.077515028	1.522370E+02	  0.077515028	1.836400E+01	  0.077515028	1.077300E+01
289	  0.077715434	-6.340000E+00	  0.077715434	1.513550E+02	  0.077715434	1.847000E+01	  0.077715434	1.111700E+01
290	  0.077915832	-6.350000E+00	  0.077915832	1.504810E+02	  0.077915832	1.856100E+01	  0.077915832	1.146000E+01
291	  0.078116231	-6.363000E+00	  0.078116231	1.495860E+02	  0.078116231	1.866500E+01	  0.078116231	1.181100E+01
292	  0.078316636	-6.375000E+00	  0.078316636	1.487070E+02	  0.078316636	1.876500E+01	  0.078316636	1.215600E+01
293	  0.078517035	-6.391000E+00	  0.078517035	1.478200E+02	  0.078517035	1.887900E+01	  0.078517035	1.250400E+01
294	  0.078717433	-6.406000E+00	  0.078717433	1.469700E+02	  0.078717433	1.898900E+01	  0.078717433	1.283700E+01
295	  0.078917839	-6.420000E+00	  0.078917839	1.460860E+02	  0.078917839	1.910400E+01	  0.078917839	1.318500E+01
296	  0.079118237	-6.432000E+00	  0.079118237	1.452680E+02	  0.079118237	1.920800E+01	  0.079118237	1.350800E+01
297	  0.079318643	-6.447000E+00	  0.079318643	1.444260E+02	  0.079318643	1.932500E+01	  0.079318643	1.383900E+01
298	  0.079519041	-6.460000E+00	  0.079519041	1.435770E+02	  0.079519041	1.943900E+01	  0.079519041	1.417500E+01
299	  0.079719439	-6.478000E+00	  0.079719439	1.427220E+02	  0.079719439	1.957100E+01	  0.079719439	1.451000E+01
300	  0.079919845	-6.496000E+00	  0.079919845	1.418760E+02	  0.079919845	1.970700E+01	  0.079919845	1.484200E+01
301	  0.080120243	-6.509000E+00	  0.080120243	1.410340E+02	  0.080120243	1.982800E+01	  0.080120243	1.517700E+01
302	  0.080320641	-6.525000E+00	  0.080320641	1.401900E+02	  0.080320641	1.996000E+01	  0.080320641	1.551000E+01
303	  0.080521047	-6.545000E+00	  0.080521047	1.393700E+02	  0.080521047	2.010400E+01	  0.080521047	1.583100E+01
304	  0.080721445	-6.560000E+00	  0.080721445	1.385560E+02	  0.080721445	2.023600E+01	  0.080721445	1.615400E+01
305	  0.080921844	-6.577000E+00	  0.080921844	1.377370E+02	  0.080921844	2.037700E+01	  0.080921844	1.647700E+01
306	  0.081122249	-6.599000E+00	  0.081122249	1.369410E+02	  0.081122249	2.053100E+01	  0.081122249	1.678800E+01
307	  0.081322648	-6.609000E+00	  0.081322648	1.361320E+02	  0.081322648	2.065900E+01	  0.081322648	1.711300E+01
308	  0.081523046	-6.631000E+00	  0.081523046	1.353330E+02	  0.081523046	2.081700E+01	  0.081523046	1.742500E+01
309	  0.081723452	-6.652000E+00	  0.081723452	1.345220E+02	  0.081723452	2.097900E+01	  0.081723452	1.774300E+01
310	  0.081923850	-6.669000E+00	  0.081923850	1.337420E+02	  0.081923850	2.112700E+01	  0.081923850	1.805300E+01
311	  0.082124248	-6.688000E+00	  0.082124248	1.329550E+02	  0.082124248	2.128800E+01	  0.082124248	1.836200E+01
312	  0.082324654	-6.710000E+00	  0.082324654	1.321590E+02	  0.082324654	2.145700E+01	  0.082324654	1.867300E+01
313	  0.082525052	-6.733000E+00	  0.082525052	1.313890E+02	  0.082525052	2.162900E+01	  0.082525052	1.897300E+01
314	  0.082725458	-6.750000E+00	  0.082725458	1.306360E+02	  0.082725458	2.178500E+01	  0.082725458	1.927200E+01
315	  0.082925856	-6.773000E+00	  0.082925856	1.298850E+02	  0.082925856	2.196100E+01	  0.082925856	1.956400E+01
316	  0.083126254	-6.798000E+00	  0.083126254	1.291210E+02	  0.083126254	2.214500E+01	  0.083126254	1.985900E+01
317	  0.083326660	-6.819000E+00	  0.083326660	1.283160E+02	  0.083326660	2.232900E+01	  0.083326660	2.017500E+01
318	  0.083527058	-6.842000E+00	  0.083527058	1.275450E+02	  0.083527058	2.251400E+01	  0.083527058	2.047600E+01
319	  0.083727457	-6.862000E+00	  0.083727457	1.267590E+02	  0.083727457	2.269800E+01	  0.083727457	2.078600E+01
320	  0.083927862	-6.879000E+00	  0.083927862	1.260120E+02	  0.083927862	2.287100E+01	  0.083927862	2.108200E+01
321	  0.084128261	-6.903000E+00	  0.084128261	1.252350E+02	  0.084128261	2.306900E+01	  0.084128261	2.138400E+01
322	  0.084328659	-6.924000E+00	  0.084328659	1.244640E+02	  0.084328659	2.326200E+01	  0.084328659	2.168600E+01
323	  0.084529065	-6.941000E+00	  0.084529065	1.237560E+02	  0.084529065	2.343700E+01	  0.084529065	2.196600E+01
324	  0.084729463	-6.964000E+00	  0.084729463	1.229910E+02	  0.084729463	2.363800E+01	  0.084729463	2.226500E+01
325	  0.084929861	-6.987000E+00	  0.084929861	1.222410E+02	  0.084929861	2.384300E+01	  0.084929861	2.255600E+01
326	  0.085130267	-7.010000E+00	  0.085130267	1.214980E+02	  0.085130267	2.404700E+01	  0.085130267	2.284400E+01
327	  0.085330658	-7.026000E+00	  0.085330658	1.207820E+02	  0.085330658	2.423400E+01	  0.085330658	2.312800E+01
328	  0.085531056	-7.044000E+00	  0.085531056	1.200710E+02	  0.085531056	2.442500E+01	  0.085531056	2.340900E+01
329	  0.085731462	-7.072000E+00	  0.085731462	1.193740E+02	  0.085731462	2.464400E+01	  0.085731462	2.367000E+01
330	  0.085931860	-7.095000E+00	  0.085931860	1.186500E+02	  0.085931860	2.485800E+01	  0.085931860	2.394800E+01
331	  0.086132258	-7.118000E+00	  0.086132258	1.179510E+02	  0.086132258	2.506900E+01	  0.086132258	2.421700E+01
332	  0.086332664	-7.146000E+00	  0.086332664	1.172330E+02	  0.086332664	2.530300E+01	  0.086332664	2.448500E+01
333	  0.086533062	-7.172000E+00	  0.086533062	1.165200E+02	  0.086533062	2.553200E+01	  0.086533062	2.475300E+01
334	  0.086733460	-7.194000E+00	  0.086733460	1.157930E+02	  0.086733460	2.575600E+01	  0.086733460	2.503400E+01
335	  0.086933866	-7.216000E+00	  0.086933866	1.150950E+02	  0.086933866	2.597500E+01	  0.086933866	2.530200E+01
336	  0.087134264	-7.243000E+00	  0.087134264	1.143770E+02	  0.087134264	2.621900E+01	  0.087134264	2.557000E+01
337	  0.087334670	-7.266000E+00	  0.087334670	1.136630E+02	  0.087334670	2.645300E+01	  0.087334670	2.584100E+01
338	  0.087535068	-7.300000E+00	  0.087535068	1.129340E+02	  0.087535068	2.672500E+01	  0.087535068	2.610100E+01
339	  0.087735467	-7.319000E+00	  0.087735467	1.122250E+02	  0.087735467	2.695300E+01	  0.087735467	2.637600E+01
340	  0.087935872	-7.345000E+00	  0.087935872	1.115340E+02	  0.087935872	2.720300E+01	  0.087935872	2.662900E+01
341	  0.088136271	-7.375000E+00	  0.088136271	1.108720E+02	  0.088136271	2.745600E+01	  0.088136271	2.686500E+01
342	  0.088336669	-7.405000E+00	  0.088336669	1.101810E+02	  0.088336669	2.772000E+01	  0.088336669	2.711200E+01
343	  0.088537075	-7.425000E+00	  0.088537075	1.094980E+02	  0.088537075	2.795700E+01	  0.088537075	2.737100E+01
344	  0.088737473	-7.456000E+00	  0.088737473	1.088590E+02	  0.088737473	2.821900E+01	  0.088737473	2.759000E+01
345	  0.088937871	-7.483000E+00	  0.088937871	1.081680E+02	  0.088937871	2.848400E+01	  0.088937871	2.783900E+01
346	  0.089138277	-7.506000E+00	  0.089138277	1.075200E+02	  0.089138277	2.873100E+01	  0.089138277	2.807400E+01
347	  0.089338675	-7.535000E+00	  0.089338675	1.069060E+02	  0.089338675	2.898600E+01	  0.089338675	2.828500E+01
348	  0.089539073	-7.574000E+00	  0.089539073	1.063100E+02	  0.089539073	2.926900E+01	  0.089539073	2.846500E+01
349	  0.089739479	-7.599000E+00	  0.089739479	1.056930E+02	  0.089739479	2.951900E+01	  0.089739479	2.868200E+01
350	  0.089939877	-7.638000E+00	  0.089939877	1.050680E+02	  0.089939877	2.981700E+01	  0.089939877	2.887100E+01
351	  0.090140276	-7.658000E+00	  0.090140276	1.044270E+02	  0.090140276	3.006600E+01	  0.090140276	2.910600E+01
352	  0.090340681	-7.692000E+00	  0.090340681	1.038000E+02	  0.090340681	3.035700E+01	  0.090340681	2.930200E+01
353	  0.090541080	-7.722000E+00	  0.090541080	1.031970E+02	  0.090541080	3.062900E+01	  0.090541080	2.949800E+01
354	  0.090741485	-7.754000E+00	  0.090741485	1.025470E+02	  0.090741485	3.092500E+01	  0.090741485	2.970600E+01
355	  0.090941884	-7.780000E+00	  0.090941884	1.019300E+02	  0.090941884	3.119700E+01	  0.090941884	2.991200E+01
356	  0.091142282	-7.807000E+00	  0.091142282	1.013170E+02	  0.091142282	3.147300E+01	  0.091142282	3.011200E+01
357	  0.091342688	-7.842000E+00	  0.091342688	1.007290E+02	  0.091342688	3.176800E+01	  0.091342688	3.028100E+01
358	  0.091543086	-7.870000E+00	  0.091543086	1.001090E+02	  0.091543086	3.205400E+01	  0.091543086	3.048000E+01
359	  0.091743484	-7.902000E+00	  0.091743484	9.952200E+01	  0.091743484	3.234300E+01	  0.091743484	3.065400E+01
360	  0.091943890	-7.926000E+00	  0.091943890	9.892300E+01	  0.091943890	3.261900E+01	  0.091943890	3.084700E+01
361	  0.092144288	-7.954000E+00	  0.092144288	9.836200E+01	  0.092144288	3.289500E+01	  0.092144288	3.101500E+01
362	  0.092344686	-7.977000E+00	  0.092344686	9.776900E+01	  0.092344686	3.316900E+01	  0.092344686	3.120800E+01
363	  0.092545092	-8.011000E+00	  0.092545092	9.717000E+01	  0.092545092	3.348200E+01	  0.092545092	3.137300E+01
364	  0.092745490	-8.034000E+00	  0.092745490	9.661600E+01	  0.092745490	3.374900E+01	  0.092745490	3.154400E+01
365	  0.092945889	-8.065000E+00	  0.092945889	9.609000E+01	  0.092945889	3.402800E+01	  0.092945889	3.168500E+01
366	  0.093146294	-8.100000E+00	  0.093146294	9.550300E+01	  0.093146294	3.434400E+01	  0.093146294	3.183800E+01
367	  0.093346693	-8.128000E+00	  0.093346693	9.498000E+01	  0.093346693	3.462000E+01	  0.093346693	3.198000E+01
368	  0.093547091	-8.157000E+00	  0.093547091	9.443200E+01	  0.093547091	3.491100E+01	  0.093547091	3.212700E+01
369	  0.093747497	-8.188000E+00	  0.093747497	9.386000E+01	  0.093747497	3.522000E+01	  0.093747497	3.227500E+01
370	  0.093947895	-8.217000E+00	  0.093947895	9.327700E+01	  0.093947895	3.552800E+01	  0.093947895	3.243400E+01
371	  0.094148301	-8.240000E+00	  0.094148301	9.273500E+01	  0.094148301	3.580900E+01	  0.094148301	3.258700E+01
372	  0.094348699	-8.271000E+00	  0.094348699	9.219100E+01	  0.094348699	3.611300E+01	  0.094348699	3.271900E+01
373	  0.094549097	-8.295000E+00	  0.094549097	9.166400E+01	  0.094549097	3.639500E+01	  0.094549097	3.286100E+01
374	  0.094749503	-8.330000E+00	  0.094749503	9.113900E+01	  0.094749503	3.670500E+01	  0.094749503	3.297100E+01
375	  0.094949901	-8.351000E+00	  0.094949901	9.061800E+01	  0.094949901	3.698000E+01	  0.094949901	3.311600E+01
376	  0.095150299	-8.378000E+00	  0.095150299	9.012700E+01	  0.095150299	3.726000E+01	  0.095150299	3.323000E+01
377	  0.095350705	-8.400000E+00	  0.095350705	8.960300E+01	  0.095350705	3.754400E+01	  0.095350705	3.336900E+01
378	  0.095551103	-8.422000E+00	  0.095551103	8.911000E+01	  0.095551103	3.781700E+01	  0.095551103	3.349400E+01
379	  0.095751502	-8.447000E+00	  0.095751502	8.860200E+01	  0.095751502	3.810600E+01	  0.095751502	3.361300E+01
380	  0.095951907	-8.467000E+00	  0.095951907	8.811600E+01	  0.095951907	3.837500E+01	  0.095951907	3.373800E+01
381	  0.096152306	-8.496000E+00	  0.096152306	8.767300E+01	  0.096152306	3.864700E+01	  0.096152306	3.381900E+01
382	  0.096352704	-8.515000E+00	  0.096352704	8.721000E+01	  0.096352704	3.890600E+01	  0.096352704	3.393500E+01
383	  0.096553110	-8.545000E+00	  0.096553110	8.677200E+01	  0.096553110	3.918200E+01	  0.096553110	3.400700E+01
384	  0.096753508	-8.566000E+00	  0.096753508	8.632800E+01	  0.096753508	3.944300E+01	  0.096753508	3.410400E+01
385	  0.096953906	-8.590000E+00	  0.096953906	8.586600E+01	  0.096953906	3.971700E+01	  0.096953906	3.420100E+01
386	  0.097154312	-8.613000E+00	  0.097154312	8.539300E+01	  0.097154312	3.999700E+01	  0.097154312	3.430100E+01
387	  0.097354710	-8.636000E+00	  0.097354710	8.493800E+01	  0.097354710	4.027300E+01	  0.097354710	3.438900E+01
388	  0.097555116	-8.667000E+00	  0.097555116	8.451100E+01	  0.097555116	4.055100E+01	  0.097555116	3.444600E+01
389	  0.097755514	-8.688000E+00	  0.097755514	8.405900E+01	  0.097755514	4.082400E+01	  0.097755514	3.453600E+01
390	  0.097955912	-8.705000E+00	  0.097955912	8.361200E+01	  0.097955912	4.108400E+01	  0.097955912	3.463800E+01
391	  0.098156318	-8.730000E+00	  0.098156318	8.320400E+01	  0.098156318	4.134400E+01	  0.098156318	3.470000E+01
392	  0.098356716	-8.754000E+00	  0.098356716	8.275400E+01	  0.098356716	4.162700E+01	  0.098356716	3.477400E+01
393	  0.098557115	-8.775000E+00	  0.098557115	8.233100E+01	  0.098557115	4.188700E+01	  0.098557115	3.485200E+01
394	  0.098757520	-8.789000E+00	  0.098757520	8.191600E+01	  0.098757520	4.213200E+01	  0.098757520	3.494500E+01
395	  0.098957919	-8.812000E+00	  0.098957919	8.144200E+01	  0.098957919	4.242800E+01	  0.098957919	3.502600E+01
396	  0.099158317	-8.831000E+00	  0.099158317	8.105700E+01	  0.099158317	4.267000E+01	  0.099158317	3.509200E+01
397	  0.099358723	-8.851000E+00	  0.099358723	8.065300E+01	  0.099358723	4.292500E+01	  0.099358723	3.515600E+01
398	  0.099559121	-8.868000E+00	  0.099559121	8.023700E+01	  0.099559121	4.318400E+01	  0.099559121	3.523200E+01
399	  0.099759519	-8.884000E+00	  0.099759519	7.981600E+01	  0.099759519	4.344200E+01	  0.099759519	3.531400E+01
400	  0.099959925	-8.893000E+00	  0.099959925	7.935000E+01	  0.099959925	4.371200E+01	  0.099959925	3.543200E+01
401	  0.100160323	-8.915000E+00	  0.100160323	7.896900E+01	  0.100160323	4.396500E+01	  0.100160323	3.547600E+01
402	  0.100360721	-8.928000E+00	  0.100360721	7.856100E+01	  0.100360721	4.421600E+01	  0.100360721	3.555700E+01
403	  0.100561127	-8.947000E+00	  0.100561127	7.820500E+01	  0.100561127	4.445200E+01	  0.100561127	3.560000E+01
404	  0.100761525	-8.962000E+00	  0.100761525	7.774900E+01	  0.100761525	4.473600E+01	  0.100761525	3.568600E+01
405	  0.100961931	-8.966000E+00	  0.100961931	7.727300E+01	  0.100961931	4.500900E+01	  0.100961931	3.582000E+01
406	  0.101162329	-8.981000E+00	  0.101162329	7.696100E+01	  0.101162329	4.521700E+01	  0.101162329	3.585800E+01
407	  0.101362728	-8.984000E+00	  0.101362728	7.651700E+01	  0.101362728	4.547300E+01	  0.101362728	3.598400E+01
408	  0.101563133	-9.003000E+00	  0.101563133	7.612500E+01	  0.101563133	4.573700E+01	  0.101563133	3.602700E+01
409	  0.101763532	-9.000000E+00	  0.101763532	7.567300E+01	  0.101763532	4.599300E+01	  0.101763532	3.617200E+01
410	  0.101963930	-9.009000E+00	  0.101963930	7.524900E+01	  0.101963930	4.625600E+01	  0.101963930	3.626400E+01
411	  0.102164336	-9.013000E+00	  0.102164336	7.489600E+01	  0.102164336	4.647200E+01	  0.102164336	3.634900E+01
412	  0.102364734	-9.023000E+00	  0.102364734	7.441800E+01	  0.102364734	4.677400E+01	  0.102364734	3.644800E+01
413	  0.102565132	-9.011000E+00	  0.102565132	7.398100E+01	  0.102565132	4.701300E+01	  0.102565132	3.662100E+01
414	  0.102765530	-9.022000E+00	  0.102765530	7.357500E+01	  0.102765530	4.727800E+01	  0.102765530	3.669300E+01
415	  0.102965929	-9.005000E+00	  0.102965929	7.322300E+01	  0.102965929	4.746100E+01	  0.102965929	3.685800E+01
416	  0.103166327	-9.011000E+00	  0.103166327	7.283900E+01	  0.103166327	4.770700E+01	  0.103166327	3.694200E+01
417	  0.103366733	-9.011000E+00	  0.103366733	7.245700E+01	  0.103366733	4.794300E+01	  0.103366733	3.704700E+01
418	  0.103567131	-9.015000E+00	  0.103567131	7.204300E+01	  0.103567131	4.820800E+01	  0.103567131	3.714400E+01
419	  0.103767529	-9.016000E+00	  0.103767529	7.166000E+01	  0.103767529	4.844900E+01	  0.103767529	3.724600E+01
420	  0.103967935	-9.011000E+00	  0.103967935	7.128500E+01	  0.103967935	4.867900E+01	  0.103967935	3.736400E+01
421	  0.104168333	-9.012000E+00	  0.104168333	7.087100E+01	  0.104168333	4.894400E+01	  0.104168333	3.747100E+01
422	  0.104368731	-9.013000E+00	  0.104368731	7.054500E+01	  0.104368731	4.915400E+01	  0.104368731	3.755300E+01
423	  0.104569137	-9.007000E+00	  0.104569137	7.014700E+01	  0.104569137	4.940200E+01	  0.104569137	3.768100E+01
424	  0.104769535	-9.005000E+00	  0.104769535	6.973300E+01	  0.104769535	4.966900E+01	  0.104769535	3.779700E+01
425	  0.104969934	-9.002000E+00	  0.104969934	6.935300E+01	  0.104969934	4.991500E+01	  0.104969934	3.790300E+01
426	  0.105170339	-8.994000E+00	  0.105170339	6.903400E+01	  0.105170339	5.011300E+01	  0.105170339	3.802000E+01
427	  0.105370738	-8.985000E+00	  0.105370738	6.863800E+01	  0.105370738	5.036200E+01	  0.105370738	3.815800E+01
428	  0.105571143	-8.983000E+00	  0.105571143	6.827600E+01	  0.105571143	5.060200E+01	  0.105571143	3.825800E+01
429	  0.105771542	-8.972000E+00	  0.105771542	6.780600E+01	  0.105771542	5.090400E+01	  0.105771542	3.841900E+01
430	  0.105971940	-8.965000E+00	  0.105971940	6.745600E+01	  0.105971940	5.113200E+01	  0.105971940	3.853800E+01
431	  0.106172346	-8.952000E+00	  0.106172346	6.706800E+01	  0.106172346	5.138000E+01	  0.106172346	3.869000E+01
432	  0.106372744	-8.934000E+00	  0.106372744	6.661600E+01	  0.106372744	5.166700E+01	  0.106372744	3.887800E+01
433	  0.106573142	-8.913000E+00	  0.106573142	6.622900E+01	  0.106573142	5.190800E+01	  0.106573142	3.906600E+01
434	  0.106773548	-8.905000E+00	  0.106773548	6.572700E+01	  0.106773548	5.225300E+01	  0.106773548	3.922000E+01
435	  0.106973946	-8.881000E+00	  0.106973946	6.526000E+01	  0.106973946	5.255300E+01	  0.106973946	3.943800E+01
436	  0.107174344	-8.870000E+00	  0.107174344	6.471400E+01	  0.107174344	5.293400E+01	  0.107174344	3.961400E+01
437	  0.107374750	-8.843000E+00	  0.107374750	6.424800E+01	  0.107374750	5.323800E+01	  0.107374750	3.984700E+01
438	  0.107575148	-8.813000E+00	  0.107575148	6.367000E+01	  0.107575148	5.362700E+01	  0.107575148	4.011800E+01
439	  0.107775547	-8.800000E+00	  0.107775547	6.308100E+01	  0.107775547	5.405400E+01	  0.107775547	4.030700E+01
440	  0.107975952	-8.772000E+00	  0.107975952	6.253500E+01	  0.107975952	5.443300E+01	  0.107975952	4.056400E+01
441	  0.108176351	-8.763000E+00	  0.108176351	6.192200E+01	  0.108176351	5.489700E+01	  0.108176351	4.073300E+01
442	  0.108376749	-8.730000E+00	  0.108376749	6.129500E+01	  0.108376749	5.534600E+01	  0.108376749	4.103200E+01
443	  0.108577155	-8.709000E+00	  0.108577155	6.071000E+01	  0.108577155	5.578700E+01	  0.108577155	4.125200E+01
444	  0.108777553	-8.680000E+00	  0.108777553	6.007000E+01	  0.108777553	5.626900E+01	  0.108777553	4.152800E+01
445	  0.108977959	-8.666000E+00	  0.108977959	5.940000E+01	  0.108977959	5.680300E+01	  0.108977959	4.172500E+01
446	  0.109178357	-8.643000E+00	  0.109178357	5.878500E+01	  0.109178357	5.728800E+01	  0.109178357	4.196000E+01
447	  0.109378755	-8.624000E+00	  0.109378755	5.809200E+01	  0.109378755	5.785400E+01	  0.109378755	4.218000E+01
448	  0.109579161	-8.598000E+00	  0.109579161	5.744000E+01	  0.109579161	5.838600E+01	  0.109579161	4.243100E+01
449	  0.109779559	-8.579000E+00	  0.109779559	5.674600E+01	  0.109779559	5.897200E+01	  0.109779559	4.264500E+01
450	  0.109979957	-8.553000E+00	  0.109979957	5.603500E+01	  0.109979957	5.957600E+01	  0.109979957	4.289800E+01
451	  0.110180363	-8.525000E+00	  0.110180363	5.537200E+01	  0.110180363	6.014700E+01	  0.110180363	4.315200E+01
452	  0.110380761	-8.509000E+00	  0.110380761	5.470000E+01	  0.110380761	6.074800E+01	  0.110380761	4.333700E+01
453	  0.110581160	-8.494000E+00	  0.110581160	5.401000E+01	  0.110581160	6.137500E+01	  0.110581160	4.350400E+01
454	  0.110781565	-8.475000E+00	  0.110781565	5.330500E+01	  0.110781565	6.202400E+01	  0.110781565	4.369800E+01
455	  0.110981964	-8.461000E+00	  0.110981964	5.262100E+01	  0.110981964	6.266600E+01	  0.110981964	4.384800E+01
456	  0.111182362	-8.441000E+00	  0.111182362	5.187700E+01	  0.111182362	6.337500E+01	  0.111182362	4.403100E+01
457	  0.111382768	-8.429000E+00	  0.111382768	5.116000E+01	  0.111382768	6.407300E+01	  0.111382768	4.415600E+01
458	  0.111583166	-8.415000E+00	  0.111583166	5.049300E+01	  0.111583166	6.473200E+01	  0.111583166	4.429000E+01
459	  0.111783572	-8.407000E+00	  0.111783572	4.971500E+01	  0.111783572	6.551300E+01	  0.111783572	4.437300E+01
460	  0.111983970	-8.403000E+00	  0.111983970	4.903800E+01	  0.111983970	6.620400E+01	  0.111983970	4.441400E+01
461	  0.112184368	-8.395000E+00	  0.112184368	4.825200E+01	  0.112184368	6.701500E+01	  0.112184368	4.447600E+01
462	  0.112384774	-8.404000E+00	  0.112384774	4.744300E+01	  0.112384774	6.786100E+01	  0.112384774	4.440000E+01
463	  0.112585172	-8.395000E+00	  0.112585172	4.669500E+01	  0.112585172	6.865400E+01	  0.112585172	4.443600E+01
464	  0.112785570	-8.395000E+00	  0.112785570	4.585200E+01	  0.112785570	6.955800E+01	  0.112785570	4.439700E+01
465	  0.112985976	-8.398000E+00	  0.112985976	4.505300E+01	  0.112985976	7.042200E+01	  0.112985976	4.431400E+01
466	  0.113186374	-8.402000E+00	  0.113186374	4.426800E+01	  0.113186374	7.128000E+01	  0.113186374	4.420900E+01
467	  0.113386773	-8.412000E+00	  0.113386773	4.340400E+01	  0.113386773	7.222500E+01	  0.113386773	4.402700E+01
468	  0.113587178	-8.425000E+00	  0.113587178	4.258500E+01	  0.113587178	7.312500E+01	  0.113587178	4.381200E+01
469	  0.113787577	-8.429000E+00	  0.113787577	4.172800E+01	  0.113787577	7.408400E+01	  0.113787577	4.363200E+01
470	  0.113987975	-8.440000E+00	  0.113987975	4.082300E+01	  0.113987975	7.509300E+01	  0.113987975	4.336300E+01
471	  0.114188381	-8.449000E+00	  0.114188381	3.994400E+01	  0.114188381	7.608200E+01	  0.114188381	4.308900E+01
472	  0.114388779	-8.461000E+00	  0.114388779	3.900500E+01	  0.114388779	7.713900E+01	  0.114388779	4.274900E+01
473	  0.114589177	-8.479000E+00	  0.114589177	3.810600E+01	  0.114589177	7.814200E+01	  0.114589177	4.234600E+01
474	  0.114789583	-8.487000E+00	  0.114789583	3.717100E+01	  0.114789583	7.920500E+01	  0.114789583	4.196900E+01
475	  0.114989981	-8.501000E+00	  0.114989981	3.627000E+01	  0.114989981	8.021800E+01	  0.114989981	4.153100E+01
476	  0.115190387	-8.517000E+00	  0.115190387	3.525800E+01	  0.115190387	8.135200E+01	  0.115190387	4.099300E+01
477	  0.115390785	-8.536000E+00	  0.115390785	3.429000E+01	  0.115390785	8.242500E+01	  0.115390785	4.042400E+01
478	  0.115591183	-8.550000E+00	  0.115591183	3.331600E+01	  0.115591183	8.351000E+01	  0.115591183	3.983900E+01
479	  0.115791589	-8.572000E+00	  0.115791589	3.232000E+01	  0.115791589	8.458900E+01	  0.115791589	3.915200E+01
480	  0.115991987	-8.582000E+00	  0.115991987	3.130700E+01	  0.115991987	8.571900E+01	  0.115991987	3.849900E+01
481	  0.116192386	-8.605000E+00	  0.116192386	3.028000E+01	  0.116192386	8.680900E+01	  0.116192386	3.770500E+01
482	  0.116392791	-8.631000E+00	  0.116392791	2.922300E+01	  0.116392791	8.789800E+01	  0.116392791	3.681900E+01
483	  0.116593190	-8.648000E+00	  0.116593190	2.824400E+01	  0.116593190	8.891900E+01	  0.116593190	3.601000E+01
484	  0.116793588	-8.664000E+00	  0.116793588	2.720300E+01	  0.116793588	8.999900E+01	  0.116793588	3.512500E+01
485	  0.116993994	-8.691000E+00	  0.116993994	2.610000E+01	  0.116993994	9.106300E+01	  0.116993994	3.406200E+01
486	  0.117194392	-8.714000E+00	  0.117194392	2.500900E+01	  0.117194392	9.210700E+01	  0.117194392	3.299200E+01
487	  0.117394790	-8.742000E+00	  0.117394790	2.397800E+01	  0.117394790	9.302500E+01	  0.117394790	3.189600E+01
488	  0.117595196	-8.770000E+00	  0.117595196	2.288900E+01	  0.117595196	9.397000E+01	  0.117595196	3.070900E+01
489	  0.117795594	-8.807000E+00	  0.117795594	2.181600E+01	  0.117795594	9.479400E+01	  0.117795594	2.943000E+01
490	  0.117995992	-8.849000E+00	  0.117995992	2.073700E+01	  0.117995992	9.555200E+01	  0.117995992	2.809000E+01
491	  0.118196398	-8.889000E+00	  0.118196398	1.962900E+01	  0.118196398	9.629200E+01	  0.118196398	2.669500E+01
492	  0.118396796	-8.936000E+00	  0.118396796	1.851800E+01	  0.118396796	9.693400E+01	  0.118396796	2.523200E+01
493	  0.118597202	-8.978000E+00	  0.118597202	1.738500E+01	  0.118597202	9.756600E+01	  0.118597202	2.374200E+01
494	  0.118797600	-9.041000E+00	  0.118797600	1.624000E+01	  0.118797600	9.798600E+01	  0.118797600	2.210900E+01
495	  0.118997999	-9.093000E+00	  0.118997999	1.507600E+01	  0.118997999	9.843600E+01	  0.118997999	2.049900E+01
496	  0.119198404	-9.157000E+00	  0.119198404	1.389200E+01	  0.119198404	9.873200E+01	  0.119198404	1.880100E+01
497	  0.119398803	-9.218000E+00	  0.119398803	1.266000E+01	  0.119398803	9.901200E+01	  0.119398803	1.705900E+01
498	  0.119599201	-9.289000E+00	  0.119599201	1.143000E+01	  0.119599201	9.911700E+01	  0.119599201	1.528100E+01
499	  0.119799607	-9.373000E+00	  0.119799607	1.018200E+01	  0.119799607	9.905200E+01	  0.119799607	1.345800E+01
500	  0.120000005	-9.453000E+00	  0.120000005	8.977000E+00	  0.120000005	9.892000E+01	  0.120000005	1.172600E+01
