! Anritsu VNA Master:             	Model: MS2036C/10/77
! SN:             	1601066
! /bd0/18may07/256.ns.m7.txt
! Existing Calibration Information:
! TYPE:             	Current Settings	Active Cal Settings
! TIME:             	05/07/2018 03:17:24 PM	05/07/2018 03:13:55 PM
! INTERNAL TEMP:    	61.0 C	60.5 C
! # POINTS:         	500	500
! START FREQ:       	20.000 MHz	20.000 MHz
! STOP FREQ:        	120.000 MHz	120.000 MHz
! SOURCE POWER:     	High	High
! IFBW:             	50 Hz	50 Hz
! AVG FACTOR:       	  1 	  1 
! REF PLANE 1:      	0 mm	0 mm
! REF PLANE 2:      	0 mm	0 mm
! CAL TYPE:         	Full S11	Full S11
! CAL METHOD:       	SOLT	SOLT
! CAL LINE TYPE:    	Coax	Coax
! DUT PORT 1:       	K-Conn(F)	K-Conn(F)
! DUT PORT 2:       	K-Conn(F)	K-Conn(F)
! CAL STATUS:       	OK: Accuracy High	--
! PROP-V:       	0.700
! CABLE LOSS:       	0.000 dB/m
! REF IMPEDANCE:       	50.0
! Trace Specific Parameters:	TR1	TR2	TR3	TR4
! TRACE.#.Y (GRAPH TYPE)	LOG MAG	PHASE	REAL IMPEDANCE	IMAGINARY IMPEDANCE
! TRACE.#.X 	FREQ.GHZ	FREQ.GHZ	FREQ.GHZ	FREQ.GHZ
! S-PARAMETER	S11	S11	S11	S11
! SMOOTH/APERTURE %	0	0	0	0
! WINDOW	NSL	NSL	NSL	NSL
! GATING	OFF	OFF	OFF	OFF
! FGTD	OFF	OFF	OFF	OFF
Marker Information per Trace:	TR1	TR2	TR3	TR4
!MK1	--	"MK1 TR2:  20.000 MHz,PH:-125.91°"	--	--
!MK2	--	--	"MK2 TR3:  70.100 200 MHz,Z:(16.980 ohm, -2.848 ohm)"	--
!MK3	--	--	--	--
!MK4	--	--	--	--
!MK5	--	--	--	--
!MK6	--	--	--	--
!MK7	--	--	--	--
!MK8	--	--	--	--
PNT	TR1.FREQ.GHZ	TR1.LOG MAG.dB	TR2.FREQ.GHZ	TR2.PHASE.deg	TR3.FREQ.GHZ	TR3.REAL IMPEDANCE.ohm	TR4.FREQ.GHZ	TR4.IMAGINARY IMPEDANCE.ohm
1	  0.020000000	-6.170000E-01	  0.020000000	-1.259120E+02	  0.020000000	2.239000E+00	  0.020000000	-2.548300E+01
2	  0.020200402	-6.150000E-01	  0.020200402	-1.273930E+02	  0.020200402	2.202000E+00	  0.020200402	-2.467600E+01
3	  0.020400802	-6.150000E-01	  0.020400802	-1.288540E+02	  0.020400802	2.174000E+00	  0.020400802	-2.388900E+01
4	  0.020601204	-6.190000E-01	  0.020601204	-1.303190E+02	  0.020601204	2.164000E+00	  0.020601204	-2.311000E+01
5	  0.020801604	-6.220000E-01	  0.020801604	-1.318300E+02	  0.020801604	2.146000E+00	  0.020801604	-2.231500E+01
6	  0.021002004	-6.280000E-01	  0.021002004	-1.333410E+02	  0.021002004	2.145000E+00	  0.021002004	-2.153000E+01
7	  0.021202406	-6.350000E-01	  0.021202406	-1.348680E+02	  0.021202406	2.144000E+00	  0.021202406	-2.074500E+01
8	  0.021402806	-6.420000E-01	  0.021402806	-1.364250E+02	  0.021402806	2.143000E+00	  0.021402806	-1.995400E+01
9	  0.021603208	-6.450000E-01	  0.021603208	-1.379580E+02	  0.021603208	2.132000E+00	  0.021603208	-1.918300E+01
10	  0.021803608	-6.510000E-01	  0.021803608	-1.394990E+02	  0.021803608	2.129000E+00	  0.021803608	-1.841600E+01
11	  0.022004008	-6.560000E-01	  0.022004008	-1.410220E+02	  0.022004008	2.125000E+00	  0.022004008	-1.766600E+01
12	  0.022204408	-6.630000E-01	  0.022204408	-1.425900E+02	  0.022204408	2.126000E+00	  0.022204408	-1.690100E+01
13	  0.022404809	-6.690000E-01	  0.022404809	-1.441650E+02	  0.022404809	2.125000E+00	  0.022404809	-1.613900E+01
14	  0.022605211	-6.750000E-01	  0.022605211	-1.457440E+02	  0.022605211	2.126000E+00	  0.022605211	-1.538300E+01
15	  0.022805611	-6.800000E-01	  0.022805611	-1.473490E+02	  0.022805611	2.123000E+00	  0.022805611	-1.462000E+01
16	  0.023006011	-6.820000E-01	  0.023006011	-1.489460E+02	  0.023006011	2.113000E+00	  0.023006011	-1.386800E+01
17	  0.023206413	-6.840000E-01	  0.023206413	-1.505470E+02	  0.023206413	2.104000E+00	  0.023206413	-1.312000E+01
18	  0.023406813	-6.840000E-01	  0.023406813	-1.521350E+02	  0.023406813	2.091000E+00	  0.023406813	-1.238300E+01
19	  0.023607215	-6.920000E-01	  0.023607215	-1.537230E+02	  0.023607215	2.099000E+00	  0.023607215	-1.165000E+01
20	  0.023807615	-6.990000E-01	  0.023807615	-1.553400E+02	  0.023807615	2.107000E+00	  0.023807615	-1.091000E+01
21	  0.024008015	-7.090000E-01	  0.024008015	-1.569560E+02	  0.024008015	2.124000E+00	  0.024008015	-1.017400E+01
22	  0.024208417	-7.190000E-01	  0.024208417	-1.586040E+02	  0.024208417	2.142000E+00	  0.024208417	-9.428000E+00
23	  0.024408817	-7.290000E-01	  0.024408817	-1.602610E+02	  0.024408817	2.162000E+00	  0.024408817	-8.683000E+00
24	  0.024609219	-7.380000E-01	  0.024609219	-1.619270E+02	  0.024609219	2.178000E+00	  0.024609219	-7.937000E+00
25	  0.024809619	-7.480000E-01	  0.024809619	-1.635900E+02	  0.024809619	2.196000E+00	  0.024809619	-7.195000E+00
26	  0.025010020	-7.610000E-01	  0.025010020	-1.652560E+02	  0.025010020	2.226000E+00	  0.025010020	-6.456000E+00
27	  0.025210422	-7.730000E-01	  0.025210422	-1.669400E+02	  0.025210422	2.253000E+00	  0.025210422	-5.711000E+00
28	  0.025410822	-7.870000E-01	  0.025410822	-1.686260E+02	  0.025410822	2.286000E+00	  0.025410822	-4.968000E+00
29	  0.025611224	-8.010000E-01	  0.025611224	-1.703350E+02	  0.025611224	2.322000E+00	  0.025611224	-4.217000E+00
30	  0.025811624	-8.160000E-01	  0.025811624	-1.720720E+02	  0.025811624	2.360000E+00	  0.025811624	-3.456000E+00
31	  0.026012026	-8.290000E-01	  0.026012026	-1.738210E+02	  0.026012026	2.392000E+00	  0.026012026	-2.692000E+00
32	  0.026212426	-8.390000E-01	  0.026212426	-1.755650E+02	  0.026212426	2.418000E+00	  0.026212426	-1.931000E+00
33	  0.026412826	-8.520000E-01	  0.026412826	-1.773070E+02	  0.026412826	2.451000E+00	  0.026412826	-1.172000E+00
34	  0.026613226	-8.670000E-01	  0.026613226	-1.790650E+02	  0.026613226	2.495000E+00	  0.026613226	-4.060000E-01
35	  0.026813626	-8.850000E-01	  0.026813626	1.791480E+02	  0.026813626	2.545000E+00	  0.026813626	3.700000E-01
36	  0.027014028	-9.000000E-01	  0.027014028	1.773740E+02	  0.027014028	2.591000E+00	  0.027014028	1.142000E+00
37	  0.027214428	-9.190000E-01	  0.027214428	1.755660E+02	  0.027214428	2.647000E+00	  0.027214428	1.930000E+00
38	  0.027414829	-9.340000E-01	  0.027414829	1.737530E+02	  0.027414829	2.696000E+00	  0.027414829	2.720000E+00
39	  0.027615231	-9.520000E-01	  0.027615231	1.719450E+02	  0.027615231	2.752000E+00	  0.027615231	3.509000E+00
40	  0.027815631	-9.730000E-01	  0.027815631	1.701080E+02	  0.027815631	2.818000E+00	  0.027815631	4.312000E+00
41	  0.028016033	-9.930000E-01	  0.028016033	1.682660E+02	  0.028016033	2.885000E+00	  0.028016033	5.120000E+00
42	  0.028216433	-1.014000E+00	  0.028216433	1.664270E+02	  0.028216433	2.958000E+00	  0.028216433	5.929000E+00
43	  0.028416833	-1.035000E+00	  0.028416833	1.645770E+02	  0.028416833	3.032000E+00	  0.028416833	6.745000E+00
44	  0.028617235	-1.055000E+00	  0.028617235	1.627110E+02	  0.028617235	3.105000E+00	  0.028617235	7.572000E+00
45	  0.028817635	-1.072000E+00	  0.028817635	1.608630E+02	  0.028817635	3.171000E+00	  0.028817635	8.395000E+00
46	  0.029018037	-1.093000E+00	  0.029018037	1.590260E+02	  0.029018037	3.249000E+00	  0.029018037	9.217000E+00
47	  0.029218437	-1.114000E+00	  0.029218437	1.571800E+02	  0.029218437	3.331000E+00	  0.029218437	1.004700E+01
48	  0.029418837	-1.136000E+00	  0.029418837	1.553570E+02	  0.029418837	3.422000E+00	  0.029418837	1.087200E+01
49	  0.029619239	-1.162000E+00	  0.029619239	1.534880E+02	  0.029619239	3.526000E+00	  0.029619239	1.172300E+01
50	  0.029819639	-1.189000E+00	  0.029819639	1.516070E+02	  0.029819639	3.636000E+00	  0.029819639	1.258500E+01
51	  0.030020041	-1.221000E+00	  0.030020041	1.497080E+02	  0.030020041	3.764000E+00	  0.030020041	1.346200E+01
52	  0.030220442	-1.250000E+00	  0.030220442	1.477760E+02	  0.030220442	3.891000E+00	  0.030220442	1.436200E+01
53	  0.030420844	-1.281000E+00	  0.030420844	1.458450E+02	  0.030420844	4.026000E+00	  0.030420844	1.526900E+01
54	  0.030621244	-1.311000E+00	  0.030621244	1.439180E+02	  0.030621244	4.164000E+00	  0.030621244	1.618300E+01
55	  0.030821644	-1.344000E+00	  0.030821644	1.419960E+02	  0.030821644	4.317000E+00	  0.030821644	1.710300E+01
56	  0.031022044	-1.379000E+00	  0.031022044	1.400650E+02	  0.031022044	4.480000E+00	  0.031022044	1.803700E+01
57	  0.031222444	-1.407000E+00	  0.031222444	1.381400E+02	  0.031222444	4.630000E+00	  0.031222444	1.897900E+01
58	  0.031422846	-1.444000E+00	  0.031422846	1.361670E+02	  0.031422846	4.812000E+00	  0.031422846	1.995500E+01
59	  0.031623244	-1.482000E+00	  0.031623244	1.341780E+02	  0.031623244	5.009000E+00	  0.031623244	2.095100E+01
60	  0.031823646	-1.522000E+00	  0.031823646	1.321640E+02	  0.031823646	5.221000E+00	  0.031823646	2.197300E+01
61	  0.032024048	-1.557000E+00	  0.032024048	1.301630E+02	  0.032024048	5.425000E+00	  0.032024048	2.300300E+01
62	  0.032224450	-1.594000E+00	  0.032224450	1.281450E+02	  0.032224450	5.646000E+00	  0.032224450	2.405600E+01
63	  0.032424849	-1.632000E+00	  0.032424849	1.261470E+02	  0.032424849	5.879000E+00	  0.032424849	2.511500E+01
64	  0.032625251	-1.666000E+00	  0.032625251	1.241410E+02	  0.032625251	6.109000E+00	  0.032625251	2.619600E+01
65	  0.032825653	-1.704000E+00	  0.032825653	1.221430E+02	  0.032825653	6.366000E+00	  0.032825653	2.728900E+01
66	  0.033026051	-1.743000E+00	  0.033026051	1.201310E+02	  0.033026051	6.638000E+00	  0.033026051	2.840800E+01
67	  0.033226453	-1.782000E+00	  0.033226453	1.181420E+02	  0.033226453	6.923000E+00	  0.033226453	2.953400E+01
68	  0.033426855	-1.829000E+00	  0.033426855	1.161400E+02	  0.033426855	7.252000E+00	  0.033426855	3.068400E+01
69	  0.033627257	-1.879000E+00	  0.033627257	1.141580E+02	  0.033627257	7.610000E+00	  0.033627257	3.184100E+01
70	  0.033827655	-1.931000E+00	  0.033827655	1.121250E+02	  0.033827655	7.999000E+00	  0.033827655	3.305000E+01
71	  0.034028057	-1.984000E+00	  0.034028057	1.100780E+02	  0.034028057	8.414000E+00	  0.034028057	3.429000E+01
72	  0.034228459	-2.033000E+00	  0.034228459	1.079810E+02	  0.034228459	8.840000E+00	  0.034228459	3.559000E+01
73	  0.034428857	-2.088000E+00	  0.034428857	1.058550E+02	  0.034428857	9.321000E+00	  0.034428857	3.693400E+01
74	  0.034629259	-2.137000E+00	  0.034629259	1.037290E+02	  0.034629259	9.803000E+00	  0.034629259	3.831200E+01
75	  0.034829661	-2.183000E+00	  0.034829661	1.016060E+02	  0.034829661	1.030300E+01	  0.034829661	3.972300E+01
76	  0.035030060	-2.229000E+00	  0.035030060	9.946100E+01	  0.035030060	1.083700E+01	  0.035030060	4.118400E+01
77	  0.035230462	-2.277000E+00	  0.035230462	9.734100E+01	  0.035230462	1.140900E+01	  0.035230462	4.266300E+01
78	  0.035430863	-2.321000E+00	  0.035430863	9.522500E+01	  0.035430863	1.200000E+01	  0.035430863	4.418000E+01
79	  0.035631265	-2.364000E+00	  0.035631265	9.311500E+01	  0.035631265	1.262200E+01	  0.035631265	4.573500E+01
80	  0.035831664	-2.407000E+00	  0.035831664	9.103400E+01	  0.035831664	1.328300E+01	  0.035831664	4.730800E+01
81	  0.036032066	-2.454000E+00	  0.036032066	8.896400E+01	  0.036032066	1.400800E+01	  0.036032066	4.891000E+01
82	  0.036232468	-2.497000E+00	  0.036232468	8.689600E+01	  0.036232468	1.476100E+01	  0.036232468	5.055800E+01
83	  0.036432866	-2.545000E+00	  0.036432866	8.484100E+01	  0.036432866	1.559200E+01	  0.036432866	5.223400E+01
84	  0.036633268	-2.594000E+00	  0.036633268	8.279300E+01	  0.036633268	1.648700E+01	  0.036633268	5.394600E+01
85	  0.036833670	-2.649000E+00	  0.036833670	8.073600E+01	  0.036833670	1.748300E+01	  0.036833670	5.570300E+01
86	  0.037034072	-2.707000E+00	  0.037034072	7.867600E+01	  0.037034072	1.857700E+01	  0.037034072	5.750000E+01
87	  0.037234470	-2.767000E+00	  0.037234470	7.660700E+01	  0.037234470	1.976600E+01	  0.037234470	5.934900E+01
88	  0.037434869	-2.833000E+00	  0.037434869	7.452600E+01	  0.037434869	2.109800E+01	  0.037434869	6.123700E+01
89	  0.037635271	-2.903000E+00	  0.037635271	7.242800E+01	  0.037635271	2.256300E+01	  0.037635271	6.317800E+01
90	  0.037835669	-2.975000E+00	  0.037835669	7.038700E+01	  0.037835669	2.413400E+01	  0.037835669	6.509100E+01
91	  0.038036071	-3.033000E+00	  0.038036071	6.838100E+01	  0.038036071	2.570700E+01	  0.038036071	6.705600E+01
92	  0.038236473	-3.082000E+00	  0.038236473	6.629000E+01	  0.038236473	2.739200E+01	  0.038236473	6.920000E+01
93	  0.038436871	-3.132000E+00	  0.038436871	6.416400E+01	  0.038436871	2.925100E+01	  0.038436871	7.143600E+01
94	  0.038637273	-3.182000E+00	  0.038637273	6.204500E+01	  0.038637273	3.126900E+01	  0.038637273	7.371700E+01
95	  0.038837675	-3.229000E+00	  0.038837675	5.992400E+01	  0.038837675	3.344300E+01	  0.038837675	7.607200E+01
96	  0.039038073	-3.272000E+00	  0.039038073	5.785100E+01	  0.039038073	3.573400E+01	  0.039038073	7.843900E+01
97	  0.039238475	-3.316000E+00	  0.039238475	5.578000E+01	  0.039238475	3.824100E+01	  0.039238475	8.084300E+01
98	  0.039438877	-3.365000E+00	  0.039438877	5.374500E+01	  0.039438877	4.098400E+01	  0.039438877	8.319400E+01
99	  0.039639279	-3.414000E+00	  0.039639279	5.171100E+01	  0.039639279	4.396500E+01	  0.039639279	8.557000E+01
100	  0.039839678	-3.469000E+00	  0.039839678	4.968500E+01	  0.039839678	4.727000E+01	  0.039839678	8.787200E+01
101	  0.040040080	-3.527000E+00	  0.040040080	4.764200E+01	  0.040040080	5.091500E+01	  0.040040080	9.015100E+01
102	  0.040240481	-3.586000E+00	  0.040240481	4.560500E+01	  0.040240481	5.489600E+01	  0.040240481	9.234800E+01
103	  0.040440880	-3.645000E+00	  0.040440880	4.353900E+01	  0.040440880	5.928000E+01	  0.040440880	9.450100E+01
104	  0.040641282	-3.705000E+00	  0.040641282	4.146200E+01	  0.040641282	6.408900E+01	  0.040641282	9.652500E+01
105	  0.040841684	-3.761000E+00	  0.040841684	3.940600E+01	  0.040841684	6.924000E+01	  0.040841684	9.839700E+01
106	  0.041042086	-3.816000E+00	  0.041042086	3.736000E+01	  0.041042086	7.479800E+01	  0.041042086	1.000460E+02
107	  0.041242484	-3.871000E+00	  0.041242484	3.529600E+01	  0.041242484	8.086700E+01	  0.041242484	1.014280E+02
108	  0.041442886	-3.924000E+00	  0.041442886	3.324100E+01	  0.041442886	8.737300E+01	  0.041442886	1.024690E+02
109	  0.041643288	-3.980000E+00	  0.041643288	3.116900E+01	  0.041643288	9.443300E+01	  0.041643288	1.030190E+02
110	  0.041843686	-4.029000E+00	  0.041843686	2.909900E+01	  0.041843686	1.019470E+02	  0.041843686	1.031360E+02
111	  0.042044088	-4.079000E+00	  0.042044088	2.704400E+01	  0.042044088	1.098690E+02	  0.042044088	1.025620E+02
112	  0.042244490	-4.130000E+00	  0.042244490	2.500300E+01	  0.042244490	1.181390E+02	  0.042244490	1.011400E+02
113	  0.042444889	-4.178000E+00	  0.042444889	2.299600E+01	  0.042444889	1.265850E+02	  0.042444889	9.894600E+01
114	  0.042645290	-4.227000E+00	  0.042645290	2.096800E+01	  0.042645290	1.353190E+02	  0.042645290	9.567300E+01
115	  0.042845692	-4.274000E+00	  0.042845692	1.898900E+01	  0.042845692	1.439080E+02	  0.042845692	9.142800E+01
116	  0.043046094	-4.323000E+00	  0.043046094	1.698000E+01	  0.043046094	1.524660E+02	  0.043046094	8.586000E+01
117	  0.043246493	-4.368000E+00	  0.043246493	1.498500E+01	  0.043246493	1.606900E+02	  0.043246493	7.923000E+01
118	  0.043446895	-4.414000E+00	  0.043446895	1.299600E+01	  0.043446895	1.682940E+02	  0.043446895	7.135000E+01
119	  0.043647297	-4.460000E+00	  0.043647297	1.101500E+01	  0.043647297	1.750720E+02	  0.043647297	6.236900E+01
120	  0.043847695	-4.506000E+00	  0.043847695	9.049000E+00	  0.043847695	1.807110E+02	  0.043847695	5.240100E+01
121	  0.044048097	-4.552000E+00	  0.044048097	7.077000E+00	  0.044048097	1.850940E+02	  0.044048097	4.157700E+01
122	  0.044248499	-4.597000E+00	  0.044248499	5.115000E+00	  0.044248499	1.881030E+02	  0.044248499	3.025300E+01
123	  0.044448901	-4.641000E+00	  0.044448901	3.168000E+00	  0.044448901	1.895790E+02	  0.044448901	1.870700E+01
124	  0.044649299	-4.683000E+00	  0.044649299	1.235000E+00	  0.044649299	1.896170E+02	  0.044649299	7.228000E+00
125	  0.044849701	-4.728000E+00	  0.044849701	-6.810000E-01	  0.044849701	1.881050E+02	  0.044849701	-3.912000E+00
126	  0.045050103	-4.768000E+00	  0.045050103	-2.580000E+00	  0.045050103	1.854780E+02	  0.045050103	-1.447500E+01
127	  0.045250501	-4.810000E+00	  0.045250501	-4.504000E+00	  0.045250501	1.815740E+02	  0.045250501	-2.447600E+01
128	  0.045450903	-4.848000E+00	  0.045450903	-6.399000E+00	  0.045450903	1.768770E+02	  0.045450903	-3.354900E+01
129	  0.045651305	-4.887000E+00	  0.045651305	-8.289000E+00	  0.045651305	1.713760E+02	  0.045651305	-4.167700E+01
130	  0.045851704	-4.927000E+00	  0.045851704	-1.013200E+01	  0.045851704	1.653750E+02	  0.045851704	-4.863700E+01
131	  0.046052106	-4.968000E+00	  0.046052106	-1.201500E+01	  0.046052106	1.588650E+02	  0.046052106	-5.478600E+01
132	  0.046252504	-5.006000E+00	  0.046252504	-1.387300E+01	  0.046252504	1.522580E+02	  0.046252504	-5.996200E+01
133	  0.046452906	-5.044000E+00	  0.046452906	-1.570700E+01	  0.046452906	1.456440E+02	  0.046452906	-6.422600E+01
134	  0.046653304	-5.083000E+00	  0.046653304	-1.755800E+01	  0.046653304	1.389670E+02	  0.046653304	-6.770000E+01
135	  0.046853706	-5.121000E+00	  0.046853706	-1.939600E+01	  0.046853706	1.324610E+02	  0.046853706	-7.045200E+01
136	  0.047054108	-5.159000E+00	  0.047054108	-2.122100E+01	  0.047054108	1.261750E+02	  0.047054108	-7.254700E+01
137	  0.047254506	-5.194000E+00	  0.047254506	-2.304700E+01	  0.047254506	1.201220E+02	  0.047254506	-7.413600E+01
138	  0.047454908	-5.229000E+00	  0.047454908	-2.482700E+01	  0.047454908	1.144520E+02	  0.047454908	-7.520000E+01
139	  0.047655310	-5.260000E+00	  0.047655310	-2.662100E+01	  0.047655310	1.090110E+02	  0.047655310	-7.593100E+01
140	  0.047855709	-5.291000E+00	  0.047855709	-2.838100E+01	  0.047855709	1.039240E+02	  0.047855709	-7.628500E+01
141	  0.048056111	-5.324000E+00	  0.048056111	-3.011500E+01	  0.048056111	9.915900E+01	  0.048056111	-7.629800E+01
142	  0.048256513	-5.356000E+00	  0.048256513	-3.186300E+01	  0.048256513	9.461400E+01	  0.048256513	-7.608300E+01
143	  0.048456915	-5.386000E+00	  0.048456915	-3.359600E+01	  0.048456915	9.035800E+01	  0.048456915	-7.568800E+01
144	  0.048657313	-5.418000E+00	  0.048657313	-3.533100E+01	  0.048657313	8.634000E+01	  0.048657313	-7.506800E+01
145	  0.048857715	-5.445000E+00	  0.048857715	-3.706600E+01	  0.048857715	8.254700E+01	  0.048857715	-7.439000E+01
146	  0.049058117	-5.476000E+00	  0.049058117	-3.880900E+01	  0.049058117	7.896500E+01	  0.049058117	-7.352800E+01
147	  0.049258515	-5.501000E+00	  0.049258515	-4.051100E+01	  0.049258515	7.566200E+01	  0.049258515	-7.264200E+01
148	  0.049458917	-5.527000E+00	  0.049458917	-4.221400E+01	  0.049458917	7.255000E+01	  0.049458917	-7.166300E+01
149	  0.049659319	-5.556000E+00	  0.049659319	-4.392100E+01	  0.049659319	6.962200E+01	  0.049659319	-7.058000E+01
150	  0.049859721	-5.584000E+00	  0.049859721	-4.558800E+01	  0.049859721	6.692800E+01	  0.049859721	-6.947800E+01
151	  0.050060119	-5.609000E+00	  0.050060119	-4.727600E+01	  0.050060119	6.434700E+01	  0.050060119	-6.835200E+01
152	  0.050260521	-5.633000E+00	  0.050260521	-4.894700E+01	  0.050260521	6.193800E+01	  0.050260521	-6.720200E+01
153	  0.050460923	-5.656000E+00	  0.050460923	-5.063400E+01	  0.050460923	5.964000E+01	  0.050460923	-6.603300E+01
154	  0.050661322	-5.673000E+00	  0.050661322	-5.229700E+01	  0.050661322	5.748100E+01	  0.050661322	-6.490700E+01
155	  0.050861724	-5.693000E+00	  0.050861724	-5.393100E+01	  0.050861724	5.548700E+01	  0.050861724	-6.376000E+01
156	  0.051062126	-5.708000E+00	  0.051062126	-5.556800E+01	  0.051062126	5.357700E+01	  0.051062126	-6.263400E+01
157	  0.051262524	-5.726000E+00	  0.051262524	-5.717800E+01	  0.051262524	5.181300E+01	  0.051262524	-6.149600E+01
158	  0.051462926	-5.744000E+00	  0.051462926	-5.873700E+01	  0.051462926	5.019700E+01	  0.051462926	-6.038300E+01
159	  0.051663328	-5.757000E+00	  0.051663328	-6.029500E+01	  0.051663328	4.864400E+01	  0.051663328	-5.930400E+01
160	  0.051863730	-5.772000E+00	  0.051863730	-6.183500E+01	  0.051863730	4.719500E+01	  0.051863730	-5.822100E+01
161	  0.052064128	-5.790000E+00	  0.052064128	-6.337500E+01	  0.052064128	4.583000E+01	  0.052064128	-5.712400E+01
162	  0.052264530	-5.807000E+00	  0.052264530	-6.489300E+01	  0.052264530	4.454500E+01	  0.052264530	-5.605700E+01
163	  0.052464932	-5.822000E+00	  0.052464932	-6.640600E+01	  0.052464932	4.331900E+01	  0.052464932	-5.500900E+01
164	  0.052665330	-5.841000E+00	  0.052665330	-6.794900E+01	  0.052665330	4.214300E+01	  0.052665330	-5.392800E+01
165	  0.052865732	-5.860000E+00	  0.052865732	-6.944700E+01	  0.052865732	4.106300E+01	  0.052865732	-5.288100E+01
166	  0.053066134	-5.881000E+00	  0.053066134	-7.096100E+01	  0.053066134	4.002700E+01	  0.053066134	-5.182900E+01
167	  0.053266536	-5.894000E+00	  0.053266536	-7.246100E+01	  0.053266536	3.901900E+01	  0.053266536	-5.083300E+01
168	  0.053466935	-5.908000E+00	  0.053466935	-7.398700E+01	  0.053466935	3.804600E+01	  0.053466935	-4.982300E+01
169	  0.053667337	-5.921000E+00	  0.053667337	-7.545500E+01	  0.053667337	3.714700E+01	  0.053667337	-4.886500E+01
170	  0.053867739	-5.935000E+00	  0.053867739	-7.696700E+01	  0.053867739	3.626400E+01	  0.053867739	-4.788900E+01
171	  0.054068137	-5.943000E+00	  0.054068137	-7.844800E+01	  0.054068137	3.541600E+01	  0.054068137	-4.696200E+01
172	  0.054268539	-5.950000E+00	  0.054268539	-7.990800E+01	  0.054268539	3.461700E+01	  0.054268539	-4.605800E+01
173	  0.054468941	-5.961000E+00	  0.054468941	-8.134800E+01	  0.054468941	3.387400E+01	  0.054468941	-4.516200E+01
174	  0.054669339	-5.970000E+00	  0.054669339	-8.277100E+01	  0.054669339	3.316400E+01	  0.054669339	-4.429400E+01
175	  0.054869737	-5.980000E+00	  0.054869737	-8.419400E+01	  0.054869737	3.248600E+01	  0.054869737	-4.342900E+01
176	  0.055070139	-5.992000E+00	  0.055070139	-8.559500E+01	  0.055070139	3.185800E+01	  0.055070139	-4.257900E+01
177	  0.055270538	-6.002000E+00	  0.055270538	-8.695100E+01	  0.055270538	3.126600E+01	  0.055270538	-4.177100E+01
178	  0.055470940	-6.013000E+00	  0.055470940	-8.835400E+01	  0.055470940	3.067800E+01	  0.055470940	-4.094400E+01
179	  0.055671342	-6.023000E+00	  0.055671342	-8.975000E+01	  0.055671342	3.011500E+01	  0.055671342	-4.013100E+01
180	  0.055871744	-6.031000E+00	  0.055871744	-9.113800E+01	  0.055871744	2.956800E+01	  0.055871744	-3.933800E+01
181	  0.056072142	-6.041000E+00	  0.056072142	-9.252600E+01	  0.056072142	2.905200E+01	  0.056072142	-3.854600E+01
182	  0.056272544	-6.052000E+00	  0.056272544	-9.389600E+01	  0.056272544	2.856600E+01	  0.056272544	-3.777100E+01
183	  0.056472946	-6.062000E+00	  0.056472946	-9.530000E+01	  0.056472946	2.808300E+01	  0.056472946	-3.698800E+01
184	  0.056673344	-6.072000E+00	  0.056673344	-9.667900E+01	  0.056673344	2.762900E+01	  0.056673344	-3.622600E+01
185	  0.056873746	-6.076000E+00	  0.056873746	-9.803300E+01	  0.056873746	2.717900E+01	  0.056873746	-3.550000E+01
186	  0.057074148	-6.084000E+00	  0.057074148	-9.937800E+01	  0.057074148	2.676100E+01	  0.057074148	-3.477700E+01
187	  0.057274550	-6.087000E+00	  0.057274550	-1.007620E+02	  0.057274550	2.633000E+01	  0.057274550	-3.405100E+01
188	  0.057474948	-6.088000E+00	  0.057474948	-1.021060E+02	  0.057474948	2.591900E+01	  0.057474948	-3.335600E+01
189	  0.057675350	-6.089000E+00	  0.057675350	-1.034240E+02	  0.057675350	2.553200E+01	  0.057675350	-3.268100E+01
190	  0.057875752	-6.090000E+00	  0.057875752	-1.047630E+02	  0.057875752	2.515300E+01	  0.057875752	-3.200000E+01
191	  0.058076151	-6.095000E+00	  0.058076151	-1.060720E+02	  0.058076151	2.480800E+01	  0.058076151	-3.133300E+01
192	  0.058276553	-6.097000E+00	  0.058276553	-1.073320E+02	  0.058276553	2.447800E+01	  0.058276553	-3.070100E+01
193	  0.058476955	-6.098000E+00	  0.058476955	-1.085970E+02	  0.058476955	2.415600E+01	  0.058476955	-3.007400E+01
194	  0.058677353	-6.101000E+00	  0.058677353	-1.098370E+02	  0.058677353	2.385700E+01	  0.058677353	-2.946100E+01
195	  0.058877755	-6.105000E+00	  0.058877755	-1.111210E+02	  0.058877755	2.355800E+01	  0.058877755	-2.883100E+01
196	  0.059078157	-6.109000E+00	  0.059078157	-1.123620E+02	  0.059078157	2.328100E+01	  0.059078157	-2.822600E+01
197	  0.059278559	-6.110000E+00	  0.059278559	-1.136060E+02	  0.059278559	2.300500E+01	  0.059278559	-2.762800E+01
198	  0.059478957	-6.115000E+00	  0.059478957	-1.148640E+02	  0.059478957	2.274700E+01	  0.059478957	-2.702300E+01
199	  0.059679359	-6.120000E+00	  0.059679359	-1.161230E+02	  0.059679359	2.249700E+01	  0.059679359	-2.642200E+01
200	  0.059879761	-6.124000E+00	  0.059879761	-1.173500E+02	  0.059879761	2.225800E+01	  0.059879761	-2.584200E+01
201	  0.060080159	-6.130000E+00	  0.060080159	-1.185820E+02	  0.060080159	2.203400E+01	  0.060080159	-2.526100E+01
202	  0.060280561	-6.131000E+00	  0.060280561	-1.198030E+02	  0.060280561	2.180400E+01	  0.060280561	-2.469700E+01
203	  0.060480963	-6.133000E+00	  0.060480963	-1.210430E+02	  0.060480963	2.157900E+01	  0.060480963	-2.412700E+01
204	  0.060681365	-6.139000E+00	  0.060681365	-1.222590E+02	  0.060681365	2.138100E+01	  0.060681365	-2.356600E+01
205	  0.060881764	-6.141000E+00	  0.060881764	-1.234580E+02	  0.060881764	2.118000E+01	  0.060881764	-2.302100E+01
206	  0.061082166	-6.143000E+00	  0.061082166	-1.246810E+02	  0.061082166	2.097900E+01	  0.061082166	-2.247000E+01
207	  0.061282568	-6.148000E+00	  0.061282568	-1.258740E+02	  0.061282568	2.080200E+01	  0.061282568	-2.193300E+01
208	  0.061482966	-6.147000E+00	  0.061482966	-1.270600E+02	  0.061482966	2.061200E+01	  0.061482966	-2.140800E+01
209	  0.061683368	-6.148000E+00	  0.061683368	-1.282130E+02	  0.061683368	2.044100E+01	  0.061683368	-2.089800E+01
210	  0.061883770	-6.150000E+00	  0.061883770	-1.294000E+02	  0.061883770	2.027100E+01	  0.061883770	-2.037700E+01
211	  0.062084168	-6.162000E+00	  0.062084168	-1.305500E+02	  0.062084168	2.014300E+01	  0.062084168	-1.986400E+01
212	  0.062284570	-6.164000E+00	  0.062284570	-1.316750E+02	  0.062284570	1.999500E+01	  0.062284570	-1.937500E+01
213	  0.062484972	-6.162000E+00	  0.062484972	-1.327460E+02	  0.062484972	1.984700E+01	  0.062484972	-1.891500E+01
214	  0.062685370	-6.169000E+00	  0.062685370	-1.339100E+02	  0.062685370	1.971600E+01	  0.062685370	-1.841000E+01
215	  0.062885776	-6.171000E+00	  0.062885776	-1.350190E+02	  0.062885776	1.958400E+01	  0.062885776	-1.793500E+01
216	  0.063086174	-6.184000E+00	  0.063086174	-1.361510E+02	  0.063086174	1.948300E+01	  0.063086174	-1.744500E+01
217	  0.063286573	-6.193000E+00	  0.063286573	-1.372720E+02	  0.063286573	1.937900E+01	  0.063286573	-1.696400E+01
218	  0.063486971	-6.197000E+00	  0.063486971	-1.383890E+02	  0.063486971	1.926200E+01	  0.063486971	-1.649200E+01
219	  0.063687377	-6.201000E+00	  0.063687377	-1.394630E+02	  0.063687377	1.915800E+01	  0.063687377	-1.604000E+01
220	  0.063887775	-6.206000E+00	  0.063887775	-1.405770E+02	  0.063887775	1.905400E+01	  0.063887775	-1.557300E+01
221	  0.064088173	-6.207000E+00	  0.064088173	-1.416670E+02	  0.064088173	1.894600E+01	  0.064088173	-1.512100E+01
222	  0.064288579	-6.209000E+00	  0.064288579	-1.427680E+02	  0.064288579	1.884100E+01	  0.064288579	-1.466500E+01
223	  0.064488977	-6.209000E+00	  0.064488977	-1.438110E+02	  0.064488977	1.874200E+01	  0.064488977	-1.423600E+01
224	  0.064689375	-6.207000E+00	  0.064689375	-1.448880E+02	  0.064689375	1.864000E+01	  0.064689375	-1.379600E+01
225	  0.064889781	-6.210000E+00	  0.064889781	-1.459370E+02	  0.064889781	1.855400E+01	  0.064889781	-1.336600E+01
226	  0.065090179	-6.207000E+00	  0.065090179	-1.469640E+02	  0.065090179	1.846000E+01	  0.065090179	-1.295000E+01
227	  0.065290578	-6.200000E+00	  0.065290578	-1.479780E+02	  0.065290578	1.835700E+01	  0.065290578	-1.254300E+01
228	  0.065490983	-6.200000E+00	  0.065490983	-1.490180E+02	  0.065490983	1.827600E+01	  0.065490983	-1.212200E+01
229	  0.065691382	-6.192000E+00	  0.065691382	-1.500480E+02	  0.065691382	1.817500E+01	  0.065691382	-1.171100E+01
230	  0.065891780	-6.186000E+00	  0.065891780	-1.510960E+02	  0.065891780	1.808300E+01	  0.065891780	-1.129300E+01
231	  0.066092186	-6.179000E+00	  0.066092186	-1.521460E+02	  0.066092186	1.799300E+01	  0.066092186	-1.087500E+01
232	  0.066292584	-6.175000E+00	  0.066292584	-1.531810E+02	  0.066292584	1.791400E+01	  0.066292584	-1.046200E+01
233	  0.066492982	-6.170000E+00	  0.066492982	-1.542160E+02	  0.066492982	1.783300E+01	  0.066492982	-1.005200E+01
234	  0.066693388	-6.165000E+00	  0.066693388	-1.552770E+02	  0.066693388	1.775500E+01	  0.066693388	-9.631000E+00
235	  0.066893786	-6.159000E+00	  0.066893786	-1.562870E+02	  0.066893786	1.768000E+01	  0.066893786	-9.233000E+00
236	  0.067094192	-6.153000E+00	  0.067094192	-1.573380E+02	  0.067094192	1.760700E+01	  0.067094192	-8.818000E+00
237	  0.067294590	-6.148000E+00	  0.067294590	-1.583650E+02	  0.067294590	1.754000E+01	  0.067294590	-8.414000E+00
238	  0.067494988	-6.151000E+00	  0.067494988	-1.594250E+02	  0.067494988	1.749300E+01	  0.067494988	-7.995000E+00
239	  0.067695394	-6.141000E+00	  0.067695394	-1.604420E+02	  0.067695394	1.741900E+01	  0.067695394	-7.598000E+00
240	  0.067895792	-6.134000E+00	  0.067895792	-1.614780E+02	  0.067895792	1.735400E+01	  0.067895792	-7.193000E+00
241	  0.068096191	-6.133000E+00	  0.068096191	-1.625380E+02	  0.068096191	1.730800E+01	  0.068096191	-6.777000E+00
242	  0.068296596	-6.134000E+00	  0.068296596	-1.635810E+02	  0.068296596	1.726800E+01	  0.068296596	-6.368000E+00
243	  0.068496995	-6.132000E+00	  0.068496995	-1.645890E+02	  0.068496995	1.722700E+01	  0.068496995	-5.974000E+00
244	  0.068697393	-6.127000E+00	  0.068697393	-1.655980E+02	  0.068697393	1.717800E+01	  0.068697393	-5.581000E+00
245	  0.068897791	-6.125000E+00	  0.068897791	-1.666400E+02	  0.068897791	1.713800E+01	  0.068897791	-5.175000E+00
246	  0.069098189	-6.118000E+00	  0.069098189	-1.676290E+02	  0.069098189	1.709300E+01	  0.069098189	-4.791000E+00
247	  0.069298595	-6.115000E+00	  0.069298595	-1.686240E+02	  0.069298595	1.705800E+01	  0.069298595	-4.405000E+00
248	  0.069498993	-6.113000E+00	  0.069498993	-1.696220E+02	  0.069498993	1.702600E+01	  0.069498993	-4.017000E+00
249	  0.069699399	-6.116000E+00	  0.069699399	-1.706480E+02	  0.069699399	1.701100E+01	  0.069699399	-3.618000E+00
250	  0.069899797	-6.112000E+00	  0.069899797	-1.716630E+02	  0.069899797	1.698000E+01	  0.069899797	-3.225000E+00
251	  0.070100196	-6.118000E+00	  0.070100196	-1.726360E+02	  0.070100196	1.697900E+01	  0.070100196	-2.847000E+00
252	  0.070300601	-6.118000E+00	  0.070300601	-1.736310E+02	  0.070300601	1.696300E+01	  0.070300601	-2.462000E+00
253	  0.070501000	-6.117000E+00	  0.070501000	-1.746240E+02	  0.070501000	1.694600E+01	  0.070501000	-2.078000E+00
254	  0.070701398	-6.114000E+00	  0.070701398	-1.756290E+02	  0.070701398	1.692800E+01	  0.070701398	-1.689000E+00
255	  0.070901804	-6.109000E+00	  0.070901804	-1.766260E+02	  0.070901804	1.690600E+01	  0.070901804	-1.304000E+00
256	  0.071102202	-6.107000E+00	  0.071102202	-1.775620E+02	  0.071102202	1.689400E+01	  0.071102202	-9.420000E-01
257	  0.071302600	-6.111000E+00	  0.071302600	-1.786000E+02	  0.071302600	1.690100E+01	  0.071302600	-5.400000E-01
258	  0.071503006	-6.113000E+00	  0.071503006	-1.795600E+02	  0.071503006	1.690300E+01	  0.071503006	-1.700000E-01
259	  0.071703404	-6.119000E+00	  0.071703404	1.794520E+02	  0.071703404	1.691800E+01	  0.071703404	2.110000E-01
260	  0.071903802	-6.119000E+00	  0.071903802	1.784940E+02	  0.071903802	1.692100E+01	  0.071903802	5.810000E-01
261	  0.072104208	-6.118000E+00	  0.072104208	1.775460E+02	  0.072104208	1.692300E+01	  0.072104208	9.480000E-01
262	  0.072304606	-6.123000E+00	  0.072304606	1.765540E+02	  0.072304606	1.694200E+01	  0.072304606	1.331000E+00
263	  0.072505005	-6.123000E+00	  0.072505005	1.756020E+02	  0.072505005	1.695200E+01	  0.072505005	1.699000E+00
264	  0.072705410	-6.130000E+00	  0.072705410	1.746390E+02	  0.072705410	1.698000E+01	  0.072705410	2.071000E+00
265	  0.072905809	-6.131000E+00	  0.072905809	1.736640E+02	  0.072905809	1.699600E+01	  0.072905809	2.448000E+00
266	  0.073106214	-6.135000E+00	  0.073106214	1.727010E+02	  0.073106214	1.702100E+01	  0.073106214	2.820000E+00
267	  0.073306613	-6.136000E+00	  0.073306613	1.717540E+02	  0.073306613	1.704000E+01	  0.073306613	3.187000E+00
268	  0.073507011	-6.144000E+00	  0.073507011	1.707930E+02	  0.073507011	1.707900E+01	  0.073507011	3.558000E+00
269	  0.073707417	-6.148000E+00	  0.073707417	1.698430E+02	  0.073707417	1.711200E+01	  0.073707417	3.926000E+00
270	  0.073907815	-6.151000E+00	  0.073907815	1.688970E+02	  0.073907815	1.714200E+01	  0.073907815	4.293000E+00
271	  0.074108213	-6.156000E+00	  0.074108213	1.679540E+02	  0.074108213	1.718000E+01	  0.074108213	4.658000E+00
272	  0.074308619	-6.161000E+00	  0.074308619	1.670030E+02	  0.074308619	1.722100E+01	  0.074308619	5.027000E+00
273	  0.074509017	-6.164000E+00	  0.074509017	1.660320E+02	  0.074509017	1.725800E+01	  0.074509017	5.404000E+00
274	  0.074709415	-6.173000E+00	  0.074709415	1.651060E+02	  0.074709415	1.731300E+01	  0.074709415	5.763000E+00
275	  0.074909821	-6.180000E+00	  0.074909821	1.641750E+02	  0.074909821	1.736400E+01	  0.074909821	6.124000E+00
276	  0.075110219	-6.192000E+00	  0.075110219	1.632470E+02	  0.075110219	1.743000E+01	  0.075110219	6.484000E+00
277	  0.075310618	-6.199000E+00	  0.075310618	1.623310E+02	  0.075310618	1.748500E+01	  0.075310618	6.840000E+00
278	  0.075511023	-6.205000E+00	  0.075511023	1.614250E+02	  0.075511023	1.754100E+01	  0.075511023	7.193000E+00
279	  0.075711422	-6.210000E+00	  0.075711422	1.605080E+02	  0.075711422	1.759600E+01	  0.075711422	7.551000E+00
280	  0.075911827	-6.222000E+00	  0.075911827	1.596290E+02	  0.075911827	1.766700E+01	  0.075911827	7.892000E+00
281	  0.076112226	-6.231000E+00	  0.076112226	1.586860E+02	  0.076112226	1.773800E+01	  0.076112226	8.260000E+00
282	  0.076312624	-6.242000E+00	  0.076312624	1.577660E+02	  0.076312624	1.781500E+01	  0.076312624	8.618000E+00
283	  0.076513030	-6.253000E+00	  0.076513030	1.568390E+02	  0.076513030	1.789400E+01	  0.076513030	8.979000E+00
284	  0.076713428	-6.264000E+00	  0.076713428	1.559660E+02	  0.076713428	1.797300E+01	  0.076713428	9.320000E+00
285	  0.076913826	-6.275000E+00	  0.076913826	1.550200E+02	  0.076913826	1.805900E+01	  0.076913826	9.689000E+00
286	  0.077114232	-6.287000E+00	  0.077114232	1.541470E+02	  0.077114232	1.814500E+01	  0.077114232	1.003000E+01
287	  0.077314630	-6.293000E+00	  0.077314630	1.532650E+02	  0.077314630	1.821600E+01	  0.077314630	1.037800E+01
288	  0.077515028	-6.303000E+00	  0.077515028	1.523850E+02	  0.077515028	1.830200E+01	  0.077515028	1.072400E+01
289	  0.077715434	-6.315000E+00	  0.077715434	1.514850E+02	  0.077715434	1.839700E+01	  0.077715434	1.107600E+01
290	  0.077915832	-6.326000E+00	  0.077915832	1.506250E+02	  0.077915832	1.848700E+01	  0.077915832	1.141500E+01
291	  0.078116231	-6.337000E+00	  0.078116231	1.497210E+02	  0.078116231	1.858400E+01	  0.078116231	1.177000E+01
292	  0.078316636	-6.354000E+00	  0.078316636	1.488590E+02	  0.078316636	1.869600E+01	  0.078316636	1.210700E+01
293	  0.078517035	-6.373000E+00	  0.078517035	1.479790E+02	  0.078517035	1.881700E+01	  0.078517035	1.245000E+01
294	  0.078717433	-6.388000E+00	  0.078717433	1.471290E+02	  0.078717433	1.892800E+01	  0.078717433	1.278300E+01
295	  0.078917839	-6.404000E+00	  0.078917839	1.462670E+02	  0.078917839	1.904500E+01	  0.078917839	1.312100E+01
296	  0.079118237	-6.418000E+00	  0.079118237	1.454280E+02	  0.079118237	1.915500E+01	  0.079118237	1.345200E+01
297	  0.079318643	-6.435000E+00	  0.079318643	1.445680E+02	  0.079318643	1.928100E+01	  0.079318643	1.378900E+01
298	  0.079519041	-6.451000E+00	  0.079519041	1.437100E+02	  0.079519041	1.940300E+01	  0.079519041	1.412700E+01
299	  0.079719439	-6.470000E+00	  0.079719439	1.428920E+02	  0.079719439	1.953300E+01	  0.079719439	1.444700E+01
300	  0.079919845	-6.487000E+00	  0.079919845	1.420140E+02	  0.079919845	1.966800E+01	  0.079919845	1.479200E+01
301	  0.080120243	-6.504000E+00	  0.080120243	1.411590E+02	  0.080120243	1.980100E+01	  0.080120243	1.512900E+01
302	  0.080320641	-6.523000E+00	  0.080320641	1.403220E+02	  0.080320641	1.994000E+01	  0.080320641	1.545700E+01
303	  0.080521047	-6.539000E+00	  0.080521047	1.394930E+02	  0.080521047	2.007400E+01	  0.080521047	1.578500E+01
304	  0.080721445	-6.553000E+00	  0.080721445	1.386480E+02	  0.080721445	2.020800E+01	  0.080721445	1.612100E+01
305	  0.080921844	-6.574000E+00	  0.080921844	1.378530E+02	  0.080921844	2.035500E+01	  0.080921844	1.643200E+01
306	  0.081122249	-6.588000E+00	  0.081122249	1.370120E+02	  0.081122249	2.049400E+01	  0.081122249	1.676700E+01
307	  0.081322648	-6.607000E+00	  0.081322648	1.362020E+02	  0.081322648	2.064500E+01	  0.081322648	1.708500E+01
308	  0.081523046	-6.624000E+00	  0.081523046	1.354080E+02	  0.081523046	2.078900E+01	  0.081523046	1.740000E+01
309	  0.081723452	-6.642000E+00	  0.081723452	1.345820E+02	  0.081723452	2.094300E+01	  0.081723452	1.772700E+01
310	  0.081923850	-6.657000E+00	  0.081923850	1.338110E+02	  0.081923850	2.108600E+01	  0.081923850	1.803400E+01
311	  0.082124248	-6.679000E+00	  0.082124248	1.330220E+02	  0.082124248	2.125100E+01	  0.082124248	1.834300E+01
312	  0.082324654	-6.699000E+00	  0.082324654	1.322680E+02	  0.082324654	2.141100E+01	  0.082324654	1.863800E+01
313	  0.082525052	-6.717000E+00	  0.082525052	1.314790E+02	  0.082525052	2.157300E+01	  0.082525052	1.895000E+01
314	  0.082725458	-6.739000E+00	  0.082725458	1.307320E+02	  0.082725458	2.174200E+01	  0.082725458	1.924200E+01
315	  0.082925856	-6.761000E+00	  0.082925856	1.299820E+02	  0.082925856	2.191300E+01	  0.082925856	1.953500E+01
316	  0.083126254	-6.786000E+00	  0.083126254	1.292200E+02	  0.083126254	2.209800E+01	  0.083126254	1.982900E+01
317	  0.083326660	-6.805000E+00	  0.083326660	1.284560E+02	  0.083326660	2.226700E+01	  0.083326660	2.013100E+01
318	  0.083527058	-6.826000E+00	  0.083527058	1.276620E+02	  0.083527058	2.245100E+01	  0.083527058	2.044300E+01
319	  0.083727457	-6.849000E+00	  0.083727457	1.268690E+02	  0.083727457	2.264400E+01	  0.083727457	2.075300E+01
320	  0.083927862	-6.867000E+00	  0.083927862	1.261140E+02	  0.083927862	2.282000E+01	  0.083927862	2.105200E+01
321	  0.084128261	-6.889000E+00	  0.084128261	1.253420E+02	  0.084128261	2.301300E+01	  0.084128261	2.135400E+01
322	  0.084328659	-6.910000E+00	  0.084328659	1.246320E+02	  0.084328659	2.319300E+01	  0.084328659	2.163100E+01
323	  0.084529065	-6.927000E+00	  0.084529065	1.239100E+02	  0.084529065	2.337000E+01	  0.084529065	2.191800E+01
324	  0.084729463	-6.954000E+00	  0.084729463	1.231730E+02	  0.084729463	2.357700E+01	  0.084729463	2.220000E+01
325	  0.084929861	-6.974000E+00	  0.084929861	1.224380E+02	  0.084929861	2.376900E+01	  0.084929861	2.248800E+01
326	  0.085130267	-6.999000E+00	  0.085130267	1.217030E+02	  0.085130267	2.397800E+01	  0.085130267	2.277000E+01
327	  0.085330658	-7.019000E+00	  0.085330658	1.209320E+02	  0.085330658	2.418400E+01	  0.085330658	2.307300E+01
328	  0.085531056	-7.042000E+00	  0.085531056	1.202280E+02	  0.085531056	2.438800E+01	  0.085531056	2.334400E+01
329	  0.085731462	-7.066000E+00	  0.085731462	1.195220E+02	  0.085731462	2.459600E+01	  0.085731462	2.361500E+01
330	  0.085931860	-7.093000E+00	  0.085931860	1.187930E+02	  0.085931860	2.482100E+01	  0.085931860	2.389100E+01
331	  0.086132258	-7.120000E+00	  0.086132258	1.180820E+02	  0.086132258	2.504700E+01	  0.086132258	2.415800E+01
332	  0.086332664	-7.145000E+00	  0.086332664	1.173600E+02	  0.086332664	2.527300E+01	  0.086332664	2.443200E+01
333	  0.086533062	-7.173000E+00	  0.086533062	1.166330E+02	  0.086533062	2.550900E+01	  0.086533062	2.470500E+01
334	  0.086733460	-7.199000E+00	  0.086733460	1.159270E+02	  0.086733460	2.573900E+01	  0.086733460	2.497000E+01
335	  0.086933866	-7.225000E+00	  0.086933866	1.151830E+02	  0.086933866	2.598200E+01	  0.086933866	2.525000E+01
336	  0.087134264	-7.254000E+00	  0.087134264	1.144290E+02	  0.087134264	2.623700E+01	  0.087134264	2.553100E+01
337	  0.087334670	-7.279000E+00	  0.087334670	1.137310E+02	  0.087334670	2.647400E+01	  0.087334670	2.579200E+01
338	  0.087535068	-7.306000E+00	  0.087535068	1.129660E+02	  0.087535068	2.673500E+01	  0.087535068	2.607800E+01
339	  0.087735467	-7.329000E+00	  0.087735467	1.123040E+02	  0.087735467	2.696200E+01	  0.087735467	2.632600E+01
340	  0.087935872	-7.360000E+00	  0.087935872	1.115840E+02	  0.087935872	2.723100E+01	  0.087935872	2.658400E+01
341	  0.088136271	-7.384000E+00	  0.088136271	1.109160E+02	  0.088136271	2.746900E+01	  0.088136271	2.683100E+01
342	  0.088336669	-7.409000E+00	  0.088336669	1.102310E+02	  0.088336669	2.771800E+01	  0.088336669	2.708300E+01
343	  0.088537075	-7.440000E+00	  0.088537075	1.095410E+02	  0.088537075	2.798800E+01	  0.088537075	2.732600E+01
344	  0.088737473	-7.460000E+00	  0.088737473	1.088590E+02	  0.088737473	2.823000E+01	  0.088737473	2.758300E+01
345	  0.088937871	-7.491000E+00	  0.088937871	1.082360E+02	  0.088937871	2.848900E+01	  0.088937871	2.779500E+01
346	  0.089138277	-7.519000E+00	  0.089138277	1.075630E+02	  0.089138277	2.875700E+01	  0.089138277	2.803100E+01
347	  0.089338675	-7.546000E+00	  0.089338675	1.069400E+02	  0.089338675	2.900900E+01	  0.089338675	2.824800E+01
348	  0.089539073	-7.577000E+00	  0.089539073	1.063280E+02	  0.089539073	2.927300E+01	  0.089539073	2.845200E+01
349	  0.089739479	-7.611000E+00	  0.089739479	1.057010E+02	  0.089739479	2.955300E+01	  0.089739479	2.865400E+01
350	  0.089939877	-7.642000E+00	  0.089939877	1.051050E+02	  0.089939877	2.981600E+01	  0.089939877	2.884800E+01
351	  0.090140276	-7.670000E+00	  0.090140276	1.044980E+02	  0.090140276	3.007900E+01	  0.090140276	2.905100E+01
352	  0.090340681	-7.704000E+00	  0.090340681	1.038630E+02	  0.090340681	3.037100E+01	  0.090340681	2.925100E+01
353	  0.090541080	-7.728000E+00	  0.090541080	1.032240E+02	  0.090541080	3.063800E+01	  0.090541080	2.947300E+01
354	  0.090741485	-7.762000E+00	  0.090741485	1.026770E+02	  0.090741485	3.090400E+01	  0.090741485	2.963500E+01
355	  0.090941884	-7.785000E+00	  0.090941884	1.020390E+02	  0.090941884	3.117500E+01	  0.090941884	2.985500E+01
356	  0.091142282	-7.823000E+00	  0.091142282	1.014330E+02	  0.091142282	3.148000E+01	  0.091142282	3.002800E+01
357	  0.091342688	-7.851000E+00	  0.091342688	1.008510E+02	  0.091342688	3.175100E+01	  0.091342688	3.021000E+01
358	  0.091543086	-7.879000E+00	  0.091543086	1.002540E+02	  0.091543086	3.203000E+01	  0.091543086	3.039800E+01
359	  0.091743484	-7.908000E+00	  0.091743484	9.970200E+01	  0.091743484	3.229700E+01	  0.091743484	3.056500E+01
360	  0.091943890	-7.935000E+00	  0.091943890	9.912400E+01	  0.091943890	3.257400E+01	  0.091943890	3.074300E+01
361	  0.092144288	-7.963000E+00	  0.092144288	9.855600E+01	  0.092144288	3.285000E+01	  0.092144288	3.091400E+01
362	  0.092344686	-7.991000E+00	  0.092344686	9.796600E+01	  0.092344686	3.313700E+01	  0.092344686	3.109300E+01
363	  0.092545092	-8.023000E+00	  0.092545092	9.740500E+01	  0.092545092	3.342800E+01	  0.092545092	3.124700E+01
364	  0.092745490	-8.053000E+00	  0.092745490	9.684700E+01	  0.092745490	3.371200E+01	  0.092745490	3.140600E+01
365	  0.092945889	-8.087000E+00	  0.092945889	9.627900E+01	  0.092945889	3.401600E+01	  0.092945889	3.155400E+01
366	  0.093146294	-8.117000E+00	  0.093146294	9.576800E+01	  0.093146294	3.428900E+01	  0.093146294	3.168700E+01
367	  0.093346693	-8.145000E+00	  0.093346693	9.518800E+01	  0.093346693	3.458600E+01	  0.093346693	3.185100E+01
368	  0.093547091	-8.177000E+00	  0.093547091	9.467200E+01	  0.093547091	3.487000E+01	  0.093547091	3.197800E+01
369	  0.093747497	-8.206000E+00	  0.093747497	9.412100E+01	  0.093747497	3.516500E+01	  0.093747497	3.212300E+01
370	  0.093947895	-8.234000E+00	  0.093947895	9.355700E+01	  0.093947895	3.546100E+01	  0.093947895	3.227700E+01
371	  0.094148301	-8.265000E+00	  0.094148301	9.299600E+01	  0.094148301	3.576900E+01	  0.094148301	3.241600E+01
372	  0.094348699	-8.290000E+00	  0.094348699	9.246300E+01	  0.094348699	3.605000E+01	  0.094348699	3.256100E+01
373	  0.094549097	-8.321000E+00	  0.094549097	9.193500E+01	  0.094549097	3.635000E+01	  0.094549097	3.268300E+01
374	  0.094749503	-8.351000E+00	  0.094749503	9.140200E+01	  0.094749503	3.664800E+01	  0.094749503	3.281000E+01
375	  0.094949901	-8.371000E+00	  0.094949901	9.089100E+01	  0.094949901	3.691500E+01	  0.094949901	3.295300E+01
376	  0.095150299	-8.397000E+00	  0.095150299	9.040400E+01	  0.095150299	3.718900E+01	  0.095150299	3.306900E+01
377	  0.095350705	-8.418000E+00	  0.095350705	8.989200E+01	  0.095350705	3.746500E+01	  0.095350705	3.320500E+01
378	  0.095551103	-8.446000E+00	  0.095551103	8.936800E+01	  0.095551103	3.776500E+01	  0.095551103	3.332400E+01
379	  0.095751502	-8.468000E+00	  0.095751502	8.888500E+01	  0.095751502	3.803300E+01	  0.095751502	3.344400E+01
380	  0.095951907	-8.491000E+00	  0.095951907	8.841400E+01	  0.095951907	3.830100E+01	  0.095951907	3.355400E+01
381	  0.096152306	-8.515000E+00	  0.096152306	8.794400E+01	  0.096152306	3.857200E+01	  0.096152306	3.365900E+01
382	  0.096352704	-8.539000E+00	  0.096352704	8.744300E+01	  0.096352704	3.885800E+01	  0.096352704	3.377500E+01
383	  0.096553110	-8.565000E+00	  0.096553110	8.700700E+01	  0.096553110	3.912200E+01	  0.096553110	3.385800E+01
384	  0.096753508	-8.587000E+00	  0.096753508	8.656400E+01	  0.096753508	3.938100E+01	  0.096753508	3.395400E+01
385	  0.096953906	-8.610000E+00	  0.096953906	8.610700E+01	  0.096953906	3.965200E+01	  0.096953906	3.404900E+01
386	  0.097154312	-8.628000E+00	  0.097154312	8.562400E+01	  0.097154312	3.992500E+01	  0.097154312	3.416700E+01
387	  0.097354710	-8.654000E+00	  0.097354710	8.516400E+01	  0.097354710	4.020400E+01	  0.097354710	3.425300E+01
388	  0.097555116	-8.680000E+00	  0.097555116	8.473100E+01	  0.097555116	4.047500E+01	  0.097555116	3.432500E+01
389	  0.097755514	-8.698000E+00	  0.097755514	8.432200E+01	  0.097755514	4.071700E+01	  0.097755514	3.441200E+01
390	  0.097955912	-8.722000E+00	  0.097955912	8.386200E+01	  0.097955912	4.100000E+01	  0.097955912	3.449400E+01
391	  0.098156318	-8.745000E+00	  0.098156318	8.342000E+01	  0.098156318	4.127200E+01	  0.098156318	3.457400E+01
392	  0.098356716	-8.765000E+00	  0.098356716	8.298600E+01	  0.098356716	4.153500E+01	  0.098356716	3.465800E+01
393	  0.098557115	-8.781000E+00	  0.098557115	8.254500E+01	  0.098557115	4.179300E+01	  0.098557115	3.475700E+01
394	  0.098757520	-8.798000E+00	  0.098757520	8.212200E+01	  0.098757520	4.204500E+01	  0.098757520	3.484600E+01
395	  0.098957919	-8.817000E+00	  0.098957919	8.172300E+01	  0.098957919	4.229400E+01	  0.098957919	3.491500E+01
396	  0.099158317	-8.837000E+00	  0.099158317	8.128600E+01	  0.099158317	4.256300E+01	  0.099158317	3.499500E+01
397	  0.099358723	-8.855000E+00	  0.099358723	8.084800E+01	  0.099358723	4.283200E+01	  0.099358723	3.507800E+01
398	  0.099559121	-8.869000E+00	  0.099559121	8.049500E+01	  0.099559121	4.304800E+01	  0.099559121	3.514600E+01
399	  0.099759519	-8.884000E+00	  0.099759519	8.005700E+01	  0.099759519	4.331300E+01	  0.099759519	3.523600E+01
400	  0.099959925	-8.899000E+00	  0.099959925	7.970000E+01	  0.099959925	4.353600E+01	  0.099959925	3.529900E+01
401	  0.100160323	-8.916000E+00	  0.100160323	7.920900E+01	  0.100160323	4.383700E+01	  0.100160323	3.539600E+01
402	  0.100360721	-8.932000E+00	  0.100360721	7.894200E+01	  0.100360721	4.401600E+01	  0.100360721	3.542200E+01
403	  0.100561127	-8.947000E+00	  0.100561127	7.848800E+01	  0.100561127	4.429400E+01	  0.100561127	3.551400E+01
404	  0.100761525	-8.956000E+00	  0.100761525	7.806400E+01	  0.100761525	4.454700E+01	  0.100761525	3.561200E+01
405	  0.100961931	-8.971000E+00	  0.100961931	7.768300E+01	  0.100961931	4.478900E+01	  0.100961931	3.567700E+01
406	  0.101162329	-8.984000E+00	  0.101162329	7.725500E+01	  0.101162329	4.505700E+01	  0.101162329	3.575700E+01
407	  0.101362728	-8.992000E+00	  0.101362728	7.687100E+01	  0.101362728	4.528800E+01	  0.101362728	3.584700E+01
408	  0.101563133	-9.007000E+00	  0.101563133	7.641300E+01	  0.101563133	4.558000E+01	  0.101563133	3.592500E+01
409	  0.101763532	-9.017000E+00	  0.101763532	7.610500E+01	  0.101763532	4.577500E+01	  0.101763532	3.598200E+01
410	  0.101963930	-9.021000E+00	  0.101963930	7.567300E+01	  0.101963930	4.603300E+01	  0.101963930	3.609200E+01
411	  0.102164336	-9.027000E+00	  0.102164336	7.530200E+01	  0.102164336	4.626100E+01	  0.102164336	3.617800E+01
412	  0.102364734	-9.034000E+00	  0.102364734	7.489100E+01	  0.102364734	4.651400E+01	  0.102364734	3.627100E+01
413	  0.102565132	-9.042000E+00	  0.102565132	7.451900E+01	  0.102565132	4.675000E+01	  0.102565132	3.634600E+01
414	  0.102765530	-9.042000E+00	  0.102765530	7.409000E+01	  0.102765530	4.700500E+01	  0.102765530	3.646800E+01
415	  0.102965929	-9.042000E+00	  0.102965929	7.379000E+01	  0.102965929	4.718400E+01	  0.102965929	3.655400E+01
416	  0.103166327	-9.044000E+00	  0.103166327	7.343900E+01	  0.103166327	4.740100E+01	  0.103166327	3.664400E+01
417	  0.103366733	-9.046000E+00	  0.103366733	7.312200E+01	  0.103366733	4.759700E+01	  0.103366733	3.672400E+01
418	  0.103567131	-9.037000E+00	  0.103567131	7.278100E+01	  0.103567131	4.779000E+01	  0.103567131	3.685200E+01
419	  0.103767529	-9.023000E+00	  0.103767529	7.239700E+01	  0.103767529	4.800200E+01	  0.103767529	3.701600E+01
420	  0.103967935	-9.036000E+00	  0.103967935	7.209100E+01	  0.103967935	4.821500E+01	  0.103967935	3.704700E+01
421	  0.104168333	-9.020000E+00	  0.104168333	7.170500E+01	  0.104168333	4.843000E+01	  0.104168333	3.721300E+01
422	  0.104368731	-9.014000E+00	  0.104368731	7.136200E+01	  0.104368731	4.863500E+01	  0.104368731	3.733100E+01
423	  0.104569137	-8.988000E+00	  0.104569137	7.098600E+01	  0.104569137	4.882900E+01	  0.104569137	3.754000E+01
424	  0.104769535	-8.983000E+00	  0.104769535	7.062200E+01	  0.104769535	4.905400E+01	  0.104769535	3.765800E+01
425	  0.104969934	-8.961000E+00	  0.104969934	7.017200E+01	  0.104969934	4.930800E+01	  0.104969934	3.787000E+01
426	  0.105170339	-8.940000E+00	  0.105170339	6.979400E+01	  0.105170339	4.951900E+01	  0.105170339	3.806000E+01
427	  0.105370738	-8.911000E+00	  0.105370738	6.940900E+01	  0.105370738	4.972300E+01	  0.105370738	3.828800E+01
428	  0.105571143	-8.900000E+00	  0.105571143	6.891800E+01	  0.105571143	5.003200E+01	  0.105571143	3.846400E+01
429	  0.105771542	-8.869000E+00	  0.105771542	6.851700E+01	  0.105771542	5.025100E+01	  0.105771542	3.870500E+01
430	  0.105971940	-8.847000E+00	  0.105971940	6.800900E+01	  0.105971940	5.056100E+01	  0.105971940	3.893200E+01
431	  0.106172346	-8.827000E+00	  0.106172346	6.751500E+01	  0.106172346	5.086700E+01	  0.106172346	3.915200E+01
432	  0.106372744	-8.797000E+00	  0.106372744	6.701200E+01	  0.106372744	5.117100E+01	  0.106372744	3.941500E+01
433	  0.106573142	-8.774000E+00	  0.106573142	6.648800E+01	  0.106573142	5.150500E+01	  0.106573142	3.965300E+01
434	  0.106773548	-8.756000E+00	  0.106773548	6.597200E+01	  0.106773548	5.184500E+01	  0.106773548	3.986600E+01
435	  0.106973946	-8.730000E+00	  0.106973946	6.542400E+01	  0.106973946	5.220100E+01	  0.106973946	4.012400E+01
436	  0.107174344	-8.706000E+00	  0.107174344	6.488500E+01	  0.107174344	5.255900E+01	  0.107174344	4.037100E+01
437	  0.107374750	-8.691000E+00	  0.107374750	6.433600E+01	  0.107374750	5.294600E+01	  0.107374750	4.057100E+01
438	  0.107575148	-8.672000E+00	  0.107575148	6.371500E+01	  0.107575148	5.338600E+01	  0.107575148	4.081000E+01
439	  0.107775547	-8.646000E+00	  0.107775547	6.313000E+01	  0.107775547	5.379400E+01	  0.107775547	4.107600E+01
440	  0.107975952	-8.626000E+00	  0.107975952	6.255900E+01	  0.107975952	5.420900E+01	  0.107975952	4.130400E+01
441	  0.108176351	-8.597000E+00	  0.108176351	6.192600E+01	  0.108176351	5.466500E+01	  0.108176351	4.159700E+01
442	  0.108376749	-8.581000E+00	  0.108376749	6.135900E+01	  0.108376749	5.509500E+01	  0.108376749	4.180100E+01
443	  0.108577155	-8.557000E+00	  0.108577155	6.075100E+01	  0.108577155	5.555400E+01	  0.108577155	4.205600E+01
444	  0.108777553	-8.541000E+00	  0.108777553	6.007200E+01	  0.108777553	5.609000E+01	  0.108777553	4.228400E+01
445	  0.108977959	-8.518000E+00	  0.108977959	5.944000E+01	  0.108977959	5.658800E+01	  0.108977959	4.253400E+01
446	  0.109178357	-8.501000E+00	  0.109178357	5.873300E+01	  0.109178357	5.716600E+01	  0.109178357	4.276100E+01
447	  0.109378755	-8.486000E+00	  0.109378755	5.811300E+01	  0.109378755	5.768000E+01	  0.109378755	4.296100E+01
448	  0.109579161	-8.467000E+00	  0.109579161	5.742700E+01	  0.109579161	5.825700E+01	  0.109579161	4.318400E+01
449	  0.109779559	-8.453000E+00	  0.109779559	5.674600E+01	  0.109779559	5.884400E+01	  0.109779559	4.337800E+01
450	  0.109979957	-8.432000E+00	  0.109979957	5.607000E+01	  0.109979957	5.942900E+01	  0.109979957	4.361200E+01
451	  0.110180363	-8.415000E+00	  0.110180363	5.538200E+01	  0.110180363	6.004000E+01	  0.110180363	4.381200E+01
452	  0.110380761	-8.403000E+00	  0.110380761	5.468100E+01	  0.110380761	6.067700E+01	  0.110380761	4.398100E+01
453	  0.110581160	-8.391000E+00	  0.110581160	5.395700E+01	  0.110581160	6.134600E+01	  0.110581160	4.414900E+01
454	  0.110781565	-8.379000E+00	  0.110781565	5.324900E+01	  0.110781565	6.201200E+01	  0.110781565	4.430600E+01
455	  0.110981964	-8.363000E+00	  0.110981964	5.251900E+01	  0.110981964	6.270700E+01	  0.110981964	4.448000E+01
456	  0.111182362	-8.355000E+00	  0.111182362	5.176400E+01	  0.111182362	6.344300E+01	  0.111182362	4.460100E+01
457	  0.111382768	-8.343000E+00	  0.111382768	5.104400E+01	  0.111382768	6.415300E+01	  0.111382768	4.473200E+01
458	  0.111583166	-8.331000E+00	  0.111583166	5.023500E+01	  0.111583166	6.496500E+01	  0.111583166	4.485600E+01
459	  0.111783572	-8.328000E+00	  0.111783572	4.945300E+01	  0.111783572	6.576400E+01	  0.111783572	4.491100E+01
460	  0.111983970	-8.325000E+00	  0.111983970	4.869900E+01	  0.111983970	6.654600E+01	  0.111983970	4.495000E+01
461	  0.112184368	-8.319000E+00	  0.112184368	4.796700E+01	  0.112184368	6.731600E+01	  0.112184368	4.499700E+01
462	  0.112384774	-8.315000E+00	  0.112384774	4.706400E+01	  0.112384774	6.827800E+01	  0.112384774	4.501200E+01
463	  0.112585172	-8.313000E+00	  0.112585172	4.630000E+01	  0.112585172	6.910300E+01	  0.112585172	4.500600E+01
464	  0.112785570	-8.314000E+00	  0.112785570	4.541700E+01	  0.112785570	7.006700E+01	  0.112785570	4.494900E+01
465	  0.112985976	-8.311000E+00	  0.112985976	4.463700E+01	  0.112985976	7.093100E+01	  0.112985976	4.490800E+01
466	  0.113186374	-8.317000E+00	  0.113186374	4.379900E+01	  0.113186374	7.186400E+01	  0.113186374	4.478100E+01
467	  0.113386773	-8.318000E+00	  0.113386773	4.299400E+01	  0.113386773	7.277100E+01	  0.113386773	4.466700E+01
468	  0.113587178	-8.332000E+00	  0.113587178	4.208100E+01	  0.113587178	7.379700E+01	  0.113587178	4.442300E+01
469	  0.113787577	-8.339000E+00	  0.113787577	4.121100E+01	  0.113787577	7.478900E+01	  0.113787577	4.420800E+01
470	  0.113987975	-8.349000E+00	  0.113987975	4.032000E+01	  0.113987975	7.580600E+01	  0.113987975	4.393800E+01
471	  0.114188381	-8.350000E+00	  0.114188381	3.945500E+01	  0.114188381	7.681500E+01	  0.114188381	4.372100E+01
472	  0.114388779	-8.359000E+00	  0.114388779	3.854000E+01	  0.114388779	7.787500E+01	  0.114388779	4.339700E+01
473	  0.114589177	-8.372000E+00	  0.114589177	3.762400E+01	  0.114589177	7.893100E+01	  0.114589177	4.301000E+01
474	  0.114789583	-8.392000E+00	  0.114789583	3.673600E+01	  0.114789583	7.994000E+01	  0.114789583	4.255200E+01
475	  0.114989981	-8.406000E+00	  0.114989981	3.578700E+01	  0.114989981	8.103400E+01	  0.114989981	4.207900E+01
476	  0.115190387	-8.417000E+00	  0.115190387	3.487300E+01	  0.115190387	8.209100E+01	  0.115190387	4.160600E+01
477	  0.115390785	-8.437000E+00	  0.115390785	3.390100E+01	  0.115390785	8.319000E+01	  0.115390785	4.100900E+01
478	  0.115591183	-8.455000E+00	  0.115591183	3.292900E+01	  0.115591183	8.428600E+01	  0.115591183	4.038000E+01
479	  0.115791589	-8.481000E+00	  0.115791589	3.196700E+01	  0.115791589	8.533200E+01	  0.115791589	3.965400E+01
480	  0.115991987	-8.497000E+00	  0.115991987	3.093400E+01	  0.115991987	8.649200E+01	  0.115991987	3.893500E+01
481	  0.116192386	-8.517000E+00	  0.116192386	2.998500E+01	  0.116192386	8.751900E+01	  0.116192386	3.818600E+01
482	  0.116392791	-8.540000E+00	  0.116392791	2.895100E+01	  0.116392791	8.861400E+01	  0.116392791	3.731300E+01
483	  0.116593190	-8.568000E+00	  0.116593190	2.788400E+01	  0.116593190	8.970900E+01	  0.116593190	3.634400E+01
484	  0.116793588	-8.595000E+00	  0.116793588	2.687600E+01	  0.116793588	9.071300E+01	  0.116793588	3.537900E+01
485	  0.116993994	-8.628000E+00	  0.116993994	2.576400E+01	  0.116993994	9.176800E+01	  0.116993994	3.423800E+01
486	  0.117194392	-8.663000E+00	  0.117194392	2.469600E+01	  0.117194392	9.273000E+01	  0.117194392	3.308000E+01
487	  0.117394790	-8.696000E+00	  0.117394790	2.363300E+01	  0.117394790	9.365900E+01	  0.117394790	3.189800E+01
488	  0.117595196	-8.730000E+00	  0.117595196	2.254800E+01	  0.117595196	9.456100E+01	  0.117595196	3.064700E+01
489	  0.117795594	-8.773000E+00	  0.117795594	2.142300E+01	  0.117795594	9.540100E+01	  0.117795594	2.926100E+01
490	  0.117995992	-8.814000E+00	  0.117995992	2.022900E+01	  0.117995992	9.626400E+01	  0.117995992	2.778100E+01
491	  0.118196398	-8.860000E+00	  0.118196398	1.911300E+01	  0.118196398	9.695900E+01	  0.118196398	2.631500E+01
492	  0.118396796	-8.911000E+00	  0.118396796	1.793900E+01	  0.118396796	9.760600E+01	  0.118396796	2.473100E+01
493	  0.118597202	-8.962000E+00	  0.118597202	1.678500E+01	  0.118597202	9.816500E+01	  0.118597202	2.314100E+01
494	  0.118797600	-9.012000E+00	  0.118797600	1.560400E+01	  0.118797600	9.868800E+01	  0.118797600	2.151200E+01
495	  0.118997999	-9.076000E+00	  0.118997999	1.431900E+01	  0.118997999	9.909900E+01	  0.118997999	1.967400E+01
496	  0.119198404	-9.136000E+00	  0.119198404	1.308000E+01	  0.119198404	9.942200E+01	  0.119198404	1.790300E+01
497	  0.119398803	-9.200000E+00	  0.119398803	1.189300E+01	  0.119398803	9.960000E+01	  0.119398803	1.617900E+01
498	  0.119599201	-9.273000E+00	  0.119599201	1.062000E+01	  0.119599201	9.967100E+01	  0.119599201	1.432500E+01
499	  0.119799607	-9.338000E+00	  0.119799607	9.344000E+00	  0.119799607	9.972000E+01	  0.119799607	1.250700E+01
500	  0.120000005	-9.416000E+00	  0.120000005	8.006000E+00	  0.120000005	9.960400E+01	  0.120000005	1.059500E+01
