! Anritsu VNA Master:             	Model: MS2036C/10/77
! SN:             	1601066
! /bd0/18may10/252.ew.m9.txt
! Existing Calibration Information:
! TYPE:             	Current Settings	Active Cal Settings
! TIME:             	05/10/2018 06:46:36 PM	05/10/2018 06:36:47 PM
! INTERNAL TEMP:    	61.0 C	61.0 C
! # POINTS:         	487	487
! START FREQ:       	20.601 202 MHz	20.601 202 MHz
! STOP FREQ:        	117.995 991 MHz	117.995 991 MHz
! SOURCE POWER:     	High	High
! IFBW:             	50 Hz	50 Hz
! AVG FACTOR:       	  1 	  1 
! REF PLANE 1:      	0 mm	0 mm
! REF PLANE 2:      	0 mm	0 mm
! CAL TYPE:         	Full S22	Full S22
! CAL METHOD:       	SOLT	SOLT
! CAL LINE TYPE:    	Coax	Coax
! DUT PORT 1:       	K-Conn(M)	K-Conn(M)
! DUT PORT 2:       	K-Conn(M)	K-Conn(M)
! CAL STATUS:       	OK: Accuracy High	--
! PROP-V:       	0.700
! CABLE LOSS:       	0.000 dB/m
! REF IMPEDANCE:       	50.0
! Trace Specific Parameters:	TR1	TR2	TR3	TR4
! TRACE.#.Y (GRAPH TYPE)	LOG MAG	PHASE	REAL IMPEDANCE	IMAGINARY IMPEDANCE
! TRACE.#.X 	FREQ.GHZ	FREQ.GHZ	FREQ.GHZ	FREQ.GHZ
! S-PARAMETER	S22	S22	S22	S22
! SMOOTH/APERTURE %	0	0	0	0
! WINDOW	NSL	NSL	NSL	NSL
! GATING	OFF	OFF	OFF	OFF
! FGTD	OFF	OFF	OFF	OFF
Marker Information per Trace:	TR1	TR2	TR3	TR4
!MK1	--	"MK1 TR2:  20.000 MHz,##.##"	--	--
!MK2	--	--	"MK2 TR3:  70.100 200 MHz,Z:(17.595 ohm, -1.035 ohm)"	--
!MK3	--	--	--	--
!MK4	--	--	--	--
!MK5	--	--	--	--
!MK6	--	--	--	--
!MK7	--	--	--	--
!MK8	--	--	--	--
PNT	TR1.FREQ.GHZ	TR1.LOG MAG.dB	TR2.FREQ.GHZ	TR2.PHASE.deg	TR3.FREQ.GHZ	TR3.REAL IMPEDANCE.ohm	TR4.FREQ.GHZ	TR4.IMAGINARY IMPEDANCE.ohm
1	  0.020601204	-6.330000E-01	  0.020601204	-1.302200E+02	  0.020601204	2.215000E+00	  0.020601204	-2.316000E+01
2	  0.020801604	-6.370000E-01	  0.020801604	-1.317320E+02	  0.020801604	2.202000E+00	  0.020801604	-2.236500E+01
3	  0.021002004	-6.380000E-01	  0.021002004	-1.332630E+02	  0.021002004	2.180000E+00	  0.021002004	-2.156900E+01
4	  0.021202406	-6.400000E-01	  0.021202406	-1.347810E+02	  0.021202406	2.161000E+00	  0.021202406	-2.078900E+01
5	  0.021402806	-6.430000E-01	  0.021402806	-1.363000E+02	  0.021402806	2.149000E+00	  0.021402806	-2.001700E+01
6	  0.021603208	-6.440000E-01	  0.021603208	-1.378160E+02	  0.021603208	2.128000E+00	  0.021603208	-1.925400E+01
7	  0.021803608	-6.450000E-01	  0.021803608	-1.393350E+02	  0.021803608	2.112000E+00	  0.021803608	-1.849800E+01
8	  0.022004008	-6.520000E-01	  0.022004008	-1.408480E+02	  0.022004008	2.113000E+00	  0.022004008	-1.775200E+01
9	  0.022204408	-6.550000E-01	  0.022204408	-1.424030E+02	  0.022204408	2.104000E+00	  0.022204408	-1.699200E+01
10	  0.022404809	-6.630000E-01	  0.022404809	-1.439710E+02	  0.022404809	2.111000E+00	  0.022404809	-1.623300E+01
11	  0.022605211	-6.670000E-01	  0.022605211	-1.455550E+02	  0.022605211	2.103000E+00	  0.022605211	-1.547300E+01
12	  0.022805611	-6.700000E-01	  0.022805611	-1.471510E+02	  0.022805611	2.096000E+00	  0.022805611	-1.471500E+01
13	  0.023006011	-6.730000E-01	  0.023006011	-1.487400E+02	  0.023006011	2.090000E+00	  0.023006011	-1.396500E+01
14	  0.023206413	-6.780000E-01	  0.023206413	-1.503230E+02	  0.023206413	2.087000E+00	  0.023206413	-1.322400E+01
15	  0.023406813	-6.830000E-01	  0.023406813	-1.519220E+02	  0.023406813	2.089000E+00	  0.023406813	-1.248100E+01
16	  0.023607215	-6.920000E-01	  0.023607215	-1.535310E+02	  0.023607215	2.101000E+00	  0.023607215	-1.173900E+01
17	  0.023807615	-7.010000E-01	  0.023807615	-1.551680E+02	  0.023807615	2.116000E+00	  0.023807615	-1.098800E+01
18	  0.024008015	-7.100000E-01	  0.024008015	-1.568130E+02	  0.024008015	2.129000E+00	  0.024008015	-1.023900E+01
19	  0.024208417	-7.190000E-01	  0.024208417	-1.584870E+02	  0.024208417	2.143000E+00	  0.024208417	-9.481000E+00
20	  0.024408817	-7.260000E-01	  0.024408817	-1.601680E+02	  0.024408817	2.154000E+00	  0.024408817	-8.724000E+00
21	  0.024609219	-7.330000E-01	  0.024609219	-1.618450E+02	  0.024609219	2.163000E+00	  0.024609219	-7.973000E+00
22	  0.024809619	-7.440000E-01	  0.024809619	-1.635270E+02	  0.024809619	2.185000E+00	  0.024809619	-7.223000E+00
23	  0.025010020	-7.530000E-01	  0.025010020	-1.652310E+02	  0.025010020	2.202000E+00	  0.025010020	-6.467000E+00
24	  0.025210422	-7.650000E-01	  0.025210422	-1.669280E+02	  0.025210422	2.232000E+00	  0.025210422	-5.716000E+00
25	  0.025410822	-7.770000E-01	  0.025410822	-1.686380E+02	  0.025410822	2.258000E+00	  0.025410822	-4.963000E+00
26	  0.025611224	-7.880000E-01	  0.025611224	-1.703530E+02	  0.025611224	2.284000E+00	  0.025611224	-4.210000E+00
27	  0.025811624	-8.010000E-01	  0.025811624	-1.720860E+02	  0.025811624	2.314000E+00	  0.025811624	-3.450000E+00
28	  0.026012026	-8.100000E-01	  0.026012026	-1.738300E+02	  0.026012026	2.338000E+00	  0.026012026	-2.688000E+00
29	  0.026212426	-8.230000E-01	  0.026212426	-1.755720E+02	  0.026212426	2.371000E+00	  0.026212426	-1.928000E+00
30	  0.026412826	-8.360000E-01	  0.026412826	-1.773290E+02	  0.026412826	2.405000E+00	  0.026412826	-1.162000E+00
31	  0.026613226	-8.520000E-01	  0.026613226	-1.790840E+02	  0.026613226	2.450000E+00	  0.026613226	-3.980000E-01
32	  0.026813626	-8.660000E-01	  0.026813626	1.791470E+02	  0.026813626	2.491000E+00	  0.026813626	3.710000E-01
33	  0.027014028	-8.820000E-01	  0.027014028	1.773860E+02	  0.027014028	2.539000E+00	  0.027014028	1.137000E+00
34	  0.027214428	-8.990000E-01	  0.027214428	1.756120E+02	  0.027214428	2.589000E+00	  0.027214428	1.910000E+00
35	  0.027414829	-9.140000E-01	  0.027414829	1.738360E+02	  0.027414829	2.637000E+00	  0.027414829	2.684000E+00
36	  0.027615231	-9.320000E-01	  0.027615231	1.720550E+02	  0.027615231	2.695000E+00	  0.027615231	3.462000E+00
37	  0.027815631	-9.490000E-01	  0.027815631	1.702570E+02	  0.027815631	2.750000E+00	  0.027815631	4.248000E+00
38	  0.028016033	-9.690000E-01	  0.028016033	1.684410E+02	  0.028016033	2.814000E+00	  0.028016033	5.044000E+00
39	  0.028216433	-9.890000E-01	  0.028216433	1.666260E+02	  0.028216433	2.884000E+00	  0.028216433	5.842000E+00
40	  0.028416833	-1.011000E+00	  0.028416833	1.647960E+02	  0.028416833	2.959000E+00	  0.028416833	6.649000E+00
41	  0.028617235	-1.032000E+00	  0.028617235	1.629620E+02	  0.028617235	3.034000E+00	  0.028617235	7.462000E+00
42	  0.028817635	-1.054000E+00	  0.028817635	1.611250E+02	  0.028817635	3.113000E+00	  0.028817635	8.279000E+00
43	  0.029018037	-1.078000E+00	  0.029018037	1.592830E+02	  0.029018037	3.203000E+00	  0.029018037	9.102000E+00
44	  0.029218437	-1.104000E+00	  0.029218437	1.574180E+02	  0.029218437	3.300000E+00	  0.029218437	9.940000E+00
45	  0.029418837	-1.129000E+00	  0.029418837	1.555200E+02	  0.029418837	3.399000E+00	  0.029418837	1.079800E+01
46	  0.029619239	-1.157000E+00	  0.029619239	1.536340E+02	  0.029619239	3.508000E+00	  0.029619239	1.165600E+01
47	  0.029819639	-1.184000E+00	  0.029819639	1.517220E+02	  0.029819639	3.619000E+00	  0.029819639	1.253300E+01
48	  0.030020041	-1.213000E+00	  0.030020041	1.497930E+02	  0.030020041	3.739000E+00	  0.030020041	1.342300E+01
49	  0.030220442	-1.241000E+00	  0.030220442	1.478640E+02	  0.030220442	3.862000E+00	  0.030220442	1.432100E+01
50	  0.030420844	-1.270000E+00	  0.030420844	1.459450E+02	  0.030420844	3.991000E+00	  0.030420844	1.522300E+01
51	  0.030621244	-1.301000E+00	  0.030621244	1.440080E+02	  0.030621244	4.129000E+00	  0.030621244	1.614100E+01
52	  0.030821642	-1.335000E+00	  0.030821642	1.420550E+02	  0.030821642	4.287000E+00	  0.030821642	1.707600E+01
53	  0.031022044	-1.368000E+00	  0.031022044	1.401060E+02	  0.031022044	4.443000E+00	  0.031022044	1.801900E+01
54	  0.031222444	-1.395000E+00	  0.031222444	1.381550E+02	  0.031222444	4.588000E+00	  0.031222444	1.897400E+01
55	  0.031422846	-1.430000E+00	  0.031422846	1.361570E+02	  0.031422846	4.769000E+00	  0.031422846	1.996300E+01
56	  0.031623244	-1.467000E+00	  0.031623244	1.341560E+02	  0.031623244	4.959000E+00	  0.031623244	2.096600E+01
57	  0.031823646	-1.503000E+00	  0.031823646	1.321550E+02	  0.031823646	5.158000E+00	  0.031823646	2.198200E+01
58	  0.032024048	-1.541000E+00	  0.032024048	1.301550E+02	  0.032024048	5.373000E+00	  0.032024048	2.301200E+01
59	  0.032224450	-1.581000E+00	  0.032224450	1.281540E+02	  0.032224450	5.599000E+00	  0.032224450	2.405600E+01
60	  0.032424849	-1.620000E+00	  0.032424849	1.261490E+02	  0.032424849	5.838000E+00	  0.032424849	2.511800E+01
61	  0.032625251	-1.661000E+00	  0.032625251	1.241270E+02	  0.032625251	6.092000E+00	  0.032625251	2.620500E+01
62	  0.032825653	-1.699000E+00	  0.032825653	1.220990E+02	  0.032825653	6.351000E+00	  0.032825653	2.731500E+01
63	  0.033026051	-1.742000E+00	  0.033026051	1.200530E+02	  0.033026051	6.640000E+00	  0.033026051	2.845300E+01
64	  0.033226453	-1.784000E+00	  0.033226453	1.180120E+02	  0.033226453	6.938000E+00	  0.033226453	2.960800E+01
65	  0.033426855	-1.823000E+00	  0.033426855	1.159860E+02	  0.033426855	7.240000E+00	  0.033426855	3.077800E+01
66	  0.033627257	-1.867000E+00	  0.033627257	1.139650E+02	  0.033627257	7.580000E+00	  0.033627257	3.196300E+01
67	  0.033827655	-1.912000E+00	  0.033827655	1.119380E+02	  0.033827655	7.940000E+00	  0.033827655	3.317600E+01
68	  0.034028057	-1.959000E+00	  0.034028057	1.099070E+02	  0.034028057	8.329000E+00	  0.034028057	3.441300E+01
69	  0.034228459	-2.004000E+00	  0.034228459	1.078540E+02	  0.034228459	8.732000E+00	  0.034228459	3.569300E+01
70	  0.034428857	-2.055000E+00	  0.034428857	1.058020E+02	  0.034428857	9.185000E+00	  0.034428857	3.699400E+01
71	  0.034629259	-2.104000E+00	  0.034629259	1.037440E+02	  0.034629259	9.654000E+00	  0.034629259	3.833000E+01
72	  0.034829661	-2.151000E+00	  0.034829661	1.016590E+02	  0.034829661	1.014800E+01	  0.034829661	3.971700E+01
73	  0.035030060	-2.205000E+00	  0.035030060	9.958400E+01	  0.035030060	1.070300E+01	  0.035030060	4.112200E+01
74	  0.035230462	-2.259000E+00	  0.035230462	9.751700E+01	  0.035230462	1.129200E+01	  0.035230462	4.255400E+01
75	  0.035430863	-2.310000E+00	  0.035430863	9.543800E+01	  0.035430863	1.190800E+01	  0.035430863	4.403300E+01
76	  0.035631265	-2.366000E+00	  0.035631265	9.335700E+01	  0.035631265	1.258500E+01	  0.035631265	4.554500E+01
77	  0.035831664	-2.419000E+00	  0.035831664	9.126800E+01	  0.035831664	1.329400E+01	  0.035831664	4.710500E+01
78	  0.036032066	-2.475000E+00	  0.036032066	8.915500E+01	  0.036032066	1.407300E+01	  0.036032066	4.872100E+01
79	  0.036232468	-2.528000E+00	  0.036232468	8.706300E+01	  0.036232468	1.488800E+01	  0.036232468	5.036500E+01
80	  0.036432866	-2.584000E+00	  0.036432866	8.493800E+01	  0.036432866	1.578800E+01	  0.036432866	5.207700E+01
81	  0.036633268	-2.642000E+00	  0.036633268	8.282500E+01	  0.036633268	1.675700E+01	  0.036633268	5.382000E+01
82	  0.036833670	-2.697000E+00	  0.036833670	8.070600E+01	  0.036833670	1.778700E+01	  0.036833670	5.562100E+01
83	  0.037034072	-2.758000E+00	  0.037034072	7.858000E+01	  0.037034072	1.893000E+01	  0.037034072	5.746600E+01
84	  0.037234470	-2.814000E+00	  0.037234470	7.647700E+01	  0.037234470	2.012400E+01	  0.037234470	5.934800E+01
85	  0.037434869	-2.871000E+00	  0.037434869	7.435700E+01	  0.037434869	2.142900E+01	  0.037434869	6.129500E+01
86	  0.037635271	-2.929000E+00	  0.037635271	7.226200E+01	  0.037635271	2.283100E+01	  0.037635271	6.326300E+01
87	  0.037835669	-2.989000E+00	  0.037835669	7.014900E+01	  0.037835669	2.436400E+01	  0.037835669	6.529600E+01
88	  0.038036071	-3.044000E+00	  0.038036071	6.800900E+01	  0.038036071	2.601100E+01	  0.038036071	6.742600E+01
89	  0.038236473	-3.104000E+00	  0.038236473	6.588200E+01	  0.038236473	2.782500E+01	  0.038236473	6.957300E+01
90	  0.038436871	-3.163000E+00	  0.038436871	6.374900E+01	  0.038436871	2.979600E+01	  0.038436871	7.177600E+01
91	  0.038637273	-3.225000E+00	  0.038637273	6.163900E+01	  0.038637273	3.194000E+01	  0.038637273	7.398200E+01
92	  0.038837675	-3.283000E+00	  0.038837675	5.952500E+01	  0.038837675	3.424600E+01	  0.038837675	7.625000E+01
93	  0.039038073	-3.338000E+00	  0.039038073	5.744800E+01	  0.039038073	3.669200E+01	  0.039038073	7.852400E+01
94	  0.039238475	-3.394000E+00	  0.039238475	5.537100E+01	  0.039238475	3.936500E+01	  0.039238475	8.081700E+01
95	  0.039438877	-3.452000E+00	  0.039438877	5.329500E+01	  0.039438877	4.229900E+01	  0.039438877	8.310300E+01
96	  0.039639279	-3.508000E+00	  0.039639279	5.122500E+01	  0.039639279	4.546500E+01	  0.039639279	8.539700E+01
97	  0.039839678	-3.571000E+00	  0.039839678	4.913300E+01	  0.039839678	4.900800E+01	  0.039839678	8.764000E+01
98	  0.040040080	-3.625000E+00	  0.040040080	4.705000E+01	  0.040040080	5.277200E+01	  0.040040080	8.991700E+01
99	  0.040240481	-3.684000E+00	  0.040240481	4.498800E+01	  0.040240481	5.689200E+01	  0.040240481	9.203400E+01
100	  0.040440880	-3.739000E+00	  0.040440880	4.293700E+01	  0.040440880	6.131600E+01	  0.040440880	9.408100E+01
101	  0.040641282	-3.798000E+00	  0.040641282	4.089000E+01	  0.040641282	6.615100E+01	  0.040641282	9.592600E+01
102	  0.040841684	-3.854000E+00	  0.040841684	3.883500E+01	  0.040841684	7.138400E+01	  0.040841684	9.762900E+01
103	  0.041042086	-3.914000E+00	  0.041042086	3.681800E+01	  0.041042086	7.697400E+01	  0.041042086	9.897500E+01
104	  0.041242484	-3.974000E+00	  0.041242484	3.475800E+01	  0.041242484	8.312000E+01	  0.041242484	1.000230E+02
105	  0.041442886	-4.032000E+00	  0.041442886	3.271400E+01	  0.041442886	8.964300E+01	  0.041442886	1.007110E+02
106	  0.041643288	-4.088000E+00	  0.041643288	3.065800E+01	  0.041643288	9.664300E+01	  0.041643288	1.009230E+02
107	  0.041843686	-4.145000E+00	  0.041843686	2.860200E+01	  0.041843686	1.040680E+02	  0.041843686	1.005210E+02
108	  0.042044088	-4.199000E+00	  0.042044088	2.656800E+01	  0.042044088	1.117900E+02	  0.042044088	9.948800E+01
109	  0.042244490	-4.254000E+00	  0.042244490	2.452200E+01	  0.042244490	1.198710E+02	  0.042244490	9.761900E+01
110	  0.042444889	-4.310000E+00	  0.042444889	2.249100E+01	  0.042444889	1.280950E+02	  0.042444889	9.479300E+01
111	  0.042645290	-4.367000E+00	  0.042645290	2.046500E+01	  0.042645290	1.363770E+02	  0.042645290	9.095000E+01
112	  0.042845692	-4.420000E+00	  0.042845692	1.844700E+01	  0.042845692	1.445670E+02	  0.042845692	8.611400E+01
113	  0.043046094	-4.474000E+00	  0.043046094	1.642200E+01	  0.043046094	1.525260E+02	  0.043046094	8.012300E+01
114	  0.043246493	-4.526000E+00	  0.043246493	1.440000E+01	  0.043246493	1.600160E+02	  0.043246493	7.301600E+01
115	  0.043446895	-4.575000E+00	  0.043446895	1.239200E+01	  0.043446895	1.668220E+02	  0.043446895	6.491400E+01
116	  0.043647297	-4.626000E+00	  0.043647297	1.037700E+01	  0.043647297	1.727100E+02	  0.043647297	5.573200E+01
117	  0.043847695	-4.675000E+00	  0.043847695	8.395000E+00	  0.043847695	1.774330E+02	  0.043847695	4.588000E+01
118	  0.044048097	-4.723000E+00	  0.044048097	6.416000E+00	  0.044048097	1.809180E+02	  0.044048097	3.541000E+01
119	  0.044248499	-4.770000E+00	  0.044248499	4.440000E+00	  0.044248499	1.830860E+02	  0.044248499	2.455800E+01
120	  0.044448901	-4.817000E+00	  0.044448901	2.498000E+00	  0.044448901	1.837780E+02	  0.044448901	1.373000E+01
121	  0.044649299	-4.864000E+00	  0.044649299	5.620000E-01	  0.044649299	1.831360E+02	  0.044649299	3.047000E+00
122	  0.044849701	-4.909000E+00	  0.044849701	-1.371000E+00	  0.044849701	1.812800E+02	  0.044849701	-7.282000E+00
123	  0.045050103	-4.955000E+00	  0.045050103	-3.293000E+00	  0.045050103	1.782440E+02	  0.045050103	-1.701200E+01
124	  0.045250501	-4.997000E+00	  0.045250501	-5.221000E+00	  0.045250501	1.743070E+02	  0.045250501	-2.610200E+01
125	  0.045450903	-5.041000E+00	  0.045450903	-7.131000E+00	  0.045450903	1.695240E+02	  0.045450903	-3.429900E+01
126	  0.045651305	-5.084000E+00	  0.045651305	-9.036000E+00	  0.045651305	1.641330E+02	  0.045651305	-4.162400E+01
127	  0.045851704	-5.124000E+00	  0.045851704	-1.091300E+01	  0.045851704	1.583900E+02	  0.045851704	-4.799300E+01
128	  0.046052102	-5.167000E+00	  0.046052102	-1.279900E+01	  0.046052102	1.522590E+02	  0.046052102	-5.349000E+01
129	  0.046252504	-5.208000E+00	  0.046252504	-1.463800E+01	  0.046252504	1.461160E+02	  0.046252504	-5.803300E+01
130	  0.046452906	-5.250000E+00	  0.046452906	-1.648700E+01	  0.046452906	1.398900E+02	  0.046452906	-6.183900E+01
131	  0.046653304	-5.293000E+00	  0.046653304	-1.834000E+01	  0.046653304	1.336770E+02	  0.046653304	-6.492300E+01
132	  0.046853706	-5.334000E+00	  0.046853706	-2.017600E+01	  0.046853706	1.276560E+02	  0.046853706	-6.737600E+01
133	  0.047054108	-5.375000E+00	  0.047054108	-2.204000E+01	  0.047054108	1.217180E+02	  0.047054108	-6.930100E+01
134	  0.047254506	-5.414000E+00	  0.047254506	-2.387500E+01	  0.047254506	1.160810E+02	  0.047254506	-7.070500E+01
135	  0.047454908	-5.453000E+00	  0.047454908	-2.570000E+01	  0.047454908	1.106980E+02	  0.047454908	-7.165600E+01
136	  0.047655310	-5.488000E+00	  0.047655310	-2.751400E+01	  0.047655310	1.056050E+02	  0.047655310	-7.229900E+01
137	  0.047855709	-5.526000E+00	  0.047855709	-2.932100E+01	  0.047855709	1.007660E+02	  0.047855709	-7.256000E+01
138	  0.048056111	-5.563000E+00	  0.048056111	-3.111800E+01	  0.048056111	9.620000E+01	  0.048056111	-7.255100E+01
139	  0.048256513	-5.603000E+00	  0.048256513	-3.289800E+01	  0.048256513	9.191700E+01	  0.048256513	-7.226800E+01
140	  0.048456915	-5.636000E+00	  0.048456915	-3.468000E+01	  0.048456915	8.787200E+01	  0.048456915	-7.189200E+01
141	  0.048657313	-5.669000E+00	  0.048657313	-3.645300E+01	  0.048657313	8.407100E+01	  0.048657313	-7.135200E+01
142	  0.048857715	-5.700000E+00	  0.048857715	-3.822600E+01	  0.048857715	8.048200E+01	  0.048857715	-7.069700E+01
143	  0.049058117	-5.727000E+00	  0.049058117	-3.998500E+01	  0.049058117	7.711700E+01	  0.049058117	-6.997000E+01
144	  0.049258515	-5.756000E+00	  0.049258515	-4.169300E+01	  0.049258515	7.403800E+01	  0.049258515	-6.913300E+01
145	  0.049458917	-5.782000E+00	  0.049458917	-4.342500E+01	  0.049458917	7.108300E+01	  0.049458917	-6.824400E+01
146	  0.049659319	-5.815000E+00	  0.049659319	-4.514100E+01	  0.049659319	6.834000E+01	  0.049659319	-6.721700E+01
147	  0.049859721	-5.840000E+00	  0.049859721	-4.682600E+01	  0.049859721	6.578000E+01	  0.049859721	-6.623800E+01
148	  0.050060119	-5.866000E+00	  0.050060119	-4.848800E+01	  0.050060119	6.339600E+01	  0.050060119	-6.521100E+01
149	  0.050260521	-5.887000E+00	  0.050260521	-5.017300E+01	  0.050260521	6.109500E+01	  0.050260521	-6.419200E+01
150	  0.050460923	-5.913000E+00	  0.050460923	-5.183900E+01	  0.050460923	5.896000E+01	  0.050460923	-6.311000E+01
151	  0.050661322	-5.930000E+00	  0.050661322	-5.348000E+01	  0.050661322	5.694200E+01	  0.050661322	-6.209000E+01
152	  0.050861724	-5.949000E+00	  0.050861724	-5.510900E+01	  0.050861724	5.505200E+01	  0.050861724	-6.104100E+01
153	  0.051062126	-5.976000E+00	  0.051062126	-5.669900E+01	  0.051062126	5.333200E+01	  0.051062126	-5.994400E+01
154	  0.051262524	-5.995000E+00	  0.051262524	-5.830000E+01	  0.051262524	5.166200E+01	  0.051262524	-5.889100E+01
155	  0.051462926	-6.016000E+00	  0.051462926	-5.987200E+01	  0.051462926	5.011500E+01	  0.051462926	-5.783300E+01
156	  0.051663328	-6.036000E+00	  0.051663328	-6.145000E+01	  0.051663328	4.862900E+01	  0.051663328	-5.678600E+01
157	  0.051863730	-6.056000E+00	  0.051863730	-6.300800E+01	  0.051863730	4.724300E+01	  0.051863730	-5.574200E+01
158	  0.052064128	-6.074000E+00	  0.052064128	-6.454100E+01	  0.052064128	4.593500E+01	  0.052064128	-5.473200E+01
159	  0.052264530	-6.088000E+00	  0.052264530	-6.610300E+01	  0.052264530	4.465200E+01	  0.052264530	-5.372700E+01
160	  0.052464932	-6.105000E+00	  0.052464932	-6.762700E+01	  0.052464932	4.347000E+01	  0.052464932	-5.273400E+01
161	  0.052665330	-6.124000E+00	  0.052665330	-6.914300E+01	  0.052665330	4.235800E+01	  0.052665330	-5.174000E+01
162	  0.052865732	-6.142000E+00	  0.052865732	-7.065100E+01	  0.052865732	4.130000E+01	  0.052865732	-5.076200E+01
163	  0.053066134	-6.158000E+00	  0.053066134	-7.216900E+01	  0.053066134	4.027300E+01	  0.053066134	-4.979600E+01
164	  0.053266536	-6.176000E+00	  0.053266536	-7.364700E+01	  0.053266536	3.933000E+01	  0.053266536	-4.885100E+01
165	  0.053466935	-6.195000E+00	  0.053466935	-7.514600E+01	  0.053466935	3.841900E+01	  0.053466935	-4.789800E+01
166	  0.053667337	-6.212000E+00	  0.053667337	-7.665200E+01	  0.053667337	3.753900E+01	  0.053667337	-4.695600E+01
167	  0.053867739	-6.222000E+00	  0.053867739	-7.811800E+01	  0.053867739	3.669000E+01	  0.053867739	-4.607800E+01
168	  0.054068137	-6.235000E+00	  0.054068137	-7.962200E+01	  0.054068137	3.587000E+01	  0.054068137	-4.517200E+01
169	  0.054268539	-6.249000E+00	  0.054268539	-8.108600E+01	  0.054268539	3.511100E+01	  0.054268539	-4.429200E+01
170	  0.054468941	-6.259000E+00	  0.054468941	-8.256500E+01	  0.054468941	3.436200E+01	  0.054468941	-4.342700E+01
171	  0.054669335	-6.273000E+00	  0.054669335	-8.403500E+01	  0.054669335	3.366300E+01	  0.054669335	-4.256100E+01
172	  0.054869737	-6.286000E+00	  0.054869737	-8.547500E+01	  0.054869737	3.300500E+01	  0.054869737	-4.172200E+01
173	  0.055070139	-6.294000E+00	  0.055070139	-8.694000E+01	  0.055070139	3.234600E+01	  0.055070139	-4.089300E+01
174	  0.055270538	-6.303000E+00	  0.055270538	-8.836800E+01	  0.055270538	3.172800E+01	  0.055270538	-4.009300E+01
175	  0.055470940	-6.310000E+00	  0.055470940	-8.978800E+01	  0.055470940	3.113700E+01	  0.055470940	-3.930600E+01
176	  0.055671342	-6.311000E+00	  0.055671342	-9.123900E+01	  0.055671342	3.053100E+01	  0.055671342	-3.852800E+01
177	  0.055871744	-6.317000E+00	  0.055871744	-9.266400E+01	  0.055871744	2.997700E+01	  0.055871744	-3.775700E+01
178	  0.056072142	-6.321000E+00	  0.056072142	-9.406700E+01	  0.056072142	2.944800E+01	  0.056072142	-3.700800E+01
179	  0.056272544	-6.325000E+00	  0.056272544	-9.544600E+01	  0.056272544	2.894600E+01	  0.056272544	-3.627900E+01
180	  0.056472946	-6.324000E+00	  0.056472946	-9.684800E+01	  0.056472946	2.844100E+01	  0.056472946	-3.555300E+01
181	  0.056673344	-6.327000E+00	  0.056673344	-9.820000E+01	  0.056673344	2.798200E+01	  0.056673344	-3.485200E+01
182	  0.056873746	-6.328000E+00	  0.056873746	-9.953200E+01	  0.056873746	2.754000E+01	  0.056873746	-3.417100E+01
183	  0.057074148	-6.330000E+00	  0.057074148	-1.008640E+02	  0.057074148	2.711800E+01	  0.057074148	-3.349300E+01
184	  0.057274550	-6.328000E+00	  0.057274550	-1.022070E+02	  0.057274550	2.669300E+01	  0.057274550	-3.282300E+01
185	  0.057474948	-6.330000E+00	  0.057474948	-1.035400E+02	  0.057474948	2.629800E+01	  0.057474948	-3.215500E+01
186	  0.057675350	-6.328000E+00	  0.057675350	-1.048350E+02	  0.057675350	2.591500E+01	  0.057675350	-3.152000E+01
187	  0.057875752	-6.327000E+00	  0.057875752	-1.061490E+02	  0.057875752	2.554300E+01	  0.057875752	-3.087700E+01
188	  0.058076151	-6.332000E+00	  0.058076151	-1.074580E+02	  0.058076151	2.520500E+01	  0.058076151	-3.023000E+01
189	  0.058276553	-6.330000E+00	  0.058276553	-1.087270E+02	  0.058276553	2.486600E+01	  0.058276553	-2.962100E+01
190	  0.058476955	-6.329000E+00	  0.058476955	-1.100190E+02	  0.058476955	2.453800E+01	  0.058476955	-2.900200E+01
191	  0.058677353	-6.332000E+00	  0.058677353	-1.112800E+02	  0.058677353	2.424000E+01	  0.058677353	-2.839600E+01
192	  0.058877755	-6.328000E+00	  0.058877755	-1.125960E+02	  0.058877755	2.391700E+01	  0.058877755	-2.778000E+01
193	  0.059078157	-6.328000E+00	  0.059078157	-1.138690E+02	  0.059078157	2.362500E+01	  0.059078157	-2.718300E+01
194	  0.059278559	-6.328000E+00	  0.059278559	-1.151410E+02	  0.059278559	2.334400E+01	  0.059278559	-2.659100E+01
195	  0.059478957	-6.328000E+00	  0.059478957	-1.164260E+02	  0.059478957	2.307000E+01	  0.059478957	-2.599500E+01
196	  0.059679359	-6.332000E+00	  0.059679359	-1.176980E+02	  0.059679359	2.282200E+01	  0.059679359	-2.540500E+01
197	  0.059879761	-6.333000E+00	  0.059879761	-1.189970E+02	  0.059879761	2.256700E+01	  0.059879761	-2.481000E+01
198	  0.060080159	-6.331000E+00	  0.060080159	-1.202770E+02	  0.060080159	2.231600E+01	  0.060080159	-2.423200E+01
199	  0.060280561	-6.333000E+00	  0.060280561	-1.215450E+02	  0.060280561	2.208600E+01	  0.060280561	-2.365900E+01
200	  0.060480963	-6.338000E+00	  0.060480963	-1.228350E+02	  0.060480963	2.186800E+01	  0.060480963	-2.307600E+01
201	  0.060681365	-6.338000E+00	  0.060681365	-1.241110E+02	  0.060681365	2.164800E+01	  0.060681365	-2.250900E+01
202	  0.060881764	-6.338000E+00	  0.060881764	-1.253760E+02	  0.060881764	2.143600E+01	  0.060881764	-2.195100E+01
203	  0.061082166	-6.335000E+00	  0.061082166	-1.266940E+02	  0.061082166	2.121600E+01	  0.061082166	-2.137500E+01
204	  0.061282568	-6.337000E+00	  0.061282568	-1.279400E+02	  0.061282568	2.102700E+01	  0.061282568	-2.082900E+01
205	  0.061482966	-6.336000E+00	  0.061482966	-1.292240E+02	  0.061482966	2.083000E+01	  0.061482966	-2.027400E+01
206	  0.061683368	-6.336000E+00	  0.061683368	-1.304880E+02	  0.061683368	2.064900E+01	  0.061683368	-1.972900E+01
207	  0.061883770	-6.336000E+00	  0.061883770	-1.317370E+02	  0.061883770	2.047400E+01	  0.061883770	-1.919400E+01
208	  0.062084168	-6.332000E+00	  0.062084168	-1.329870E+02	  0.062084168	2.029300E+01	  0.062084168	-1.866500E+01
209	  0.062284570	-6.333000E+00	  0.062284570	-1.342200E+02	  0.062284570	2.013800E+01	  0.062284570	-1.814000E+01
210	  0.062484972	-6.319000E+00	  0.062484972	-1.354050E+02	  0.062484972	1.994900E+01	  0.062484972	-1.765200E+01
211	  0.062685370	-6.315000E+00	  0.062685370	-1.366260E+02	  0.062685370	1.979200E+01	  0.062685370	-1.714200E+01
212	  0.062885776	-6.307000E+00	  0.062885776	-1.378740E+02	  0.062885776	1.962300E+01	  0.062885776	-1.662600E+01
213	  0.063086174	-6.305000E+00	  0.063086174	-1.390650E+02	  0.063086174	1.948600E+01	  0.063086174	-1.613100E+01
214	  0.063286573	-6.303000E+00	  0.063286573	-1.402680E+02	  0.063286573	1.935100E+01	  0.063286573	-1.563400E+01
215	  0.063486971	-6.298000E+00	  0.063486971	-1.414060E+02	  0.063486971	1.921900E+01	  0.063486971	-1.516800E+01
216	  0.063687377	-6.296000E+00	  0.063687377	-1.425700E+02	  0.063687377	1.909700E+01	  0.063687377	-1.469000E+01
217	  0.063887775	-6.291000E+00	  0.063887775	-1.437010E+02	  0.063887775	1.897600E+01	  0.063887775	-1.423000E+01
218	  0.064088173	-6.289000E+00	  0.064088173	-1.448620E+02	  0.064088173	1.886300E+01	  0.064088173	-1.375800E+01
219	  0.064288579	-6.288000E+00	  0.064288579	-1.460260E+02	  0.064288579	1.875600E+01	  0.064288579	-1.328600E+01
220	  0.064488977	-6.287000E+00	  0.064488977	-1.471560E+02	  0.064488977	1.865800E+01	  0.064488977	-1.282800E+01
221	  0.064689375	-6.285000E+00	  0.064689375	-1.482750E+02	  0.064689375	1.855900E+01	  0.064689375	-1.237800E+01
222	  0.064889781	-6.285000E+00	  0.064889781	-1.493940E+02	  0.064889781	1.847300E+01	  0.064889781	-1.192700E+01
223	  0.065090179	-6.286000E+00	  0.065090179	-1.505110E+02	  0.065090179	1.839000E+01	  0.065090179	-1.147900E+01
224	  0.065290578	-6.289000E+00	  0.065290578	-1.515870E+02	  0.065290578	1.832200E+01	  0.065290578	-1.104700E+01
225	  0.065490983	-6.292000E+00	  0.065490983	-1.526970E+02	  0.065490983	1.825100E+01	  0.065490983	-1.060400E+01
226	  0.065691382	-6.293000E+00	  0.065691382	-1.537900E+02	  0.065691382	1.818300E+01	  0.065691382	-1.016900E+01
227	  0.065891780	-6.297000E+00	  0.065891780	-1.548970E+02	  0.065891780	1.812400E+01	  0.065891780	-9.729000E+00
228	  0.066092186	-6.299000E+00	  0.066092186	-1.559780E+02	  0.066092186	1.806300E+01	  0.066092186	-9.302000E+00
229	  0.066292584	-6.300000E+00	  0.066292584	-1.570960E+02	  0.066292584	1.800300E+01	  0.066292584	-8.861000E+00
230	  0.066492982	-6.308000E+00	  0.066492982	-1.581690E+02	  0.066492982	1.796400E+01	  0.066492982	-8.436000E+00
231	  0.066693388	-6.313000E+00	  0.066693388	-1.592600E+02	  0.066693388	1.792200E+01	  0.066693388	-8.007000E+00
232	  0.066893786	-6.319000E+00	  0.066893786	-1.603390E+02	  0.066893786	1.788400E+01	  0.066893786	-7.583000E+00
233	  0.067094192	-6.324000E+00	  0.067094192	-1.613970E+02	  0.067094192	1.785000E+01	  0.067094192	-7.169000E+00
234	  0.067294590	-6.328000E+00	  0.067294590	-1.625150E+02	  0.067294590	1.781100E+01	  0.067294590	-6.732000E+00
235	  0.067494988	-6.335000E+00	  0.067494988	-1.635890E+02	  0.067494988	1.778500E+01	  0.067494988	-6.313000E+00
236	  0.067695394	-6.334000E+00	  0.067695394	-1.646770E+02	  0.067695394	1.774100E+01	  0.067695394	-5.892000E+00
237	  0.067895792	-6.342000E+00	  0.067895792	-1.657380E+02	  0.067895792	1.772300E+01	  0.067895792	-5.479000E+00
238	  0.068096191	-6.347000E+00	  0.068096191	-1.668610E+02	  0.068096191	1.770000E+01	  0.068096191	-5.044000E+00
239	  0.068296596	-6.351000E+00	  0.068296596	-1.679110E+02	  0.068296596	1.767800E+01	  0.068296596	-4.638000E+00
240	  0.068496995	-6.357000E+00	  0.068496995	-1.689660E+02	  0.068496995	1.766500E+01	  0.068496995	-4.231000E+00
241	  0.068697393	-6.361000E+00	  0.068697393	-1.700500E+02	  0.068697393	1.764900E+01	  0.068697393	-3.813000E+00
242	  0.068897791	-6.362000E+00	  0.068897791	-1.710890E+02	  0.068897791	1.762800E+01	  0.068897791	-3.414000E+00
243	  0.069098189	-6.362000E+00	  0.069098189	-1.721310E+02	  0.069098189	1.760800E+01	  0.069098189	-3.013000E+00
244	  0.069298595	-6.364000E+00	  0.069298595	-1.731690E+02	  0.069298595	1.759600E+01	  0.069298595	-2.615000E+00
245	  0.069498993	-6.370000E+00	  0.069498993	-1.742290E+02	  0.069498993	1.759300E+01	  0.069498993	-2.208000E+00
246	  0.069699399	-6.375000E+00	  0.069699399	-1.752720E+02	  0.069699399	1.759300E+01	  0.069699399	-1.808000E+00
247	  0.069899797	-6.381000E+00	  0.069899797	-1.762710E+02	  0.069899797	1.759900E+01	  0.069899797	-1.425000E+00
248	  0.070100196	-6.382000E+00	  0.070100196	-1.772940E+02	  0.070100196	1.759400E+01	  0.070100196	-1.034000E+00
249	  0.070300601	-6.386000E+00	  0.070300601	-1.782830E+02	  0.070300601	1.759800E+01	  0.070300601	-6.560000E-01
250	  0.070501000	-6.394000E+00	  0.070501000	-1.792890E+02	  0.070501000	1.761700E+01	  0.070501000	-2.710000E-01
251	  0.070701398	-6.391000E+00	  0.070701398	1.796930E+02	  0.070701398	1.760900E+01	  0.070701398	1.170000E-01
252	  0.070901804	-6.400000E+00	  0.070901804	1.787500E+02	  0.070901804	1.763400E+01	  0.070901804	4.770000E-01
253	  0.071102202	-6.403000E+00	  0.071102202	1.777660E+02	  0.071102202	1.764400E+01	  0.071102202	8.530000E-01
254	  0.071302600	-6.411000E+00	  0.071302600	1.767920E+02	  0.071302600	1.767100E+01	  0.071302600	1.225000E+00
255	  0.071503006	-6.421000E+00	  0.071503006	1.757900E+02	  0.071503006	1.770400E+01	  0.071503006	1.607000E+00
256	  0.071703404	-6.429000E+00	  0.071703404	1.748390E+02	  0.071703404	1.773500E+01	  0.071703404	1.970000E+00
257	  0.071903802	-6.439000E+00	  0.071903802	1.738660E+02	  0.071903802	1.777300E+01	  0.071903802	2.341000E+00
258	  0.072104208	-6.450000E+00	  0.072104208	1.729100E+02	  0.072104208	1.781800E+01	  0.072104208	2.705000E+00
259	  0.072304606	-6.457000E+00	  0.072304606	1.719630E+02	  0.072304606	1.785100E+01	  0.072304606	3.066000E+00
260	  0.072505005	-6.461000E+00	  0.072505005	1.710180E+02	  0.072505005	1.788100E+01	  0.072505005	3.427000E+00
261	  0.072705410	-6.476000E+00	  0.072705410	1.700640E+02	  0.072705410	1.793900E+01	  0.072705410	3.790000E+00
262	  0.072905809	-6.486000E+00	  0.072905809	1.690790E+02	  0.072905809	1.798900E+01	  0.072905809	4.165000E+00
263	  0.073106214	-6.496000E+00	  0.073106214	1.681430E+02	  0.073106214	1.804000E+01	  0.073106214	4.522000E+00
264	  0.073306613	-6.505000E+00	  0.073306613	1.671830E+02	  0.073306613	1.809100E+01	  0.073306613	4.888000E+00
265	  0.073507011	-6.521000E+00	  0.073507011	1.662340E+02	  0.073507011	1.816300E+01	  0.073507011	5.248000E+00
266	  0.073707417	-6.531000E+00	  0.073707417	1.652640E+02	  0.073707417	1.822200E+01	  0.073707417	5.618000E+00
267	  0.073907815	-6.537000E+00	  0.073907815	1.643090E+02	  0.073907815	1.827300E+01	  0.073907815	5.984000E+00
268	  0.074108213	-6.547000E+00	  0.074108213	1.633690E+02	  0.074108213	1.833500E+01	  0.074108213	6.342000E+00
269	  0.074308619	-6.555000E+00	  0.074308619	1.624460E+02	  0.074308619	1.839200E+01	  0.074308619	6.696000E+00
270	  0.074509017	-6.565000E+00	  0.074509017	1.615010E+02	  0.074509017	1.846000E+01	  0.074509017	7.057000E+00
271	  0.074709415	-6.576000E+00	  0.074709415	1.605500E+02	  0.074709415	1.853200E+01	  0.074709415	7.421000E+00
272	  0.074909821	-6.584000E+00	  0.074909821	1.596150E+02	  0.074909821	1.859900E+01	  0.074909821	7.779000E+00
273	  0.075110219	-6.593000E+00	  0.075110219	1.586930E+02	  0.075110219	1.867000E+01	  0.075110219	8.132000E+00
274	  0.075310618	-6.601000E+00	  0.075310618	1.577640E+02	  0.075310618	1.874100E+01	  0.075310618	8.489000E+00
275	  0.075511023	-6.607000E+00	  0.075511023	1.568930E+02	  0.075511023	1.880500E+01	  0.075511023	8.825000E+00
276	  0.075711422	-6.614000E+00	  0.075711422	1.559700E+02	  0.075711422	1.887800E+01	  0.075711422	9.181000E+00
277	  0.075911827	-6.619000E+00	  0.075911827	1.550570E+02	  0.075911827	1.894800E+01	  0.075911827	9.534000E+00
278	  0.076112226	-6.630000E+00	  0.076112226	1.541670E+02	  0.076112226	1.903200E+01	  0.076112226	9.877000E+00
279	  0.076312624	-6.640000E+00	  0.076312624	1.532590E+02	  0.076312624	1.912000E+01	  0.076312624	1.022600E+01
280	  0.076513030	-6.647000E+00	  0.076513030	1.523860E+02	  0.076513030	1.919800E+01	  0.076513030	1.056500E+01
281	  0.076713428	-6.658000E+00	  0.076713428	1.514870E+02	  0.076713428	1.929100E+01	  0.076713428	1.091200E+01
282	  0.076913826	-6.671000E+00	  0.076913826	1.506100E+02	  0.076913826	1.939200E+01	  0.076913826	1.124900E+01
283	  0.077114232	-6.676000E+00	  0.077114232	1.497590E+02	  0.077114232	1.947000E+01	  0.077114232	1.158200E+01
284	  0.077314630	-6.689000E+00	  0.077314630	1.489200E+02	  0.077314630	1.957100E+01	  0.077314630	1.190500E+01
285	  0.077515028	-6.699000E+00	  0.077515028	1.480800E+02	  0.077515028	1.966600E+01	  0.077515028	1.223100E+01
286	  0.077715434	-6.715000E+00	  0.077715434	1.471730E+02	  0.077715434	1.978400E+01	  0.077715434	1.258100E+01
287	  0.077915832	-6.724000E+00	  0.077915832	1.463430E+02	  0.077915832	1.988100E+01	  0.077915832	1.290400E+01
288	  0.078116231	-6.739000E+00	  0.078116231	1.454770E+02	  0.078116231	2.000000E+01	  0.078116231	1.323900E+01
289	  0.078316636	-6.755000E+00	  0.078316636	1.446200E+02	  0.078316636	2.012100E+01	  0.078316636	1.357000E+01
290	  0.078517035	-6.772000E+00	  0.078517035	1.437440E+02	  0.078517035	2.025000E+01	  0.078517035	1.390800E+01
291	  0.078717433	-6.784000E+00	  0.078717433	1.428740E+02	  0.078717433	2.036900E+01	  0.078717433	1.424700E+01
292	  0.078917839	-6.803000E+00	  0.078917839	1.420340E+02	  0.078917839	2.050600E+01	  0.078917839	1.456900E+01
293	  0.079118237	-6.820000E+00	  0.079118237	1.411980E+02	  0.079118237	2.064100E+01	  0.079118237	1.489200E+01
294	  0.079318643	-6.837000E+00	  0.079318643	1.403540E+02	  0.079318643	2.077700E+01	  0.079318643	1.521800E+01
295	  0.079519041	-6.857000E+00	  0.079519041	1.394980E+02	  0.079519041	2.092500E+01	  0.079519041	1.554800E+01
296	  0.079719439	-6.872000E+00	  0.079719439	1.386380E+02	  0.079719439	2.106400E+01	  0.079719439	1.588300E+01
297	  0.079919845	-6.891000E+00	  0.079919845	1.377700E+02	  0.079919845	2.121800E+01	  0.079919845	1.621800E+01
298	  0.080120243	-6.911000E+00	  0.080120243	1.369030E+02	  0.080120243	2.137600E+01	  0.080120243	1.655200E+01
299	  0.080320641	-6.931000E+00	  0.080320641	1.360500E+02	  0.080320641	2.153600E+01	  0.080320641	1.688100E+01
300	  0.080521047	-6.944000E+00	  0.080521047	1.351760E+02	  0.080521047	2.168500E+01	  0.080521047	1.722400E+01
301	  0.080721445	-6.968000E+00	  0.080721445	1.343490E+02	  0.080721445	2.185700E+01	  0.080721445	1.753900E+01
302	  0.080921844	-6.982000E+00	  0.080921844	1.334670E+02	  0.080921844	2.201500E+01	  0.080921844	1.788600E+01
303	  0.081122249	-7.000000E+00	  0.081122249	1.326670E+02	  0.081122249	2.217500E+01	  0.081122249	1.819500E+01
304	  0.081322648	-7.017000E+00	  0.081322648	1.318120E+02	  0.081322648	2.234300E+01	  0.081322648	1.852800E+01
305	  0.081523046	-7.033000E+00	  0.081523046	1.309620E+02	  0.081523046	2.251000E+01	  0.081523046	1.886200E+01
306	  0.081723452	-7.048000E+00	  0.081723452	1.301550E+02	  0.081723452	2.267100E+01	  0.081723452	1.917800E+01
307	  0.081923850	-7.061000E+00	  0.081923850	1.293210E+02	  0.081923850	2.283500E+01	  0.081923850	1.950800E+01
308	  0.082124248	-7.080000E+00	  0.082124248	1.285240E+02	  0.082124248	2.301200E+01	  0.082124248	1.981700E+01
309	  0.082324654	-7.092000E+00	  0.082324654	1.277080E+02	  0.082324654	2.317600E+01	  0.082324654	2.014100E+01
310	  0.082525052	-7.109000E+00	  0.082525052	1.269390E+02	  0.082525052	2.335000E+01	  0.082525052	2.044000E+01
311	  0.082725458	-7.124000E+00	  0.082725458	1.261840E+02	  0.082725458	2.351800E+01	  0.082725458	2.073700E+01
312	  0.082925856	-7.139000E+00	  0.082925856	1.253940E+02	  0.082925856	2.369500E+01	  0.082925856	2.104700E+01
313	  0.083126254	-7.160000E+00	  0.083126254	1.246620E+02	  0.083126254	2.388100E+01	  0.083126254	2.132800E+01
314	  0.083326660	-7.175000E+00	  0.083326660	1.239290E+02	  0.083326660	2.405400E+01	  0.083326660	2.161500E+01
315	  0.083527058	-7.189000E+00	  0.083527058	1.231710E+02	  0.083527058	2.423100E+01	  0.083527058	2.191500E+01
316	  0.083727457	-7.202000E+00	  0.083727457	1.224500E+02	  0.083727457	2.440400E+01	  0.083727457	2.220000E+01
317	  0.083927862	-7.227000E+00	  0.083927862	1.217230E+02	  0.083927862	2.460900E+01	  0.083927862	2.247300E+01
318	  0.084128261	-7.249000E+00	  0.084128261	1.210050E+02	  0.084128261	2.481200E+01	  0.084128261	2.274500E+01
319	  0.084328659	-7.270000E+00	  0.084328659	1.203330E+02	  0.084328659	2.500200E+01	  0.084328659	2.300000E+01
320	  0.084529065	-7.288000E+00	  0.084529065	1.196540E+02	  0.084529065	2.519200E+01	  0.084529065	2.326000E+01
321	  0.084729463	-7.315000E+00	  0.084729463	1.189410E+02	  0.084729463	2.541300E+01	  0.084729463	2.352300E+01
322	  0.084929854	-7.337000E+00	  0.084929854	1.182250E+02	  0.084929854	2.562500E+01	  0.084929854	2.379300E+01
323	  0.085130259	-7.356000E+00	  0.085130259	1.174990E+02	  0.085130259	2.583300E+01	  0.085130259	2.407300E+01
324	  0.085330658	-7.378000E+00	  0.085330658	1.167940E+02	  0.085330658	2.604900E+01	  0.085330658	2.433700E+01
325	  0.085531056	-7.403000E+00	  0.085531056	1.161040E+02	  0.085531056	2.627200E+01	  0.085531056	2.459200E+01
326	  0.085731462	-7.427000E+00	  0.085731462	1.154070E+02	  0.085731462	2.649700E+01	  0.085731462	2.485000E+01
327	  0.085931860	-7.452000E+00	  0.085931860	1.147200E+02	  0.085931860	2.672700E+01	  0.085931860	2.510000E+01
328	  0.086132258	-7.479000E+00	  0.086132258	1.140530E+02	  0.086132258	2.696000E+01	  0.086132258	2.533900E+01
329	  0.086332664	-7.505000E+00	  0.086332664	1.133620E+02	  0.086332664	2.719900E+01	  0.086332664	2.558900E+01
330	  0.086533062	-7.533000E+00	  0.086533062	1.126390E+02	  0.086533062	2.745400E+01	  0.086533062	2.584900E+01
331	  0.086733460	-7.558000E+00	  0.086733460	1.119530E+02	  0.086733460	2.769300E+01	  0.086733460	2.609800E+01
332	  0.086933866	-7.581000E+00	  0.086933866	1.112580E+02	  0.086933866	2.793700E+01	  0.086933866	2.635000E+01
333	  0.087134264	-7.604000E+00	  0.087134264	1.105490E+02	  0.087134264	2.818400E+01	  0.087134264	2.661000E+01
334	  0.087334670	-7.632000E+00	  0.087334670	1.098360E+02	  0.087334670	2.844900E+01	  0.087334670	2.686200E+01
335	  0.087535068	-7.658000E+00	  0.087535068	1.091400E+02	  0.087535068	2.871000E+01	  0.087535068	2.710800E+01
336	  0.087735467	-7.684000E+00	  0.087735467	1.084450E+02	  0.087735467	2.897100E+01	  0.087735467	2.735400E+01
337	  0.087935872	-7.706000E+00	  0.087935872	1.077710E+02	  0.087935872	2.922100E+01	  0.087935872	2.759600E+01
338	  0.088136271	-7.734000E+00	  0.088136271	1.070820E+02	  0.088136271	2.949400E+01	  0.088136271	2.783300E+01
339	  0.088336669	-7.758000E+00	  0.088336669	1.063920E+02	  0.088336669	2.975800E+01	  0.088336669	2.807800E+01
340	  0.088537075	-7.779000E+00	  0.088537075	1.056820E+02	  0.088537075	3.002800E+01	  0.088537075	2.833400E+01
341	  0.088737473	-7.802000E+00	  0.088737473	1.050410E+02	  0.088737473	3.028100E+01	  0.088737473	2.855800E+01
342	  0.088937871	-7.821000E+00	  0.088937871	1.043330E+02	  0.088937871	3.055000E+01	  0.088937871	2.881500E+01
343	  0.089138277	-7.848000E+00	  0.089138277	1.036880E+02	  0.089138277	3.082400E+01	  0.089138277	2.903000E+01
344	  0.089338675	-7.868000E+00	  0.089338675	1.030340E+02	  0.089338675	3.108600E+01	  0.089338675	2.926100E+01
345	  0.089539073	-7.895000E+00	  0.089539073	1.024080E+02	  0.089539073	3.136100E+01	  0.089539073	2.946400E+01
346	  0.089739479	-7.915000E+00	  0.089739479	1.017760E+02	  0.089739479	3.162100E+01	  0.089739479	2.968500E+01
347	  0.089939877	-7.942000E+00	  0.089939877	1.011580E+02	  0.089939877	3.190000E+01	  0.089939877	2.988200E+01
348	  0.090140276	-7.964000E+00	  0.090140276	1.005440E+02	  0.090140276	3.216500E+01	  0.090140276	3.008800E+01
349	  0.090340681	-7.987000E+00	  0.090340681	9.996300E+01	  0.090340681	3.242400E+01	  0.090340681	3.027700E+01
350	  0.090541080	-8.007000E+00	  0.090541080	9.934600E+01	  0.090541080	3.269200E+01	  0.090541080	3.048500E+01
351	  0.090741485	-8.029000E+00	  0.090741485	9.876400E+01	  0.090741485	3.295700E+01	  0.090741485	3.067300E+01
352	  0.090941884	-8.061000E+00	  0.090941884	9.818400E+01	  0.090941884	3.324800E+01	  0.090941884	3.083800E+01
353	  0.091142282	-8.089000E+00	  0.091142282	9.763000E+01	  0.091142282	3.352400E+01	  0.091142282	3.099700E+01
354	  0.091342688	-8.117000E+00	  0.091342688	9.702800E+01	  0.091342688	3.381800E+01	  0.091342688	3.117600E+01
355	  0.091543086	-8.141000E+00	  0.091543086	9.649600E+01	  0.091543086	3.407900E+01	  0.091543086	3.133300E+01
356	  0.091743484	-8.168000E+00	  0.091743484	9.592500E+01	  0.091743484	3.436600E+01	  0.091743484	3.149600E+01
357	  0.091943890	-8.194000E+00	  0.091943890	9.533600E+01	  0.091943890	3.466100E+01	  0.091943890	3.166600E+01
358	  0.092144288	-8.220000E+00	  0.092144288	9.475600E+01	  0.092144288	3.495300E+01	  0.092144288	3.183400E+01
359	  0.092344686	-8.247000E+00	  0.092344686	9.419800E+01	  0.092344686	3.524200E+01	  0.092344686	3.198600E+01
360	  0.092545092	-8.275000E+00	  0.092545092	9.367000E+01	  0.092545092	3.552500E+01	  0.092545092	3.212200E+01
361	  0.092745490	-8.304000E+00	  0.092745490	9.314800E+01	  0.092745490	3.580800E+01	  0.092745490	3.225400E+01
362	  0.092945889	-8.332000E+00	  0.092945889	9.258600E+01	  0.092945889	3.610900E+01	  0.092945889	3.240000E+01
363	  0.093146294	-8.360000E+00	  0.093146294	9.207800E+01	  0.093146294	3.639100E+01	  0.093146294	3.252100E+01
364	  0.093346693	-8.386000E+00	  0.093346693	9.153800E+01	  0.093346693	3.668100E+01	  0.093346693	3.266100E+01
365	  0.093547091	-8.415000E+00	  0.093547091	9.101100E+01	  0.093547091	3.697700E+01	  0.093547091	3.278400E+01
366	  0.093747497	-8.441000E+00	  0.093747497	9.047900E+01	  0.093747497	3.726800E+01	  0.093747497	3.291600E+01
367	  0.093947895	-8.468000E+00	  0.093947895	8.996200E+01	  0.093947895	3.755900E+01	  0.093947895	3.303700E+01
368	  0.094148301	-8.489000E+00	  0.094148301	8.943100E+01	  0.094148301	3.784300E+01	  0.094148301	3.317800E+01
369	  0.094348699	-8.512000E+00	  0.094348699	8.894100E+01	  0.094348699	3.811600E+01	  0.094348699	3.329600E+01
370	  0.094549097	-8.539000E+00	  0.094549097	8.845200E+01	  0.094549097	3.840100E+01	  0.094549097	3.339900E+01
371	  0.094749503	-8.561000E+00	  0.094749503	8.793500E+01	  0.094749503	3.868900E+01	  0.094749503	3.352500E+01
372	  0.094949901	-8.583000E+00	  0.094949901	8.745100E+01	  0.094949901	3.896100E+01	  0.094949901	3.364000E+01
373	  0.095150299	-8.600000E+00	  0.095150299	8.697000E+01	  0.095150299	3.922500E+01	  0.095150299	3.376400E+01
374	  0.095350705	-8.621000E+00	  0.095350705	8.646300E+01	  0.095350705	3.951000E+01	  0.095350705	3.388700E+01
375	  0.095551103	-8.637000E+00	  0.095551103	8.599100E+01	  0.095551103	3.977200E+01	  0.095551103	3.400700E+01
376	  0.095751502	-8.656000E+00	  0.095751502	8.551700E+01	  0.095751502	4.004200E+01	  0.095751502	3.411800E+01
377	  0.095951907	-8.672000E+00	  0.095951907	8.505100E+01	  0.095951907	4.030200E+01	  0.095951907	3.423700E+01
378	  0.096152306	-8.691000E+00	  0.096152306	8.459700E+01	  0.096152306	4.056700E+01	  0.096152306	3.433600E+01
379	  0.096352704	-8.705000E+00	  0.096352704	8.417500E+01	  0.096352704	4.080600E+01	  0.096352704	3.444000E+01
380	  0.096553110	-8.720000E+00	  0.096553110	8.370100E+01	  0.096553110	4.107400E+01	  0.096553110	3.455800E+01
381	  0.096753508	-8.733000E+00	  0.096753508	8.329200E+01	  0.096753508	4.130800E+01	  0.096753508	3.465800E+01
382	  0.096953906	-8.749000E+00	  0.096953906	8.286100E+01	  0.096953906	4.156000E+01	  0.096953906	3.475600E+01
383	  0.097154312	-8.760000E+00	  0.097154312	8.241500E+01	  0.097154312	4.181000E+01	  0.097154312	3.487300E+01
384	  0.097354710	-8.778000E+00	  0.097354710	8.197600E+01	  0.097354710	4.207600E+01	  0.097354710	3.496300E+01
385	  0.097555116	-8.787000E+00	  0.097555116	8.156900E+01	  0.097555116	4.230700E+01	  0.097555116	3.506900E+01
386	  0.097755514	-8.798000E+00	  0.097755514	8.113200E+01	  0.097755514	4.255900E+01	  0.097755514	3.517800E+01
387	  0.097955912	-8.810000E+00	  0.097955912	8.072900E+01	  0.097955912	4.279600E+01	  0.097955912	3.527300E+01
388	  0.098156318	-8.821000E+00	  0.098156318	8.032100E+01	  0.098156318	4.303600E+01	  0.098156318	3.537000E+01
389	  0.098356716	-8.827000E+00	  0.098356716	7.989800E+01	  0.098356716	4.327500E+01	  0.098356716	3.548900E+01
390	  0.098557115	-8.837000E+00	  0.098557115	7.948100E+01	  0.098557115	4.352100E+01	  0.098557115	3.559100E+01
391	  0.098757520	-8.844000E+00	  0.098757520	7.903400E+01	  0.098757520	4.377900E+01	  0.098757520	3.571100E+01
392	  0.098957919	-8.850000E+00	  0.098957919	7.862500E+01	  0.098957919	4.401500E+01	  0.098957919	3.582200E+01
393	  0.099158317	-8.851000E+00	  0.099158317	7.817300E+01	  0.099158317	4.426900E+01	  0.099158317	3.596000E+01
394	  0.099358723	-8.857000E+00	  0.099358723	7.774700E+01	  0.099358723	4.451900E+01	  0.099358723	3.607400E+01
395	  0.099559121	-8.862000E+00	  0.099559121	7.731100E+01	  0.099559121	4.477600E+01	  0.099559121	3.619400E+01
396	  0.099759519	-8.862000E+00	  0.099759519	7.690600E+01	  0.099759519	4.500500E+01	  0.099759519	3.632200E+01
397	  0.099959925	-8.864000E+00	  0.099959925	7.649700E+01	  0.099959925	4.524400E+01	  0.099959925	3.644100E+01
398	  0.100160323	-8.853000E+00	  0.100160323	7.602500E+01	  0.100160323	4.549500E+01	  0.100160323	3.662900E+01
399	  0.100360721	-8.860000E+00	  0.100360721	7.558800E+01	  0.100360721	4.576400E+01	  0.100360721	3.673700E+01
400	  0.100561127	-8.852000E+00	  0.100561127	7.513700E+01	  0.100561127	4.601400E+01	  0.100561127	3.690700E+01
401	  0.100761525	-8.841000E+00	  0.100761525	7.470700E+01	  0.100761525	4.624700E+01	  0.100761525	3.708200E+01
402	  0.100961931	-8.832000E+00	  0.100961931	7.422700E+01	  0.100961931	4.651900E+01	  0.100961931	3.726100E+01
403	  0.101162329	-8.824000E+00	  0.101162329	7.382500E+01	  0.101162329	4.674700E+01	  0.101162329	3.741400E+01
404	  0.101362728	-8.807000E+00	  0.101362728	7.333000E+01	  0.101362728	4.701700E+01	  0.101362728	3.763200E+01
405	  0.101563133	-8.800000E+00	  0.101563133	7.294500E+01	  0.101563133	4.724300E+01	  0.101563133	3.777300E+01
406	  0.101763532	-8.784000E+00	  0.101763532	7.249800E+01	  0.101763532	4.749100E+01	  0.101763532	3.797300E+01
407	  0.101963930	-8.781000E+00	  0.101963930	7.208400E+01	  0.101963930	4.774800E+01	  0.101963930	3.810500E+01
408	  0.102164328	-8.763000E+00	  0.102164328	7.159700E+01	  0.102164328	4.802400E+01	  0.102164328	3.832200E+01
409	  0.102364726	-8.750000E+00	  0.102364726	7.110900E+01	  0.102364726	4.831400E+01	  0.102364726	3.852000E+01
410	  0.102565125	-8.731000E+00	  0.102565125	7.072200E+01	  0.102565125	4.853100E+01	  0.102565125	3.871200E+01
411	  0.102765530	-8.714000E+00	  0.102765530	7.024300E+01	  0.102765530	4.881500E+01	  0.102765530	3.892300E+01
412	  0.102965929	-8.696000E+00	  0.102965929	6.981100E+01	  0.102965929	4.906800E+01	  0.102965929	3.912700E+01
413	  0.103166327	-8.674000E+00	  0.103166327	6.933800E+01	  0.103166327	4.934600E+01	  0.103166327	3.935800E+01
414	  0.103366733	-8.657000E+00	  0.103366733	6.893400E+01	  0.103366733	4.959000E+01	  0.103366733	3.954900E+01
415	  0.103567131	-8.640000E+00	  0.103567131	6.848600E+01	  0.103567131	4.986700E+01	  0.103567131	3.975100E+01
416	  0.103767529	-8.624000E+00	  0.103767529	6.801600E+01	  0.103767529	5.016500E+01	  0.103767529	3.995300E+01
417	  0.103967935	-8.603000E+00	  0.103967935	6.756600E+01	  0.103967935	5.044400E+01	  0.103967935	4.017300E+01
418	  0.104168333	-8.584000E+00	  0.104168333	6.708200E+01	  0.104168333	5.075400E+01	  0.104168333	4.039500E+01
419	  0.104368731	-8.567000E+00	  0.104368731	6.658400E+01	  0.104368731	5.108300E+01	  0.104368731	4.060800E+01
420	  0.104569137	-8.548000E+00	  0.104569137	6.611200E+01	  0.104569137	5.139300E+01	  0.104569137	4.082800E+01
421	  0.104769535	-8.531000E+00	  0.104769535	6.563200E+01	  0.104769535	5.171600E+01	  0.104769535	4.103800E+01
422	  0.104969934	-8.520000E+00	  0.104969934	6.516600E+01	  0.104969934	5.204500E+01	  0.104969934	4.121100E+01
423	  0.105170339	-8.498000E+00	  0.105170339	6.464400E+01	  0.105170339	5.240000E+01	  0.105170339	4.145900E+01
424	  0.105370738	-8.480000E+00	  0.105370738	6.414600E+01	  0.105370738	5.274900E+01	  0.105370738	4.167800E+01
425	  0.105571143	-8.468000E+00	  0.105571143	6.359400E+01	  0.105571143	5.315600E+01	  0.105571143	4.187600E+01
426	  0.105771542	-8.453000E+00	  0.105771542	6.302100E+01	  0.105771542	5.358100E+01	  0.105771542	4.209400E+01
427	  0.105971940	-8.435000E+00	  0.105971940	6.253000E+01	  0.105971940	5.394000E+01	  0.105971940	4.230900E+01
428	  0.106172346	-8.423000E+00	  0.106172346	6.194600E+01	  0.106172346	5.438900E+01	  0.106172346	4.251200E+01
429	  0.106372744	-8.411000E+00	  0.106372744	6.136900E+01	  0.106372744	5.484000E+01	  0.106372744	4.270600E+01
430	  0.106573142	-8.392000E+00	  0.106573142	6.076900E+01	  0.106573142	5.530500E+01	  0.106573142	4.294600E+01
431	  0.106773548	-8.377000E+00	  0.106773548	6.010500E+01	  0.106773548	5.583800E+01	  0.106773548	4.317700E+01
432	  0.106973946	-8.360000E+00	  0.106973946	5.952700E+01	  0.106973946	5.630400E+01	  0.106973946	4.339600E+01
433	  0.107174344	-8.345000E+00	  0.107174344	5.890300E+01	  0.107174344	5.681800E+01	  0.107174344	4.361400E+01
434	  0.107374750	-8.327000E+00	  0.107374750	5.820300E+01	  0.107374750	5.740500E+01	  0.107374750	4.385500E+01
435	  0.107575148	-8.317000E+00	  0.107575148	5.758000E+01	  0.107575148	5.794400E+01	  0.107575148	4.403500E+01
436	  0.107775547	-8.300000E+00	  0.107775547	5.692300E+01	  0.107775547	5.851300E+01	  0.107775547	4.425700E+01
437	  0.107975952	-8.276000E+00	  0.107975952	5.627500E+01	  0.107975952	5.907500E+01	  0.107975952	4.451500E+01
438	  0.108176351	-8.259000E+00	  0.108176351	5.560800E+01	  0.108176351	5.967300E+01	  0.108176351	4.473200E+01
439	  0.108376749	-8.240000E+00	  0.108376749	5.494400E+01	  0.108376749	6.027600E+01	  0.108376749	4.495600E+01
440	  0.108577155	-8.221000E+00	  0.108577155	5.427100E+01	  0.108577155	6.089900E+01	  0.108577155	4.517700E+01
441	  0.108777553	-8.211000E+00	  0.108777553	5.353100E+01	  0.108777553	6.160600E+01	  0.108777553	4.534300E+01
442	  0.108977959	-8.194000E+00	  0.108977959	5.281900E+01	  0.108977959	6.229100E+01	  0.108977959	4.554200E+01
443	  0.109178357	-8.180000E+00	  0.109178357	5.215400E+01	  0.109178357	6.294400E+01	  0.109178357	4.570900E+01
444	  0.109378755	-8.167000E+00	  0.109378755	5.141000E+01	  0.109378755	6.368800E+01	  0.109378755	4.587400E+01
445	  0.109579161	-8.142000E+00	  0.109579161	5.062900E+01	  0.109579161	6.447700E+01	  0.109579161	4.611600E+01
446	  0.109779559	-8.133000E+00	  0.109779559	4.996300E+01	  0.109779559	6.516800E+01	  0.109779559	4.622400E+01
447	  0.109979957	-8.115000E+00	  0.109979957	4.923700E+01	  0.109979957	6.593100E+01	  0.109979957	4.639400E+01
448	  0.110180363	-8.103000E+00	  0.110180363	4.848400E+01	  0.110180363	6.673700E+01	  0.110180363	4.651300E+01
449	  0.110380761	-8.089000E+00	  0.110380761	4.776700E+01	  0.110380761	6.751800E+01	  0.110380761	4.663300E+01
450	  0.110581160	-8.079000E+00	  0.110581160	4.700700E+01	  0.110581160	6.835700E+01	  0.110581160	4.671700E+01
451	  0.110781565	-8.072000E+00	  0.110781565	4.626500E+01	  0.110781565	6.919000E+01	  0.110781565	4.676200E+01
452	  0.110981964	-8.068000E+00	  0.110981964	4.546600E+01	  0.110981964	7.010000E+01	  0.110981964	4.677100E+01
453	  0.111182362	-8.053000E+00	  0.111182362	4.474900E+01	  0.111182362	7.093100E+01	  0.111182362	4.685200E+01
454	  0.111382768	-8.046000E+00	  0.111382768	4.396800E+01	  0.111382768	7.184600E+01	  0.111382768	4.685100E+01
455	  0.111583166	-8.041000E+00	  0.111583166	4.318500E+01	  0.111583166	7.277500E+01	  0.111583166	4.681600E+01
456	  0.111783572	-8.040000E+00	  0.111783572	4.238100E+01	  0.111783572	7.373700E+01	  0.111783572	4.672700E+01
457	  0.111983970	-8.035000E+00	  0.111983970	4.158200E+01	  0.111983970	7.470800E+01	  0.111983970	4.665100E+01
458	  0.112184368	-8.036000E+00	  0.112184368	4.074400E+01	  0.112184368	7.573100E+01	  0.112184368	4.649700E+01
459	  0.112384774	-8.033000E+00	  0.112384774	3.995100E+01	  0.112384774	7.671600E+01	  0.112384774	4.636400E+01
460	  0.112585172	-8.032000E+00	  0.112585172	3.909500E+01	  0.112585172	7.778500E+01	  0.112585172	4.617300E+01
461	  0.112785570	-8.035000E+00	  0.112785570	3.828000E+01	  0.112785570	7.880500E+01	  0.112785570	4.593100E+01
462	  0.112985976	-8.037000E+00	  0.112985976	3.740800E+01	  0.112985976	7.990800E+01	  0.112985976	4.565700E+01
463	  0.113186374	-8.049000E+00	  0.113186374	3.656800E+01	  0.113186374	8.095500E+01	  0.113186374	4.528100E+01
464	  0.113386773	-8.047000E+00	  0.113386773	3.569600E+01	  0.113386773	8.207900E+01	  0.113386773	4.497600E+01
465	  0.113587178	-8.060000E+00	  0.113587178	3.480400E+01	  0.113587178	8.319600E+01	  0.113587178	4.450400E+01
466	  0.113787577	-8.062000E+00	  0.113787577	3.389700E+01	  0.113787577	8.436500E+01	  0.113787577	4.408300E+01
467	  0.113987975	-8.068000E+00	  0.113987975	3.296400E+01	  0.113987975	8.555700E+01	  0.113987975	4.357200E+01
468	  0.114188381	-8.082000E+00	  0.114188381	3.208600E+01	  0.114188381	8.665200E+01	  0.114188381	4.299000E+01
469	  0.114388779	-8.087000E+00	  0.114388779	3.110700E+01	  0.114388779	8.790500E+01	  0.114388779	4.238100E+01
470	  0.114589177	-8.095000E+00	  0.114589177	3.022100E+01	  0.114589177	8.902500E+01	  0.114589177	4.176700E+01
471	  0.114789583	-8.107000E+00	  0.114789583	2.925900E+01	  0.114789583	9.021500E+01	  0.114789583	4.101700E+01
472	  0.114989981	-8.120000E+00	  0.114989981	2.834300E+01	  0.114989981	9.133400E+01	  0.114989981	4.025400E+01
473	  0.115190387	-8.143000E+00	  0.115190387	2.732700E+01	  0.115190387	9.251900E+01	  0.115190387	3.929000E+01
474	  0.115390785	-8.152000E+00	  0.115390785	2.634400E+01	  0.115390785	9.370800E+01	  0.115390785	3.841000E+01
475	  0.115591183	-8.175000E+00	  0.115591183	2.536800E+01	  0.115591183	9.479400E+01	  0.115591183	3.737800E+01
476	  0.115791589	-8.184000E+00	  0.115791589	2.442700E+01	  0.115791589	9.590100E+01	  0.115791589	3.645200E+01
477	  0.115991987	-8.214000E+00	  0.115991987	2.347000E+01	  0.115991987	9.686400E+01	  0.115991987	3.529300E+01
478	  0.116192386	-8.226000E+00	  0.116192386	2.244200E+01	  0.116192386	9.799900E+01	  0.116192386	3.416200E+01
479	  0.116392791	-8.252000E+00	  0.116392791	2.145700E+01	  0.116392791	9.894800E+01	  0.116392791	3.291500E+01
480	  0.116593190	-8.287000E+00	  0.116593190	2.041700E+01	  0.116593190	9.985600E+01	  0.116593190	3.150700E+01
481	  0.116793588	-8.314000E+00	  0.116793588	1.939900E+01	  0.116793588	1.007470E+02	  0.116793588	3.013800E+01
482	  0.116993994	-8.342000E+00	  0.116993994	1.837500E+01	  0.116993994	1.015930E+02	  0.116993994	2.872100E+01
483	  0.117194392	-8.375000E+00	  0.117194392	1.732600E+01	  0.117194392	1.023640E+02	  0.117194392	2.719900E+01
484	  0.117394790	-8.411000E+00	  0.117394790	1.629500E+01	  0.117394790	1.030430E+02	  0.117394790	2.565600E+01
485	  0.117595196	-8.454000E+00	  0.117595196	1.523800E+01	  0.117595196	1.036130E+02	  0.117595196	2.400400E+01
486	  0.117795594	-8.499000E+00	  0.117795594	1.416200E+01	  0.117795594	1.041140E+02	  0.117795594	2.230000E+01
487	  0.117995992	-8.544000E+00	  0.117995992	1.307500E+01	  0.117995992	1.045510E+02	  0.117995992	2.056400E+01
