! Anritsu VNA Master:             	Model: MS2036C/10/77
! SN:             	1601066
! /card0/usr/18may27.balun/252b.47.txt
! Existing Calibration Information:
! TYPE:             	Current Settings	Active Cal Settings
! TIME:             	05/27/2018 12:00:56 PM	05/27/2018 11:54:56 AM
! INTERNAL TEMP:    	50.3 C	49.3 C
! # POINTS:         	500	500
! START FREQ:       	20.000 MHz	20.000 MHz
! STOP FREQ:        	120.000 MHz	120.000 MHz
! SOURCE POWER:     	High	High
! IFBW:             	50 Hz	50 Hz
! AVG FACTOR:       	  1 	  1 
! REF PLANE 1:      	0 mm	0 mm
! REF PLANE 2:      	0 mm	0 mm
! CAL TYPE:         	Full S11	Full S11
! CAL METHOD:       	SOLT	SOLT
! CAL LINE TYPE:    	Coax	Coax
! DUT PORT 1:       	K-Conn(M)	K-Conn(M)
! DUT PORT 2:       	K-Conn(M)	K-Conn(M)
! CAL STATUS:       	OK: Accuracy High	--
! PROP-V:       	0.700
! CABLE LOSS:       	0.000 dB/m
! REF IMPEDANCE:       	50.0
! Trace Specific Parameters:	TR1	TR2	TR3	TR4
! TRACE.#.Y (GRAPH TYPE)	LOG MAG	PHASE	REAL IMPEDANCE	IMAGINARY IMPEDANCE
! TRACE.#.X 	FREQ.GHZ	FREQ.GHZ	FREQ.GHZ	FREQ.GHZ
! S-PARAMETER	S11	S11	S11	S11
! SMOOTH/APERTURE %	0	0	0	0
! WINDOW	NSL	NSL	NSL	NSL
! GATING	OFF	OFF	OFF	OFF
! FGTD	OFF	OFF	OFF	OFF
Marker Information per Trace:	TR1	TR2	TR3	TR4
!MK1	--	--	--	"MK1 TR4:  70.100 200 MHz,Z:(0.725 ohm, -2.004 ohm)"
!MK2	--	--	--	--
!MK3	--	--	--	--
!MK4	--	--	--	--
!MK5	--	--	--	--
!MK6	--	--	--	--
!MK7	--	--	--	--
!MK8	--	--	--	--
PNT	TR1.FREQ.GHZ	TR1.LOG MAG.dB	TR2.FREQ.GHZ	TR2.PHASE.deg	TR3.FREQ.GHZ	TR3.REAL IMPEDANCE.ohm	TR4.FREQ.GHZ	TR4.IMAGINARY IMPEDANCE.ohm
1	  0.020000000	-9.000000E-03	  0.020000000	-5.548300E+01	  0.020000000	1.230000E-01	  0.020000000	-9.506700E+01
2	  0.020200402	-8.000000E-03	  0.020200402	-5.603800E+01	  0.020200402	1.110000E-01	  0.020200402	-9.395900E+01
3	  0.020400802	-5.000000E-03	  0.020400802	-5.655100E+01	  0.020400802	7.500000E-02	  0.020400802	-9.295400E+01
4	  0.020601204	-5.000000E-03	  0.020601204	-5.706800E+01	  0.020601204	7.200000E-02	  0.020601204	-9.195600E+01
5	  0.020801604	-4.000000E-03	  0.020801604	-5.760100E+01	  0.020801604	6.000000E-02	  0.020801604	-9.094600E+01
6	  0.021002004	-5.000000E-03	  0.021002004	-5.813900E+01	  0.021002004	7.200000E-02	  0.021002004	-8.994400E+01
7	  0.021202406	-5.000000E-03	  0.021202406	-5.866000E+01	  0.021202406	7.100000E-02	  0.021202406	-8.898900E+01
8	  0.021402806	-7.000000E-03	  0.021402806	-5.921400E+01	  0.021402806	9.100000E-02	  0.021402806	-8.798900E+01
9	  0.021603208	-1.000000E-02	  0.021603208	-5.973300E+01	  0.021603208	1.180000E-01	  0.021603208	-8.706900E+01
10	  0.021803608	-1.100000E-02	  0.021803608	-6.025200E+01	  0.021803608	1.350000E-01	  0.021803608	-8.616300E+01
11	  0.022004008	-1.300000E-02	  0.022004008	-6.079300E+01	  0.022004008	1.480000E-01	  0.022004008	-8.523400E+01
12	  0.022204408	-1.500000E-02	  0.022204408	-6.134500E+01	  0.022204408	1.670000E-01	  0.022204408	-8.430000E+01
13	  0.022404809	-2.000000E-02	  0.022404809	-6.191800E+01	  0.022404809	2.230000E-01	  0.022404809	-8.334800E+01
14	  0.022605211	-2.300000E-02	  0.022605211	-6.247900E+01	  0.022605211	2.560000E-01	  0.022605211	-8.242900E+01
15	  0.022805611	-2.100000E-02	  0.022805611	-6.302200E+01	  0.022805611	2.290000E-01	  0.022805611	-8.155600E+01
16	  0.023006011	-1.500000E-02	  0.023006011	-6.359900E+01	  0.023006011	1.570000E-01	  0.023006011	-8.064200E+01
17	  0.023206413	-7.000000E-03	  0.023206413	-6.419700E+01	  0.023206413	7.400000E-02	  0.023206413	-7.971000E+01
18	  0.023406813	-3.000000E-03	  0.023406813	-6.475400E+01	  0.023406813	3.800000E-02	  0.023406813	-7.885600E+01
19	  0.023607215	-6.000000E-03	  0.023607215	-6.532200E+01	  0.023607215	6.300000E-02	  0.023607215	-7.799800E+01
20	  0.023807615	-7.000000E-03	  0.023807615	-6.584800E+01	  0.023807615	7.400000E-02	  0.023807615	-7.721600E+01
21	  0.024008015	-1.000000E-02	  0.024008015	-6.634100E+01	  0.024008015	1.010000E-01	  0.024008015	-7.649300E+01
22	  0.024208417	-1.600000E-02	  0.024208417	-6.684300E+01	  0.024208417	1.610000E-01	  0.024208417	-7.576600E+01
23	  0.024408817	-2.500000E-02	  0.024408817	-6.732200E+01	  0.024408817	2.410000E-01	  0.024408817	-7.508000E+01
24	  0.024609219	-3.100000E-02	  0.024609219	-6.780800E+01	  0.024609219	2.900000E-01	  0.024609219	-7.439400E+01
25	  0.024809619	-3.500000E-02	  0.024809619	-6.832000E+01	  0.024809619	3.190000E-01	  0.024809619	-7.368100E+01
26	  0.025010020	-3.800000E-02	  0.025010020	-6.885900E+01	  0.025010020	3.460000E-01	  0.025010020	-7.294000E+01
27	  0.025210422	-3.800000E-02	  0.025210422	-6.941800E+01	  0.025210422	3.400000E-01	  0.025210422	-7.218200E+01
28	  0.025410822	-4.100000E-02	  0.025410822	-6.995300E+01	  0.025410822	3.660000E-01	  0.025410822	-7.146700E+01
29	  0.025611224	-3.800000E-02	  0.025611224	-7.051800E+01	  0.025611224	3.340000E-01	  0.025611224	-7.072300E+01
30	  0.025811624	-3.900000E-02	  0.025811624	-7.104200E+01	  0.025811624	3.370000E-01	  0.025811624	-7.004100E+01
31	  0.026012026	-3.500000E-02	  0.026012026	-7.157400E+01	  0.026012026	2.960000E-01	  0.026012026	-6.935700E+01
32	  0.026212426	-3.200000E-02	  0.026212426	-7.210600E+01	  0.026212426	2.680000E-01	  0.026212426	-6.868300E+01
33	  0.026412826	-2.900000E-02	  0.026412826	-7.262800E+01	  0.026412826	2.380000E-01	  0.026412826	-6.803000E+01
34	  0.026613226	-3.000000E-02	  0.026613226	-7.312000E+01	  0.026613226	2.480000E-01	  0.026613226	-6.742200E+01
35	  0.026813626	-3.200000E-02	  0.026813626	-7.361300E+01	  0.026813626	2.620000E-01	  0.026813626	-6.681900E+01
36	  0.027014028	-3.700000E-02	  0.027014028	-7.409700E+01	  0.027014028	3.000000E-01	  0.027014028	-6.623300E+01
37	  0.027214428	-4.500000E-02	  0.027214428	-7.458700E+01	  0.027214428	3.600000E-01	  0.027214428	-6.564800E+01
38	  0.027414829	-5.700000E-02	  0.027414829	-7.514700E+01	  0.027414829	4.470000E-01	  0.027414829	-6.498500E+01
39	  0.027615231	-6.300000E-02	  0.027615231	-7.573200E+01	  0.027615231	4.860000E-01	  0.027615231	-6.430400E+01
40	  0.027815631	-6.800000E-02	  0.027815631	-7.633700E+01	  0.027815631	5.180000E-01	  0.027815631	-6.360700E+01
41	  0.028016033	-6.600000E-02	  0.028016033	-7.698000E+01	  0.028016033	4.930000E-01	  0.028016033	-6.287700E+01
42	  0.028216433	-5.700000E-02	  0.028216433	-7.760500E+01	  0.028216433	4.170000E-01	  0.028216433	-6.217900E+01
43	  0.028416833	-4.800000E-02	  0.028416833	-7.823300E+01	  0.028416833	3.470000E-01	  0.028416833	-6.148700E+01
44	  0.028617235	-4.200000E-02	  0.028617235	-7.882600E+01	  0.028617235	3.040000E-01	  0.028617235	-6.084100E+01
45	  0.028817635	-3.400000E-02	  0.028817635	-7.939200E+01	  0.028817635	2.410000E-01	  0.028817635	-6.023300E+01
46	  0.029018037	-2.400000E-02	  0.029018037	-7.988800E+01	  0.029018037	1.700000E-01	  0.029018037	-5.970500E+01
47	  0.029218437	-1.800000E-02	  0.029218437	-8.033400E+01	  0.029218437	1.300000E-01	  0.029218437	-5.923500E+01
48	  0.029418837	-1.200000E-02	  0.029418837	-8.076000E+01	  0.029418837	8.800000E-02	  0.029418837	-5.879100E+01
49	  0.029619239	-1.300000E-02	  0.029619239	-8.117400E+01	  0.029619239	9.200000E-02	  0.029619239	-5.836100E+01
50	  0.029819639	-1.300000E-02	  0.029819639	-8.160100E+01	  0.029819639	8.900000E-02	  0.029819639	-5.792400E+01
51	  0.030020041	-1.900000E-02	  0.030020041	-8.204300E+01	  0.030020041	1.310000E-01	  0.030020041	-5.747400E+01
52	  0.030220442	-2.700000E-02	  0.030220442	-8.252800E+01	  0.030220442	1.790000E-01	  0.030220442	-5.698500E+01
53	  0.030420844	-3.600000E-02	  0.030420844	-8.303200E+01	  0.030420844	2.410000E-01	  0.030420844	-5.648100E+01
54	  0.030621244	-4.500000E-02	  0.030621244	-8.355100E+01	  0.030621244	2.940000E-01	  0.030621244	-5.596800E+01
55	  0.030821644	-4.900000E-02	  0.030821644	-8.408600E+01	  0.030821644	3.140000E-01	  0.030821644	-5.544500E+01
56	  0.031022044	-4.800000E-02	  0.031022044	-8.460400E+01	  0.031022044	3.100000E-01	  0.031022044	-5.494300E+01
57	  0.031222444	-4.700000E-02	  0.031222444	-8.513000E+01	  0.031222444	2.960000E-01	  0.031222444	-5.444000E+01
58	  0.031422846	-4.600000E-02	  0.031422846	-8.565000E+01	  0.031422846	2.880000E-01	  0.031422846	-5.394600E+01
59	  0.031623244	-4.500000E-02	  0.031623244	-8.614700E+01	  0.031623244	2.830000E-01	  0.031623244	-5.347900E+01
60	  0.031823646	-4.200000E-02	  0.031823646	-8.664300E+01	  0.031823646	2.600000E-01	  0.031823646	-5.301700E+01
61	  0.032024048	-4.100000E-02	  0.032024048	-8.710700E+01	  0.032024048	2.530000E-01	  0.032024048	-5.258900E+01
62	  0.032224450	-4.100000E-02	  0.032224450	-8.755900E+01	  0.032224450	2.470000E-01	  0.032224450	-5.217600E+01
63	  0.032424849	-4.900000E-02	  0.032424849	-8.802100E+01	  0.032424849	2.970000E-01	  0.032424849	-5.175600E+01
64	  0.032625251	-6.000000E-02	  0.032625251	-8.851100E+01	  0.032625251	3.580000E-01	  0.032625251	-5.131400E+01
65	  0.032825653	-6.900000E-02	  0.032825653	-8.904200E+01	  0.032825653	4.050000E-01	  0.032825653	-5.084100E+01
66	  0.033026051	-7.600000E-02	  0.033026051	-8.960400E+01	  0.033026051	4.460000E-01	  0.033026051	-5.034400E+01
67	  0.033226453	-8.400000E-02	  0.033226453	-9.020000E+01	  0.033226453	4.870000E-01	  0.033226453	-4.982300E+01
68	  0.033426855	-8.800000E-02	  0.033426855	-9.081100E+01	  0.033426855	5.040000E-01	  0.033426855	-4.929400E+01
69	  0.033627257	-9.100000E-02	  0.033627257	-9.144900E+01	  0.033627257	5.160000E-01	  0.033627257	-4.874700E+01
70	  0.033827655	-9.300000E-02	  0.033827655	-9.208000E+01	  0.033827655	5.210000E-01	  0.033827655	-4.821300E+01
71	  0.034028057	-8.600000E-02	  0.034028057	-9.269100E+01	  0.034028057	4.740000E-01	  0.034028057	-4.770200E+01
72	  0.034228459	-8.100000E-02	  0.034228459	-9.326400E+01	  0.034228459	4.420000E-01	  0.034228459	-4.722700E+01
73	  0.034428857	-7.100000E-02	  0.034428857	-9.381200E+01	  0.034428857	3.860000E-01	  0.034428857	-4.677700E+01
74	  0.034629259	-5.900000E-02	  0.034629259	-9.431800E+01	  0.034629259	3.190000E-01	  0.034629259	-4.636500E+01
75	  0.034829661	-4.900000E-02	  0.034829661	-9.480800E+01	  0.034829661	2.600000E-01	  0.034829661	-4.596900E+01
76	  0.035030060	-4.500000E-02	  0.035030060	-9.525400E+01	  0.035030060	2.410000E-01	  0.035030060	-4.561200E+01
77	  0.035230462	-4.100000E-02	  0.035230462	-9.570100E+01	  0.035230462	2.160000E-01	  0.035230462	-4.525500E+01
78	  0.035430863	-4.300000E-02	  0.035430863	-9.612300E+01	  0.035430863	2.260000E-01	  0.035430863	-4.492200E+01
79	  0.035631265	-4.700000E-02	  0.035631265	-9.655400E+01	  0.035631265	2.470000E-01	  0.035631265	-4.458300E+01
80	  0.035831664	-5.900000E-02	  0.035831664	-9.702200E+01	  0.035831664	3.060000E-01	  0.035831664	-4.421700E+01
81	  0.036032066	-6.700000E-02	  0.036032066	-9.753300E+01	  0.036032066	3.450000E-01	  0.036032066	-4.382100E+01
82	  0.036232468	-7.700000E-02	  0.036232468	-9.805300E+01	  0.036232468	3.890000E-01	  0.036232468	-4.342100E+01
83	  0.036432866	-8.000000E-02	  0.036432866	-9.859100E+01	  0.036432866	4.020000E-01	  0.036432866	-4.301100E+01
84	  0.036633268	-8.100000E-02	  0.036633268	-9.911800E+01	  0.036633268	4.040000E-01	  0.036633268	-4.261300E+01
85	  0.036833670	-8.200000E-02	  0.036833670	-9.963600E+01	  0.036833670	4.060000E-01	  0.036833670	-4.222400E+01
86	  0.037034072	-7.700000E-02	  0.037034072	-1.001600E+02	  0.037034072	3.770000E-01	  0.037034072	-4.183400E+01
87	  0.037234470	-6.200000E-02	  0.037234470	-1.006420E+02	  0.037234470	3.050000E-01	  0.037234470	-4.147800E+01
88	  0.037434869	-5.600000E-02	  0.037434869	-1.010760E+02	  0.037434869	2.700000E-01	  0.037434869	-4.115900E+01
89	  0.037635271	-5.100000E-02	  0.037635271	-1.014940E+02	  0.037635271	2.460000E-01	  0.037635271	-4.085500E+01
90	  0.037835669	-5.300000E-02	  0.037835669	-1.019080E+02	  0.037835669	2.530000E-01	  0.037835669	-4.055400E+01
91	  0.038036071	-5.700000E-02	  0.038036071	-1.023700E+02	  0.038036071	2.720000E-01	  0.038036071	-4.022100E+01
92	  0.038236473	-6.400000E-02	  0.038236473	-1.028470E+02	  0.038236473	3.050000E-01	  0.038236473	-3.987900E+01
93	  0.038436871	-7.300000E-02	  0.038436871	-1.033480E+02	  0.038436871	3.440000E-01	  0.038436871	-3.952300E+01
94	  0.038637273	-7.900000E-02	  0.038637273	-1.038440E+02	  0.038637273	3.690000E-01	  0.038637273	-3.917200E+01
95	  0.038837675	-9.000000E-02	  0.038837675	-1.043760E+02	  0.038837675	4.190000E-01	  0.038837675	-3.879800E+01
96	  0.039038073	-9.900000E-02	  0.039038073	-1.049240E+02	  0.039038073	4.570000E-01	  0.039038073	-3.841600E+01
97	  0.039238475	-1.090000E-01	  0.039238475	-1.054770E+02	  0.039238475	4.970000E-01	  0.039238475	-3.803400E+01
98	  0.039438877	-1.080000E-01	  0.039438877	-1.060500E+02	  0.039438877	4.900000E-01	  0.039438877	-3.764000E+01
99	  0.039639279	-1.050000E-01	  0.039639279	-1.065890E+02	  0.039639279	4.720000E-01	  0.039639279	-3.727400E+01
100	  0.039839678	-1.010000E-01	  0.039839678	-1.071150E+02	  0.039839678	4.510000E-01	  0.039839678	-3.691800E+01
101	  0.040040080	-9.300000E-02	  0.040040080	-1.076170E+02	  0.040040080	4.120000E-01	  0.040040080	-3.658100E+01
102	  0.040240481	-8.700000E-02	  0.040240481	-1.080990E+02	  0.040240481	3.850000E-01	  0.040240481	-3.625900E+01
103	  0.040440880	-8.100000E-02	  0.040440880	-1.085650E+02	  0.040440880	3.570000E-01	  0.040440880	-3.594900E+01
104	  0.040641282	-8.100000E-02	  0.040641282	-1.090400E+02	  0.040641282	3.520000E-01	  0.040641282	-3.563600E+01
105	  0.040841684	-8.200000E-02	  0.040841684	-1.094960E+02	  0.040841684	3.540000E-01	  0.040841684	-3.533700E+01
106	  0.041042086	-8.600000E-02	  0.041042086	-1.099660E+02	  0.041042086	3.690000E-01	  0.041042086	-3.503100E+01
107	  0.041242484	-9.500000E-02	  0.041242484	-1.104240E+02	  0.041242484	4.070000E-01	  0.041242484	-3.473300E+01
108	  0.041442886	-1.070000E-01	  0.041442886	-1.109010E+02	  0.041442886	4.540000E-01	  0.041442886	-3.442500E+01
109	  0.041643288	-1.150000E-01	  0.041643288	-1.114550E+02	  0.041643288	4.870000E-01	  0.041643288	-3.406900E+01
110	  0.041843686	-1.220000E-01	  0.041843686	-1.120150E+02	  0.041843686	5.130000E-01	  0.041843686	-3.371300E+01
111	  0.042044088	-1.240000E-01	  0.042044088	-1.125710E+02	  0.042044088	5.180000E-01	  0.042044088	-3.336100E+01
112	  0.042244490	-1.170000E-01	  0.042244490	-1.131210E+02	  0.042244490	4.860000E-01	  0.042244490	-3.301500E+01
113	  0.042444889	-1.040000E-01	  0.042444889	-1.136580E+02	  0.042444889	4.300000E-01	  0.042444889	-3.268100E+01
114	  0.042645290	-9.100000E-02	  0.042645290	-1.141670E+02	  0.042645290	3.720000E-01	  0.042645290	-3.236500E+01
115	  0.042845692	-8.400000E-02	  0.042845692	-1.146350E+02	  0.042845692	3.410000E-01	  0.042845692	-3.207600E+01
116	  0.043046094	-7.900000E-02	  0.043046094	-1.150940E+02	  0.043046094	3.220000E-01	  0.043046094	-3.179400E+01
117	  0.043246493	-8.000000E-02	  0.043246493	-1.155340E+02	  0.043246493	3.230000E-01	  0.043246493	-3.152500E+01
118	  0.043446895	-8.100000E-02	  0.043446895	-1.160350E+02	  0.043446895	3.260000E-01	  0.043446895	-3.122100E+01
119	  0.043647297	-8.600000E-02	  0.043647297	-1.164860E+02	  0.043647297	3.450000E-01	  0.043647297	-3.094800E+01
120	  0.043847695	-8.700000E-02	  0.043847695	-1.169490E+02	  0.043847695	3.470000E-01	  0.043847695	-3.066900E+01
121	  0.044048097	-9.200000E-02	  0.044048097	-1.174190E+02	  0.044048097	3.640000E-01	  0.044048097	-3.038700E+01
122	  0.044248499	-1.000000E-01	  0.044248499	-1.178700E+02	  0.044248499	3.930000E-01	  0.044248499	-3.011800E+01
123	  0.044448901	-1.050000E-01	  0.044448901	-1.183820E+02	  0.044448901	4.110000E-01	  0.044448901	-2.981500E+01
124	  0.044649299	-1.070000E-01	  0.044649299	-1.188690E+02	  0.044649299	4.160000E-01	  0.044649299	-2.952700E+01
125	  0.044849701	-1.050000E-01	  0.044849701	-1.193560E+02	  0.044849701	4.080000E-01	  0.044849701	-2.924100E+01
126	  0.045050103	-1.050000E-01	  0.045050103	-1.198060E+02	  0.045050103	4.040000E-01	  0.045050103	-2.897900E+01
127	  0.045250501	-1.000000E-01	  0.045250501	-1.202340E+02	  0.045250501	3.860000E-01	  0.045250501	-2.873000E+01
128	  0.045450903	-9.800000E-02	  0.045450903	-1.206610E+02	  0.045450903	3.730000E-01	  0.045450903	-2.848200E+01
129	  0.045651305	-9.800000E-02	  0.045651305	-1.211020E+02	  0.045651305	3.720000E-01	  0.045651305	-2.822800E+01
130	  0.045851704	-9.500000E-02	  0.045851704	-1.215470E+02	  0.045851704	3.590000E-01	  0.045851704	-2.797200E+01
131	  0.046052106	-9.700000E-02	  0.046052106	-1.219760E+02	  0.046052106	3.660000E-01	  0.046052106	-2.772700E+01
132	  0.046252504	-9.600000E-02	  0.046252504	-1.223880E+02	  0.046252504	3.610000E-01	  0.046252504	-2.749300E+01
133	  0.046452906	-1.040000E-01	  0.046452906	-1.227860E+02	  0.046452906	3.890000E-01	  0.046452906	-2.726700E+01
134	  0.046653304	-1.180000E-01	  0.046653304	-1.231840E+02	  0.046653304	4.390000E-01	  0.046653304	-2.704200E+01
135	  0.046853706	-1.320000E-01	  0.046853706	-1.236380E+02	  0.046853706	4.890000E-01	  0.046853706	-2.678600E+01
136	  0.047054108	-1.450000E-01	  0.047054108	-1.241340E+02	  0.047054108	5.340000E-01	  0.047054108	-2.650700E+01
137	  0.047254506	-1.470000E-01	  0.047254506	-1.246690E+02	  0.047254506	5.400000E-01	  0.047254506	-2.620900E+01
138	  0.047454908	-1.480000E-01	  0.047454908	-1.252200E+02	  0.047454908	5.430000E-01	  0.047454908	-2.590300E+01
139	  0.047655310	-1.420000E-01	  0.047655310	-1.257410E+02	  0.047655310	5.180000E-01	  0.047655310	-2.561600E+01
140	  0.047855709	-1.360000E-01	  0.047855709	-1.262650E+02	  0.047855709	4.920000E-01	  0.047855709	-2.532800E+01
141	  0.048056111	-1.300000E-01	  0.048056111	-1.267760E+02	  0.048056111	4.690000E-01	  0.048056111	-2.504900E+01
142	  0.048256513	-1.280000E-01	  0.048256513	-1.272670E+02	  0.048256513	4.620000E-01	  0.048256513	-2.478100E+01
143	  0.048456915	-1.310000E-01	  0.048456915	-1.277760E+02	  0.048456915	4.690000E-01	  0.048456915	-2.450500E+01
144	  0.048657313	-1.300000E-01	  0.048657313	-1.282790E+02	  0.048657313	4.640000E-01	  0.048657313	-2.423400E+01
145	  0.048857715	-1.330000E-01	  0.048857715	-1.287790E+02	  0.048857715	4.720000E-01	  0.048857715	-2.396500E+01
146	  0.049058117	-1.350000E-01	  0.049058117	-1.292870E+02	  0.049058117	4.780000E-01	  0.049058117	-2.369300E+01
147	  0.049258515	-1.390000E-01	  0.049258515	-1.297940E+02	  0.049258515	4.880000E-01	  0.049258515	-2.342200E+01
148	  0.049458917	-1.440000E-01	  0.049458917	-1.303150E+02	  0.049458917	5.060000E-01	  0.049458917	-2.314500E+01
149	  0.049659319	-1.420000E-01	  0.049659319	-1.308580E+02	  0.049659319	4.970000E-01	  0.049659319	-2.285900E+01
150	  0.049859721	-1.440000E-01	  0.049859721	-1.313700E+02	  0.049859721	5.000000E-01	  0.049859721	-2.258900E+01
151	  0.050060119	-1.390000E-01	  0.050060119	-1.318810E+02	  0.050060119	4.820000E-01	  0.050060119	-2.232100E+01
152	  0.050260521	-1.350000E-01	  0.050260521	-1.323490E+02	  0.050260521	4.640000E-01	  0.050260521	-2.207700E+01
153	  0.050460923	-1.360000E-01	  0.050460923	-1.328100E+02	  0.050460923	4.660000E-01	  0.050460923	-2.183700E+01
154	  0.050661322	-1.350000E-01	  0.050661322	-1.332760E+02	  0.050661322	4.630000E-01	  0.050661322	-2.159500E+01
155	  0.050861724	-1.300000E-01	  0.050861724	-1.337360E+02	  0.050861724	4.430000E-01	  0.050861724	-2.135700E+01
156	  0.051062126	-1.260000E-01	  0.051062126	-1.342070E+02	  0.051062126	4.280000E-01	  0.051062126	-2.111500E+01
157	  0.051262524	-1.220000E-01	  0.051262524	-1.346330E+02	  0.051262524	4.140000E-01	  0.051262524	-2.089600E+01
158	  0.051462926	-1.190000E-01	  0.051462926	-1.350420E+02	  0.051462926	4.030000E-01	  0.051462926	-2.068700E+01
159	  0.051663328	-1.210000E-01	  0.051663328	-1.354170E+02	  0.051663328	4.070000E-01	  0.051663328	-2.049600E+01
160	  0.051863730	-1.280000E-01	  0.051863730	-1.357940E+02	  0.051863730	4.290000E-01	  0.051863730	-2.030400E+01
161	  0.052064128	-1.370000E-01	  0.052064128	-1.362050E+02	  0.052064128	4.600000E-01	  0.052064128	-2.009500E+01
162	  0.052264530	-1.460000E-01	  0.052264530	-1.366310E+02	  0.052264530	4.890000E-01	  0.052264530	-1.987900E+01
163	  0.052464932	-1.500000E-01	  0.052464932	-1.370980E+02	  0.052464932	4.980000E-01	  0.052464932	-1.964400E+01
164	  0.052665330	-1.530000E-01	  0.052665330	-1.375570E+02	  0.052665330	5.080000E-01	  0.052665330	-1.941300E+01
165	  0.052865732	-1.500000E-01	  0.052865732	-1.380300E+02	  0.052865732	4.980000E-01	  0.052865732	-1.917600E+01
166	  0.053066134	-1.450000E-01	  0.053066134	-1.384660E+02	  0.053066134	4.780000E-01	  0.053066134	-1.895800E+01
167	  0.053266536	-1.460000E-01	  0.053266536	-1.389170E+02	  0.053266536	4.800000E-01	  0.053266536	-1.873300E+01
168	  0.053466935	-1.440000E-01	  0.053466935	-1.393870E+02	  0.053466935	4.720000E-01	  0.053466935	-1.850000E+01
169	  0.053667337	-1.450000E-01	  0.053667337	-1.398300E+02	  0.053667337	4.760000E-01	  0.053667337	-1.828000E+01
170	  0.053867739	-1.450000E-01	  0.053867739	-1.402660E+02	  0.053867739	4.730000E-01	  0.053867739	-1.806500E+01
171	  0.054068137	-1.510000E-01	  0.054068137	-1.407090E+02	  0.054068137	4.900000E-01	  0.054068137	-1.784700E+01
172	  0.054268539	-1.530000E-01	  0.054268539	-1.411580E+02	  0.054268539	4.970000E-01	  0.054268539	-1.762600E+01
173	  0.054468941	-1.610000E-01	  0.054468941	-1.416090E+02	  0.054468941	5.200000E-01	  0.054468941	-1.740500E+01
174	  0.054669339	-1.650000E-01	  0.054669339	-1.420890E+02	  0.054669339	5.330000E-01	  0.054669339	-1.717000E+01
175	  0.054869737	-1.700000E-01	  0.054869737	-1.425680E+02	  0.054869737	5.460000E-01	  0.054869737	-1.693700E+01
176	  0.055070139	-1.680000E-01	  0.055070139	-1.430430E+02	  0.055070139	5.390000E-01	  0.055070139	-1.670600E+01
177	  0.055270538	-1.670000E-01	  0.055270538	-1.434990E+02	  0.055270538	5.340000E-01	  0.055270538	-1.648600E+01
178	  0.055470940	-1.660000E-01	  0.055470940	-1.439480E+02	  0.055470940	5.310000E-01	  0.055470940	-1.626900E+01
179	  0.055671342	-1.680000E-01	  0.055671342	-1.444000E+02	  0.055671342	5.330000E-01	  0.055671342	-1.605100E+01
180	  0.055871744	-1.700000E-01	  0.055871744	-1.448660E+02	  0.055871744	5.390000E-01	  0.055871744	-1.582700E+01
181	  0.056072142	-1.700000E-01	  0.056072142	-1.453320E+02	  0.056072142	5.390000E-01	  0.056072142	-1.560300E+01
182	  0.056272544	-1.660000E-01	  0.056272544	-1.457890E+02	  0.056272544	5.240000E-01	  0.056272544	-1.538500E+01
183	  0.056472946	-1.650000E-01	  0.056472946	-1.462250E+02	  0.056472946	5.200000E-01	  0.056472946	-1.517700E+01
184	  0.056673344	-1.640000E-01	  0.056673344	-1.466620E+02	  0.056673344	5.160000E-01	  0.056673344	-1.496900E+01
185	  0.056873746	-1.640000E-01	  0.056873746	-1.470790E+02	  0.056873746	5.140000E-01	  0.056873746	-1.477100E+01
186	  0.057074148	-1.660000E-01	  0.057074148	-1.474850E+02	  0.057074148	5.190000E-01	  0.057074148	-1.457900E+01
187	  0.057274550	-1.710000E-01	  0.057274550	-1.478920E+02	  0.057274550	5.330000E-01	  0.057274550	-1.438600E+01
188	  0.057474948	-1.780000E-01	  0.057474948	-1.483270E+02	  0.057474948	5.550000E-01	  0.057474948	-1.418100E+01
189	  0.057675350	-1.780000E-01	  0.057675350	-1.487850E+02	  0.057675350	5.540000E-01	  0.057675350	-1.396500E+01
190	  0.057875752	-1.840000E-01	  0.057875752	-1.492450E+02	  0.057875752	5.700000E-01	  0.057875752	-1.374900E+01
191	  0.058076151	-1.860000E-01	  0.058076151	-1.497050E+02	  0.058076151	5.760000E-01	  0.058076151	-1.353300E+01
192	  0.058276553	-1.830000E-01	  0.058276553	-1.501900E+02	  0.058276553	5.650000E-01	  0.058276553	-1.330600E+01
193	  0.058476955	-1.820000E-01	  0.058476955	-1.506580E+02	  0.058476955	5.610000E-01	  0.058476955	-1.308800E+01
194	  0.058677353	-1.820000E-01	  0.058677353	-1.511290E+02	  0.058677353	5.610000E-01	  0.058677353	-1.286900E+01
195	  0.058877755	-1.820000E-01	  0.058877755	-1.515920E+02	  0.058877755	5.570000E-01	  0.058877755	-1.265400E+01
196	  0.059078157	-1.790000E-01	  0.059078157	-1.520330E+02	  0.059078157	5.500000E-01	  0.059078157	-1.244900E+01
197	  0.059278559	-1.850000E-01	  0.059278559	-1.524750E+02	  0.059278559	5.640000E-01	  0.059278559	-1.224400E+01
198	  0.059478957	-1.860000E-01	  0.059478957	-1.529400E+02	  0.059478957	5.690000E-01	  0.059478957	-1.202900E+01
199	  0.059679359	-1.900000E-01	  0.059679359	-1.534030E+02	  0.059679359	5.770000E-01	  0.059679359	-1.181600E+01
200	  0.059879761	-1.950000E-01	  0.059879761	-1.538690E+02	  0.059879761	5.920000E-01	  0.059879761	-1.160100E+01
201	  0.060080159	-1.940000E-01	  0.060080159	-1.543340E+02	  0.060080159	5.880000E-01	  0.060080159	-1.138800E+01
202	  0.060280561	-1.950000E-01	  0.060280561	-1.547650E+02	  0.060280561	5.900000E-01	  0.060280561	-1.119000E+01
203	  0.060480963	-1.910000E-01	  0.060480963	-1.552080E+02	  0.060480963	5.770000E-01	  0.060480963	-1.098800E+01
204	  0.060681365	-1.940000E-01	  0.060681365	-1.556310E+02	  0.060681365	5.860000E-01	  0.060681365	-1.079400E+01
205	  0.060881764	-1.970000E-01	  0.060881764	-1.560650E+02	  0.060881764	5.930000E-01	  0.060881764	-1.059600E+01
206	  0.061082166	-1.980000E-01	  0.061082166	-1.565010E+02	  0.061082166	5.940000E-01	  0.061082166	-1.039700E+01
207	  0.061282568	-1.950000E-01	  0.061282568	-1.569250E+02	  0.061282568	5.870000E-01	  0.061282568	-1.020500E+01
208	  0.061482966	-1.960000E-01	  0.061482966	-1.573600E+02	  0.061482966	5.870000E-01	  0.061482966	-1.000700E+01
209	  0.061683368	-1.940000E-01	  0.061683368	-1.577630E+02	  0.061683368	5.800000E-01	  0.061683368	-9.824000E+00
210	  0.061883770	-1.940000E-01	  0.061883770	-1.581690E+02	  0.061883770	5.810000E-01	  0.061883770	-9.640000E+00
211	  0.062084168	-1.930000E-01	  0.062084168	-1.585620E+02	  0.062084168	5.760000E-01	  0.062084168	-9.463000E+00
212	  0.062284570	-1.940000E-01	  0.062284570	-1.589480E+02	  0.062284570	5.790000E-01	  0.062284570	-9.288000E+00
213	  0.062484972	-1.950000E-01	  0.062484972	-1.593080E+02	  0.062484972	5.820000E-01	  0.062484972	-9.126000E+00
214	  0.062685370	-1.950000E-01	  0.062685370	-1.596890E+02	  0.062685370	5.810000E-01	  0.062685370	-8.955000E+00
215	  0.062885776	-2.010000E-01	  0.062885776	-1.600610E+02	  0.062885776	5.960000E-01	  0.062885776	-8.787000E+00
216	  0.063086174	-2.080000E-01	  0.063086174	-1.604850E+02	  0.063086174	6.170000E-01	  0.063086174	-8.596000E+00
217	  0.063286573	-2.090000E-01	  0.063286573	-1.609130E+02	  0.063286573	6.200000E-01	  0.063286573	-8.404000E+00
218	  0.063486971	-2.120000E-01	  0.063486971	-1.613440E+02	  0.063486971	6.270000E-01	  0.063486971	-8.211000E+00
219	  0.063687377	-2.070000E-01	  0.063687377	-1.617720E+02	  0.063687377	6.120000E-01	  0.063687377	-8.019000E+00
220	  0.063887775	-2.080000E-01	  0.063887775	-1.621870E+02	  0.063887775	6.150000E-01	  0.063887775	-7.834000E+00
221	  0.064088173	-2.090000E-01	  0.064088173	-1.626050E+02	  0.064088173	6.170000E-01	  0.064088173	-7.647000E+00
222	  0.064288579	-2.110000E-01	  0.064288579	-1.630390E+02	  0.064288579	6.230000E-01	  0.064288579	-7.453000E+00
223	  0.064488977	-2.150000E-01	  0.064488977	-1.634520E+02	  0.064488977	6.330000E-01	  0.064488977	-7.269000E+00
224	  0.064689375	-2.170000E-01	  0.064689375	-1.639100E+02	  0.064689375	6.380000E-01	  0.064689375	-7.065000E+00
225	  0.064889781	-2.210000E-01	  0.064889781	-1.643530E+02	  0.064889781	6.500000E-01	  0.064889781	-6.868000E+00
226	  0.065090179	-2.230000E-01	  0.065090179	-1.648060E+02	  0.065090179	6.540000E-01	  0.065090179	-6.667000E+00
227	  0.065290578	-2.220000E-01	  0.065290578	-1.652420E+02	  0.065290578	6.490000E-01	  0.065290578	-6.473000E+00
228	  0.065490983	-2.240000E-01	  0.065490983	-1.656810E+02	  0.065490983	6.550000E-01	  0.065490983	-6.279000E+00
229	  0.065691382	-2.270000E-01	  0.065691382	-1.661150E+02	  0.065691382	6.640000E-01	  0.065691382	-6.087000E+00
230	  0.065891780	-2.290000E-01	  0.065891780	-1.665620E+02	  0.065891780	6.700000E-01	  0.065891780	-5.889000E+00
231	  0.066092186	-2.290000E-01	  0.066092186	-1.669980E+02	  0.066092186	6.680000E-01	  0.066092186	-5.696000E+00
232	  0.066292584	-2.310000E-01	  0.066292584	-1.674190E+02	  0.066292584	6.740000E-01	  0.066292584	-5.510000E+00
233	  0.066492982	-2.290000E-01	  0.066492982	-1.678980E+02	  0.066492982	6.660000E-01	  0.066492982	-5.299000E+00
234	  0.066693388	-2.280000E-01	  0.066693388	-1.683250E+02	  0.066693388	6.650000E-01	  0.066693388	-5.110000E+00
235	  0.066893786	-2.330000E-01	  0.066893786	-1.687360E+02	  0.066893786	6.780000E-01	  0.066893786	-4.929000E+00
236	  0.067094192	-2.330000E-01	  0.067094192	-1.691860E+02	  0.067094192	6.780000E-01	  0.067094192	-4.731000E+00
237	  0.067294590	-2.340000E-01	  0.067294590	-1.696080E+02	  0.067294590	6.800000E-01	  0.067294590	-4.545000E+00
238	  0.067494988	-2.340000E-01	  0.067494988	-1.700130E+02	  0.067494988	6.800000E-01	  0.067494988	-4.367000E+00
239	  0.067695394	-2.310000E-01	  0.067695394	-1.704270E+02	  0.067695394	6.720000E-01	  0.067695394	-4.185000E+00
240	  0.067895792	-2.330000E-01	  0.067895792	-1.707970E+02	  0.067895792	6.760000E-01	  0.067895792	-4.023000E+00
241	  0.068096191	-2.360000E-01	  0.068096191	-1.711990E+02	  0.068096191	6.840000E-01	  0.068096191	-3.846000E+00
242	  0.068296596	-2.370000E-01	  0.068296596	-1.716220E+02	  0.068296596	6.880000E-01	  0.068296596	-3.661000E+00
243	  0.068496995	-2.410000E-01	  0.068496995	-1.720320E+02	  0.068496995	6.980000E-01	  0.068496995	-3.481000E+00
244	  0.068697393	-2.420000E-01	  0.068697393	-1.724360E+02	  0.068697393	7.010000E-01	  0.068697393	-3.304000E+00
245	  0.068897791	-2.400000E-01	  0.068897791	-1.728530E+02	  0.068897791	6.940000E-01	  0.068897791	-3.121000E+00
246	  0.069098189	-2.380000E-01	  0.069098189	-1.732920E+02	  0.069098189	6.890000E-01	  0.069098189	-2.929000E+00
247	  0.069298595	-2.420000E-01	  0.069298595	-1.736880E+02	  0.069298595	6.990000E-01	  0.069298595	-2.756000E+00
248	  0.069498993	-2.450000E-01	  0.069498993	-1.740890E+02	  0.069498993	7.080000E-01	  0.069498993	-2.580000E+00
249	  0.069699399	-2.470000E-01	  0.069699399	-1.745320E+02	  0.069699399	7.140000E-01	  0.069699399	-2.386000E+00
250	  0.069899797	-2.500000E-01	  0.069899797	-1.749640E+02	  0.069899797	7.210000E-01	  0.069899797	-2.198000E+00
251	  0.070100196	-2.510000E-01	  0.070100196	-1.754070E+02	  0.070100196	7.240000E-01	  0.070100196	-2.004000E+00
252	  0.070300601	-2.570000E-01	  0.070300601	-1.758260E+02	  0.070300601	7.420000E-01	  0.070300601	-1.821000E+00
253	  0.070501000	-2.580000E-01	  0.070501000	-1.762500E+02	  0.070501000	7.450000E-01	  0.070501000	-1.636000E+00
254	  0.070701398	-2.570000E-01	  0.070701398	-1.766820E+02	  0.070701398	7.410000E-01	  0.070701398	-1.447000E+00
255	  0.070901804	-2.610000E-01	  0.070901804	-1.770840E+02	  0.070901804	7.540000E-01	  0.070901804	-1.272000E+00
256	  0.071102202	-2.630000E-01	  0.071102202	-1.775210E+02	  0.071102202	7.590000E-01	  0.071102202	-1.081000E+00
257	  0.071302600	-2.620000E-01	  0.071302600	-1.779720E+02	  0.071302600	7.550000E-01	  0.071302600	-8.840000E-01
258	  0.071503006	-2.610000E-01	  0.071503006	-1.783930E+02	  0.071503006	7.540000E-01	  0.071503006	-7.000000E-01
259	  0.071703404	-2.610000E-01	  0.071703404	-1.788190E+02	  0.071703404	7.510000E-01	  0.071703404	-5.140000E-01
260	  0.071903802	-2.620000E-01	  0.071903802	-1.792320E+02	  0.071903802	7.550000E-01	  0.071903802	-3.340000E-01
261	  0.072104208	-2.640000E-01	  0.072104208	-1.796690E+02	  0.072104208	7.610000E-01	  0.072104208	-1.440000E-01
262	  0.072304606	-2.640000E-01	  0.072304606	1.799140E+02	  0.072304606	7.610000E-01	  0.072304606	3.700000E-02
263	  0.072505005	-2.630000E-01	  0.072505005	1.795140E+02	  0.072505005	7.590000E-01	  0.072505005	2.110000E-01
264	  0.072705410	-2.630000E-01	  0.072705410	1.791190E+02	  0.072705410	7.570000E-01	  0.072705410	3.840000E-01
265	  0.072905809	-2.630000E-01	  0.072905809	1.787430E+02	  0.072905809	7.580000E-01	  0.072905809	5.480000E-01
266	  0.073106214	-2.630000E-01	  0.073106214	1.783560E+02	  0.073106214	7.570000E-01	  0.073106214	7.170000E-01
267	  0.073306613	-2.610000E-01	  0.073306613	1.780000E+02	  0.073306613	7.530000E-01	  0.073306613	8.720000E-01
268	  0.073507011	-2.640000E-01	  0.073507011	1.776000E+02	  0.073507011	7.620000E-01	  0.073507011	1.046000E+00
269	  0.073707417	-2.630000E-01	  0.073707417	1.772370E+02	  0.073707417	7.580000E-01	  0.073707417	1.205000E+00
270	  0.073907815	-2.640000E-01	  0.073907815	1.768630E+02	  0.073907815	7.620000E-01	  0.073907815	1.368000E+00
271	  0.074108213	-2.600000E-01	  0.074108213	1.764930E+02	  0.074108213	7.510000E-01	  0.074108213	1.530000E+00
272	  0.074308619	-2.620000E-01	  0.074308619	1.761200E+02	  0.074308619	7.570000E-01	  0.074308619	1.693000E+00
273	  0.074509017	-2.610000E-01	  0.074509017	1.757600E+02	  0.074509017	7.520000E-01	  0.074509017	1.850000E+00
274	  0.074709415	-2.650000E-01	  0.074709415	1.753820E+02	  0.074709415	7.640000E-01	  0.074709415	2.015000E+00
275	  0.074909821	-2.720000E-01	  0.074909821	1.750040E+02	  0.074909821	7.850000E-01	  0.074909821	2.180000E+00
276	  0.075110219	-2.740000E-01	  0.075110219	1.746060E+02	  0.075110219	7.900000E-01	  0.075110219	2.354000E+00
277	  0.075310618	-2.780000E-01	  0.075310618	1.742270E+02	  0.075310618	8.040000E-01	  0.075310618	2.520000E+00
278	  0.075511023	-2.820000E-01	  0.075511023	1.738420E+02	  0.075511023	8.160000E-01	  0.075511023	2.688000E+00
279	  0.075711422	-2.810000E-01	  0.075711422	1.734740E+02	  0.075711422	8.130000E-01	  0.075711422	2.849000E+00
280	  0.075911827	-2.890000E-01	  0.075911827	1.730740E+02	  0.075911827	8.360000E-01	  0.075911827	3.024000E+00
281	  0.076112226	-2.880000E-01	  0.076112226	1.726700E+02	  0.076112226	8.330000E-01	  0.076112226	3.201000E+00
282	  0.076312624	-2.950000E-01	  0.076312624	1.722690E+02	  0.076312624	8.530000E-01	  0.076312624	3.377000E+00
283	  0.076513030	-2.940000E-01	  0.076513030	1.718370E+02	  0.076513030	8.520000E-01	  0.076513030	3.566000E+00
284	  0.076713428	-2.970000E-01	  0.076713428	1.714100E+02	  0.076713428	8.610000E-01	  0.076713428	3.753000E+00
285	  0.076913826	-2.990000E-01	  0.076913826	1.709880E+02	  0.076913826	8.680000E-01	  0.076913826	3.939000E+00
286	  0.077114232	-3.010000E-01	  0.077114232	1.705700E+02	  0.077114232	8.740000E-01	  0.077114232	4.122000E+00
287	  0.077314630	-3.030000E-01	  0.077314630	1.701290E+02	  0.077314630	8.790000E-01	  0.077314630	4.316000E+00
288	  0.077515028	-3.030000E-01	  0.077515028	1.696920E+02	  0.077515028	8.790000E-01	  0.077515028	4.508000E+00
289	  0.077715434	-3.040000E-01	  0.077715434	1.692820E+02	  0.077715434	8.850000E-01	  0.077715434	4.688000E+00
290	  0.077915832	-3.070000E-01	  0.077915832	1.688670E+02	  0.077915832	8.940000E-01	  0.077915832	4.871000E+00
291	  0.078116231	-3.070000E-01	  0.078116231	1.684480E+02	  0.078116231	8.940000E-01	  0.078116231	5.055000E+00
292	  0.078316636	-3.090000E-01	  0.078316636	1.680520E+02	  0.078316636	9.000000E-01	  0.078316636	5.230000E+00
293	  0.078517035	-3.100000E-01	  0.078517035	1.676180E+02	  0.078517035	9.040000E-01	  0.078517035	5.421000E+00
294	  0.078717433	-3.090000E-01	  0.078717433	1.672010E+02	  0.078717433	9.000000E-01	  0.078717433	5.606000E+00
295	  0.078917839	-3.100000E-01	  0.078917839	1.667930E+02	  0.078917839	9.040000E-01	  0.078917839	5.786000E+00
296	  0.079118237	-3.070000E-01	  0.079118237	1.663960E+02	  0.079118237	8.970000E-01	  0.079118237	5.961000E+00
297	  0.079318643	-3.040000E-01	  0.079318643	1.660170E+02	  0.079318643	8.880000E-01	  0.079318643	6.129000E+00
298	  0.079519041	-3.030000E-01	  0.079519041	1.656320E+02	  0.079519041	8.870000E-01	  0.079519041	6.300000E+00
299	  0.079719439	-3.020000E-01	  0.079719439	1.652580E+02	  0.079719439	8.850000E-01	  0.079719439	6.466000E+00
300	  0.079919845	-3.040000E-01	  0.079919845	1.648970E+02	  0.079919845	8.910000E-01	  0.079919845	6.626000E+00
301	  0.080120243	-3.060000E-01	  0.080120243	1.645110E+02	  0.080120243	8.990000E-01	  0.080120243	6.797000E+00
302	  0.080320641	-3.060000E-01	  0.080320641	1.641380E+02	  0.080320641	8.980000E-01	  0.080320641	6.963000E+00
303	  0.080521047	-3.080000E-01	  0.080521047	1.637770E+02	  0.080521047	9.070000E-01	  0.080521047	7.123000E+00
304	  0.080721445	-3.090000E-01	  0.080721445	1.634250E+02	  0.080721445	9.090000E-01	  0.080721445	7.280000E+00
305	  0.080921844	-3.120000E-01	  0.080921844	1.630730E+02	  0.080921844	9.200000E-01	  0.080921844	7.437000E+00
306	  0.081122249	-3.110000E-01	  0.081122249	1.627340E+02	  0.081122249	9.160000E-01	  0.081122249	7.588000E+00
307	  0.081322648	-3.130000E-01	  0.081322648	1.623830E+02	  0.081322648	9.250000E-01	  0.081322648	7.744000E+00
308	  0.081523046	-3.150000E-01	  0.081523046	1.619970E+02	  0.081523046	9.310000E-01	  0.081523046	7.917000E+00
309	  0.081723452	-3.160000E-01	  0.081723452	1.616460E+02	  0.081723452	9.330000E-01	  0.081723452	8.074000E+00
310	  0.081923850	-3.180000E-01	  0.081923850	1.612770E+02	  0.081923850	9.400000E-01	  0.081923850	8.239000E+00
311	  0.082124248	-3.190000E-01	  0.082124248	1.609030E+02	  0.082124248	9.440000E-01	  0.082124248	8.407000E+00
312	  0.082324654	-3.210000E-01	  0.082324654	1.605410E+02	  0.082324654	9.530000E-01	  0.082324654	8.569000E+00
313	  0.082525052	-3.220000E-01	  0.082525052	1.601570E+02	  0.082525052	9.570000E-01	  0.082525052	8.742000E+00
314	  0.082725458	-3.240000E-01	  0.082725458	1.597850E+02	  0.082725458	9.620000E-01	  0.082725458	8.909000E+00
315	  0.082925856	-3.240000E-01	  0.082925856	1.594180E+02	  0.082925856	9.640000E-01	  0.082925856	9.075000E+00
316	  0.083126254	-3.270000E-01	  0.083126254	1.590690E+02	  0.083126254	9.730000E-01	  0.083126254	9.232000E+00
317	  0.083326660	-3.300000E-01	  0.083326660	1.586950E+02	  0.083326660	9.850000E-01	  0.083326660	9.400000E+00
318	  0.083527058	-3.300000E-01	  0.083527058	1.583230E+02	  0.083527058	9.860000E-01	  0.083527058	9.568000E+00
319	  0.083727457	-3.320000E-01	  0.083727457	1.579000E+02	  0.083727457	9.940000E-01	  0.083727457	9.760000E+00
320	  0.083927862	-3.390000E-01	  0.083927862	1.574960E+02	  0.083927862	1.015000E+00	  0.083927862	9.943000E+00
321	  0.084128261	-3.360000E-01	  0.084128261	1.570850E+02	  0.084128261	1.009000E+00	  0.084128261	1.012900E+01
322	  0.084328659	-3.380000E-01	  0.084328659	1.566830E+02	  0.084328659	1.015000E+00	  0.084328659	1.031200E+01
323	  0.084529065	-3.340000E-01	  0.084529065	1.562940E+02	  0.084529065	1.005000E+00	  0.084529065	1.048900E+01
324	  0.084729463	-3.360000E-01	  0.084729463	1.559320E+02	  0.084729463	1.011000E+00	  0.084729463	1.065400E+01
325	  0.084929861	-3.350000E-01	  0.084929861	1.555420E+02	  0.084929861	1.011000E+00	  0.084929861	1.083200E+01
326	  0.085130267	-3.370000E-01	  0.085130267	1.551600E+02	  0.085130267	1.019000E+00	  0.085130267	1.100600E+01
327	  0.085330658	-3.380000E-01	  0.085330658	1.547740E+02	  0.085330658	1.022000E+00	  0.085330658	1.118300E+01
328	  0.085531056	-3.380000E-01	  0.085531056	1.543890E+02	  0.085531056	1.025000E+00	  0.085531056	1.136000E+01
329	  0.085731462	-3.410000E-01	  0.085731462	1.540240E+02	  0.085731462	1.035000E+00	  0.085731462	1.152700E+01
330	  0.085931860	-3.440000E-01	  0.085931860	1.536600E+02	  0.085931860	1.046000E+00	  0.085931860	1.169400E+01
331	  0.086132258	-3.450000E-01	  0.086132258	1.533100E+02	  0.086132258	1.049000E+00	  0.086132258	1.185600E+01
332	  0.086332664	-3.450000E-01	  0.086332664	1.529400E+02	  0.086332664	1.050000E+00	  0.086332664	1.202600E+01
333	  0.086533062	-3.470000E-01	  0.086533062	1.525910E+02	  0.086533062	1.059000E+00	  0.086533062	1.218700E+01
334	  0.086733460	-3.440000E-01	  0.086733460	1.522280E+02	  0.086733460	1.052000E+00	  0.086733460	1.235500E+01
335	  0.086933866	-3.450000E-01	  0.086933866	1.518640E+02	  0.086933866	1.056000E+00	  0.086933866	1.252400E+01
336	  0.087134264	-3.450000E-01	  0.087134264	1.514950E+02	  0.087134264	1.058000E+00	  0.087134264	1.269500E+01
337	  0.087334670	-3.500000E-01	  0.087334670	1.511560E+02	  0.087334670	1.074000E+00	  0.087334670	1.285200E+01
338	  0.087535068	-3.480000E-01	  0.087535068	1.508030E+02	  0.087535068	1.070000E+00	  0.087535068	1.301600E+01
339	  0.087735467	-3.480000E-01	  0.087735467	1.504510E+02	  0.087735467	1.074000E+00	  0.087735467	1.318000E+01
340	  0.087935872	-3.450000E-01	  0.087935872	1.500910E+02	  0.087935872	1.065000E+00	  0.087935872	1.334900E+01
341	  0.088136271	-3.500000E-01	  0.088136271	1.497710E+02	  0.088136271	1.081000E+00	  0.088136271	1.349800E+01
342	  0.088336669	-3.500000E-01	  0.088336669	1.494210E+02	  0.088336669	1.084000E+00	  0.088336669	1.366200E+01
343	  0.088537075	-3.540000E-01	  0.088537075	1.490990E+02	  0.088537075	1.096000E+00	  0.088537075	1.381300E+01
344	  0.088737473	-3.560000E-01	  0.088737473	1.487350E+02	  0.088737473	1.106000E+00	  0.088737473	1.398400E+01
345	  0.088937871	-3.610000E-01	  0.088937871	1.483610E+02	  0.088937871	1.123000E+00	  0.088937871	1.416000E+01
346	  0.089138277	-3.650000E-01	  0.089138277	1.479910E+02	  0.089138277	1.138000E+00	  0.089138277	1.433400E+01
347	  0.089338675	-3.670000E-01	  0.089338675	1.475870E+02	  0.089338675	1.147000E+00	  0.089338675	1.452500E+01
348	  0.089539073	-3.720000E-01	  0.089539073	1.472160E+02	  0.089539073	1.164000E+00	  0.089539073	1.470000E+01
349	  0.089739479	-3.710000E-01	  0.089739479	1.468350E+02	  0.089739479	1.162000E+00	  0.089739479	1.488100E+01
350	  0.089939877	-3.750000E-01	  0.089939877	1.464510E+02	  0.089939877	1.178000E+00	  0.089939877	1.506300E+01
351	  0.090140276	-3.720000E-01	  0.090140276	1.460540E+02	  0.090140276	1.172000E+00	  0.090140276	1.525300E+01
352	  0.090340681	-3.740000E-01	  0.090340681	1.456480E+02	  0.090340681	1.180000E+00	  0.090340681	1.544600E+01
353	  0.090541080	-3.740000E-01	  0.090541080	1.452660E+02	  0.090541080	1.184000E+00	  0.090541080	1.562900E+01
354	  0.090741485	-3.740000E-01	  0.090741485	1.448680E+02	  0.090741485	1.186000E+00	  0.090741485	1.582000E+01
355	  0.090941884	-3.780000E-01	  0.090941884	1.445000E+02	  0.090941884	1.200000E+00	  0.090941884	1.599600E+01
356	  0.091142282	-3.750000E-01	  0.091142282	1.441140E+02	  0.091142282	1.194000E+00	  0.091142282	1.618200E+01
357	  0.091342688	-3.830000E-01	  0.091342688	1.437340E+02	  0.091342688	1.222000E+00	  0.091342688	1.636500E+01
358	  0.091543086	-3.780000E-01	  0.091543086	1.433390E+02	  0.091543086	1.208000E+00	  0.091543086	1.655600E+01
359	  0.091743484	-3.780000E-01	  0.091743484	1.429780E+02	  0.091743484	1.212000E+00	  0.091743484	1.673100E+01
360	  0.091943890	-3.750000E-01	  0.091943890	1.425890E+02	  0.091943890	1.205000E+00	  0.091943890	1.692000E+01
361	  0.092144288	-3.750000E-01	  0.092144288	1.422100E+02	  0.092144288	1.205000E+00	  0.092144288	1.710400E+01
362	  0.092344686	-3.750000E-01	  0.092344686	1.418500E+02	  0.092344686	1.210000E+00	  0.092344686	1.728000E+01
363	  0.092545092	-3.720000E-01	  0.092545092	1.414850E+02	  0.092545092	1.201000E+00	  0.092545092	1.745800E+01
364	  0.092745490	-3.740000E-01	  0.092745490	1.411610E+02	  0.092745490	1.212000E+00	  0.092745490	1.761700E+01
365	  0.092945889	-3.700000E-01	  0.092945889	1.407970E+02	  0.092945889	1.201000E+00	  0.092945889	1.779600E+01
366	  0.093146294	-3.660000E-01	  0.093146294	1.404710E+02	  0.093146294	1.190000E+00	  0.093146294	1.795700E+01
367	  0.093346693	-3.640000E-01	  0.093346693	1.401520E+02	  0.093346693	1.187000E+00	  0.093346693	1.811400E+01
368	  0.093547091	-3.660000E-01	  0.093547091	1.398650E+02	  0.093547091	1.196000E+00	  0.093547091	1.825500E+01
369	  0.093747497	-3.650000E-01	  0.093747497	1.395370E+02	  0.093747497	1.196000E+00	  0.093747497	1.841800E+01
370	  0.093947895	-3.740000E-01	  0.093947895	1.392400E+02	  0.093947895	1.227000E+00	  0.093947895	1.856400E+01
371	  0.094148301	-3.690000E-01	  0.094148301	1.388880E+02	  0.094148301	1.212000E+00	  0.094148301	1.873900E+01
372	  0.094348699	-3.750000E-01	  0.094348699	1.385800E+02	  0.094348699	1.235000E+00	  0.094348699	1.889200E+01
373	  0.094549097	-3.760000E-01	  0.094549097	1.382590E+02	  0.094549097	1.239000E+00	  0.094549097	1.905200E+01
374	  0.094749503	-3.820000E-01	  0.094749503	1.379470E+02	  0.094749503	1.264000E+00	  0.094749503	1.920800E+01
375	  0.094949901	-3.840000E-01	  0.094949901	1.376160E+02	  0.094949901	1.271000E+00	  0.094949901	1.937400E+01
376	  0.095150299	-3.860000E-01	  0.095150299	1.372910E+02	  0.095150299	1.281000E+00	  0.095150299	1.953700E+01
377	  0.095350705	-3.890000E-01	  0.095350705	1.369570E+02	  0.095350705	1.296000E+00	  0.095350705	1.970500E+01
378	  0.095551103	-3.890000E-01	  0.095551103	1.365940E+02	  0.095551103	1.298000E+00	  0.095551103	1.988800E+01
379	  0.095751502	-3.920000E-01	  0.095751502	1.362490E+02	  0.095751502	1.312000E+00	  0.095751502	2.006300E+01
380	  0.095951907	-3.900000E-01	  0.095951907	1.359100E+02	  0.095951907	1.306000E+00	  0.095951907	2.023500E+01
381	  0.096152306	-3.940000E-01	  0.096152306	1.355730E+02	  0.096152306	1.323000E+00	  0.096152306	2.040600E+01
382	  0.096352704	-3.980000E-01	  0.096352704	1.352220E+02	  0.096352704	1.342000E+00	  0.096352704	2.058400E+01
383	  0.096553110	-4.040000E-01	  0.096553110	1.348720E+02	  0.096553110	1.364000E+00	  0.096553110	2.076200E+01
384	  0.096753508	-4.050000E-01	  0.096753508	1.344910E+02	  0.096753508	1.372000E+00	  0.096753508	2.095700E+01
385	  0.096953906	-4.030000E-01	  0.096953906	1.341210E+02	  0.096953906	1.370000E+00	  0.096953906	2.114700E+01
386	  0.097154312	-4.040000E-01	  0.097154312	1.337570E+02	  0.097154312	1.377000E+00	  0.097154312	2.133500E+01
387	  0.097354710	-4.040000E-01	  0.097354710	1.333850E+02	  0.097354710	1.379000E+00	  0.097354710	2.152700E+01
388	  0.097555116	-4.040000E-01	  0.097555116	1.330110E+02	  0.097555116	1.382000E+00	  0.097555116	2.172000E+01
389	  0.097755514	-4.040000E-01	  0.097755514	1.326220E+02	  0.097755514	1.386000E+00	  0.097755514	2.192200E+01
390	  0.097955912	-4.030000E-01	  0.097955912	1.322550E+02	  0.097955912	1.388000E+00	  0.097955912	2.211300E+01
391	  0.098156318	-4.000000E-01	  0.098156318	1.318720E+02	  0.098156318	1.381000E+00	  0.098156318	2.231300E+01
392	  0.098356716	-3.990000E-01	  0.098356716	1.315160E+02	  0.098356716	1.381000E+00	  0.098356716	2.250000E+01
393	  0.098557115	-3.960000E-01	  0.098557115	1.311460E+02	  0.098557115	1.375000E+00	  0.098557115	2.269400E+01
394	  0.098757520	-3.980000E-01	  0.098757520	1.308110E+02	  0.098757520	1.385000E+00	  0.098757520	2.287100E+01
395	  0.098957919	-3.980000E-01	  0.098957919	1.304620E+02	  0.098957919	1.390000E+00	  0.098957919	2.305500E+01
396	  0.099158317	-3.970000E-01	  0.099158317	1.301030E+02	  0.099158317	1.392000E+00	  0.099158317	2.324500E+01
397	  0.099358723	-4.000000E-01	  0.099358723	1.297460E+02	  0.099358723	1.406000E+00	  0.099358723	2.343400E+01
398	  0.099559121	-3.990000E-01	  0.099559121	1.294060E+02	  0.099559121	1.408000E+00	  0.099559121	2.361500E+01
399	  0.099759519	-4.000000E-01	  0.099759519	1.290520E+02	  0.099759519	1.414000E+00	  0.099759519	2.380500E+01
400	  0.099959925	-4.110000E-01	  0.099959925	1.287030E+02	  0.099959925	1.456000E+00	  0.099959925	2.399100E+01
401	  0.100160323	-4.160000E-01	  0.100160323	1.283770E+02	  0.100160323	1.477000E+00	  0.100160323	2.416500E+01
402	  0.100360721	-4.240000E-01	  0.100360721	1.280550E+02	  0.100360721	1.510000E+00	  0.100360721	2.433800E+01
403	  0.100561127	-4.190000E-01	  0.100561127	1.276630E+02	  0.100561127	1.497000E+00	  0.100561127	2.455100E+01
404	  0.100761525	-4.240000E-01	  0.100761525	1.273010E+02	  0.100761525	1.520000E+00	  0.100761525	2.474600E+01
405	  0.100961931	-4.200000E-01	  0.100961931	1.269770E+02	  0.100961931	1.509000E+00	  0.100961931	2.492300E+01
406	  0.101162329	-4.270000E-01	  0.101162329	1.266310E+02	  0.101162329	1.540000E+00	  0.101162329	2.511100E+01
407	  0.101362728	-4.300000E-01	  0.101362728	1.262740E+02	  0.101362728	1.554000E+00	  0.101362728	2.530600E+01
408	  0.101563133	-4.290000E-01	  0.101563133	1.259530E+02	  0.101563133	1.556000E+00	  0.101563133	2.548200E+01
409	  0.101763532	-4.350000E-01	  0.101763532	1.256140E+02	  0.101763532	1.581000E+00	  0.101763532	2.566800E+01
410	  0.101963930	-4.390000E-01	  0.101963930	1.252830E+02	  0.101963930	1.601000E+00	  0.101963930	2.585000E+01
411	  0.102164336	-4.330000E-01	  0.102164336	1.249250E+02	  0.102164336	1.586000E+00	  0.102164336	2.604900E+01
412	  0.102364734	-4.330000E-01	  0.102364734	1.245870E+02	  0.102364734	1.591000E+00	  0.102364734	2.623600E+01
413	  0.102565132	-4.280000E-01	  0.102565132	1.242460E+02	  0.102565132	1.577000E+00	  0.102565132	2.642700E+01
414	  0.102765530	-4.320000E-01	  0.102765530	1.238970E+02	  0.102765530	1.597000E+00	  0.102765530	2.662100E+01
415	  0.102965929	-4.300000E-01	  0.102965929	1.235620E+02	  0.102965929	1.594000E+00	  0.102965929	2.680900E+01
416	  0.103166327	-4.330000E-01	  0.103166327	1.232680E+02	  0.103166327	1.611000E+00	  0.103166327	2.697400E+01
417	  0.103366733	-4.230000E-01	  0.103366733	1.229050E+02	  0.103366733	1.578000E+00	  0.103366733	2.718000E+01
418	  0.103567131	-4.250000E-01	  0.103567131	1.226320E+02	  0.103567131	1.590000E+00	  0.103567131	2.733400E+01
419	  0.103767529	-4.200000E-01	  0.103767529	1.222480E+02	  0.103767529	1.576000E+00	  0.103767529	2.755200E+01
420	  0.103967935	-4.190000E-01	  0.103967935	1.219730E+02	  0.103967935	1.577000E+00	  0.103967935	2.770900E+01
421	  0.104168333	-4.150000E-01	  0.104168333	1.216360E+02	  0.104168333	1.568000E+00	  0.104168333	2.790100E+01
422	  0.104368731	-4.190000E-01	  0.104368731	1.213180E+02	  0.104368731	1.586000E+00	  0.104368731	2.808300E+01
423	  0.104569137	-4.140000E-01	  0.104569137	1.209880E+02	  0.104569137	1.573000E+00	  0.104569137	2.827400E+01
424	  0.104769535	-4.080000E-01	  0.104769535	1.206730E+02	  0.104769535	1.557000E+00	  0.104769535	2.845600E+01
425	  0.104969934	-4.160000E-01	  0.104969934	1.203990E+02	  0.104969934	1.592000E+00	  0.104969934	2.861300E+01
426	  0.105170339	-4.150000E-01	  0.105170339	1.200660E+02	  0.105170339	1.591000E+00	  0.105170339	2.880600E+01
427	  0.105370738	-4.180000E-01	  0.105370738	1.197450E+02	  0.105370738	1.610000E+00	  0.105370738	2.899300E+01
428	  0.105571143	-4.210000E-01	  0.105571143	1.194240E+02	  0.105571143	1.627000E+00	  0.105571143	2.918000E+01
429	  0.105771542	-4.230000E-01	  0.105771542	1.190850E+02	  0.105771542	1.640000E+00	  0.105771542	2.937800E+01
430	  0.105971940	-4.230000E-01	  0.105971940	1.187310E+02	  0.105971940	1.646000E+00	  0.105971940	2.958600E+01
431	  0.106172346	-4.250000E-01	  0.106172346	1.184230E+02	  0.106172346	1.657000E+00	  0.106172346	2.976700E+01
432	  0.106372744	-4.290000E-01	  0.106372744	1.180710E+02	  0.106372744	1.680000E+00	  0.106372744	2.997500E+01
433	  0.106573142	-4.290000E-01	  0.106573142	1.177130E+02	  0.106573142	1.686000E+00	  0.106573142	3.018800E+01
434	  0.106773548	-4.380000E-01	  0.106773548	1.174100E+02	  0.106773548	1.727000E+00	  0.106773548	3.036700E+01
435	  0.106973946	-4.360000E-01	  0.106973946	1.170570E+02	  0.106973946	1.726000E+00	  0.106973946	3.057800E+01
436	  0.107174344	-4.410000E-01	  0.107174344	1.167140E+02	  0.107174344	1.753000E+00	  0.107174344	3.078300E+01
437	  0.107374750	-4.380000E-01	  0.107374750	1.163790E+02	  0.107374750	1.747000E+00	  0.107374750	3.098600E+01
438	  0.107575148	-4.380000E-01	  0.107575148	1.160640E+02	  0.107575148	1.750000E+00	  0.107575148	3.117600E+01
439	  0.107775547	-4.390000E-01	  0.107775547	1.157300E+02	  0.107775547	1.761000E+00	  0.107775547	3.137900E+01
440	  0.107975952	-4.410000E-01	  0.107975952	1.153970E+02	  0.107975952	1.778000E+00	  0.107975952	3.158100E+01
441	  0.108176351	-4.430000E-01	  0.108176351	1.150390E+02	  0.108176351	1.792000E+00	  0.108176351	3.180000E+01
442	  0.108376749	-4.340000E-01	  0.108376749	1.146800E+02	  0.108376749	1.763000E+00	  0.108376749	3.202100E+01
443	  0.108577155	-4.440000E-01	  0.108577155	1.143430E+02	  0.108577155	1.812000E+00	  0.108577155	3.222700E+01
444	  0.108777553	-4.380000E-01	  0.108777553	1.140150E+02	  0.108777553	1.794000E+00	  0.108777553	3.243100E+01
445	  0.108977959	-4.380000E-01	  0.108977959	1.136830E+02	  0.108977959	1.801000E+00	  0.108977959	3.263700E+01
446	  0.109178357	-4.400000E-01	  0.109178357	1.133890E+02	  0.109178357	1.813000E+00	  0.109178357	3.282000E+01
447	  0.109378755	-4.390000E-01	  0.109378755	1.130360E+02	  0.109378755	1.817000E+00	  0.109378755	3.304000E+01
448	  0.109579161	-4.440000E-01	  0.109579161	1.127110E+02	  0.109579161	1.844000E+00	  0.109579161	3.324300E+01
449	  0.109779559	-4.380000E-01	  0.109779559	1.124160E+02	  0.109779559	1.825000E+00	  0.109779559	3.343000E+01
450	  0.109979957	-4.370000E-01	  0.109979957	1.120950E+02	  0.109979957	1.828000E+00	  0.109979957	3.363300E+01
451	  0.110180363	-4.380000E-01	  0.110180363	1.117830E+02	  0.110180363	1.841000E+00	  0.110180363	3.383100E+01
452	  0.110380761	-4.390000E-01	  0.110380761	1.114860E+02	  0.110380761	1.849000E+00	  0.110380761	3.402000E+01
453	  0.110581160	-4.470000E-01	  0.110581160	1.111530E+02	  0.110581160	1.890000E+00	  0.110581160	3.423200E+01
454	  0.110781565	-4.430000E-01	  0.110781565	1.108370E+02	  0.110781565	1.883000E+00	  0.110781565	3.443500E+01
455	  0.110981964	-4.500000E-01	  0.110981964	1.105310E+02	  0.110981964	1.919000E+00	  0.110981964	3.463100E+01
456	  0.111182362	-4.460000E-01	  0.111182362	1.101620E+02	  0.111182362	1.909000E+00	  0.111182362	3.487000E+01
457	  0.111382768	-4.470000E-01	  0.111382768	1.098320E+02	  0.111382768	1.921000E+00	  0.111382768	3.508400E+01
458	  0.111583166	-4.520000E-01	  0.111583166	1.095240E+02	  0.111583166	1.952000E+00	  0.111583166	3.528400E+01
459	  0.111783572	-4.520000E-01	  0.111783572	1.092080E+02	  0.111783572	1.960000E+00	  0.111783572	3.549100E+01
460	  0.111983970	-4.570000E-01	  0.111983970	1.088880E+02	  0.111983970	1.989000E+00	  0.111983970	3.570000E+01
461	  0.112184368	-4.570000E-01	  0.112184368	1.085720E+02	  0.112184368	1.995000E+00	  0.112184368	3.590800E+01
462	  0.112384774	-4.640000E-01	  0.112384774	1.082420E+02	  0.112384774	2.034000E+00	  0.112384774	3.612600E+01
463	  0.112585172	-4.600000E-01	  0.112585172	1.078890E+02	  0.112585172	2.028000E+00	  0.112585172	3.636100E+01
464	  0.112785570	-4.590000E-01	  0.112785570	1.075800E+02	  0.112785570	2.031000E+00	  0.112785570	3.656800E+01
465	  0.112985976	-4.550000E-01	  0.112985976	1.072390E+02	  0.112985976	2.022000E+00	  0.112985976	3.679700E+01
466	  0.113186374	-4.570000E-01	  0.113186374	1.068970E+02	  0.113186374	2.037000E+00	  0.113186374	3.702700E+01
467	  0.113386773	-4.590000E-01	  0.113386773	1.065660E+02	  0.113386773	2.057000E+00	  0.113386773	3.725000E+01
468	  0.113587178	-4.590000E-01	  0.113587178	1.062330E+02	  0.113587178	2.066000E+00	  0.113587178	3.747700E+01
469	  0.113787577	-4.530000E-01	  0.113787577	1.059250E+02	  0.113787577	2.048000E+00	  0.113787577	3.768800E+01
470	  0.113987975	-4.490000E-01	  0.113987975	1.056120E+02	  0.113987975	2.037000E+00	  0.113987975	3.790300E+01
471	  0.114188381	-4.520000E-01	  0.114188381	1.052760E+02	  0.114188381	2.060000E+00	  0.114188381	3.813300E+01
472	  0.114388779	-4.520000E-01	  0.114388779	1.049680E+02	  0.114388779	2.069000E+00	  0.114388779	3.834600E+01
473	  0.114589177	-4.490000E-01	  0.114589177	1.046480E+02	  0.114589177	2.065000E+00	  0.114589177	3.856900E+01
474	  0.114789583	-4.490000E-01	  0.114789583	1.043290E+02	  0.114789583	2.074000E+00	  0.114789583	3.879100E+01
475	  0.114989981	-4.450000E-01	  0.114989981	1.040310E+02	  0.114989981	2.060000E+00	  0.114989981	3.900100E+01
476	  0.115190387	-4.400000E-01	  0.115190387	1.036930E+02	  0.115190387	2.049000E+00	  0.115190387	3.923900E+01
477	  0.115390785	-4.390000E-01	  0.115390785	1.034130E+02	  0.115390785	2.054000E+00	  0.115390785	3.943700E+01
478	  0.115591183	-4.420000E-01	  0.115591183	1.031570E+02	  0.115591183	2.075000E+00	  0.115591183	3.961700E+01
479	  0.115791589	-4.440000E-01	  0.115791589	1.028510E+02	  0.115791589	2.094000E+00	  0.115791589	3.983400E+01
480	  0.115991987	-4.460000E-01	  0.115991987	1.025620E+02	  0.115991987	2.109000E+00	  0.115991987	4.004100E+01
481	  0.116192386	-4.450000E-01	  0.116192386	1.022350E+02	  0.116192386	2.112000E+00	  0.116192386	4.027500E+01
482	  0.116392791	-4.450000E-01	  0.116392791	1.019280E+02	  0.116392791	2.124000E+00	  0.116392791	4.049600E+01
483	  0.116593190	-4.460000E-01	  0.116593190	1.016210E+02	  0.116593190	2.135000E+00	  0.116593190	4.071800E+01
484	  0.116793588	-4.480000E-01	  0.116793588	1.013140E+02	  0.116793588	2.158000E+00	  0.116793588	4.094100E+01
485	  0.116993994	-4.530000E-01	  0.116993994	1.010090E+02	  0.116993994	2.191000E+00	  0.116993994	4.116200E+01
486	  0.117194392	-4.510000E-01	  0.117194392	1.007060E+02	  0.117194392	2.192000E+00	  0.117194392	4.138500E+01
487	  0.117394790	-4.520000E-01	  0.117394790	1.004080E+02	  0.117394790	2.204000E+00	  0.117394790	4.160400E+01
488	  0.117595196	-4.550000E-01	  0.117595196	1.001080E+02	  0.117595196	2.228000E+00	  0.117595196	4.182500E+01
489	  0.117795594	-4.560000E-01	  0.117795594	9.977500E+01	  0.117795594	2.244000E+00	  0.117795594	4.207200E+01
490	  0.117995992	-4.520000E-01	  0.117995992	9.946400E+01	  0.117995992	2.233000E+00	  0.117995992	4.230500E+01
491	  0.118196398	-4.600000E-01	  0.118196398	9.912700E+01	  0.118196398	2.284000E+00	  0.118196398	4.255600E+01
492	  0.118396796	-4.610000E-01	  0.118396796	9.882000E+01	  0.118396796	2.300000E+00	  0.118396796	4.278700E+01
493	  0.118597202	-4.600000E-01	  0.118597202	9.848000E+01	  0.118597202	2.310000E+00	  0.118597202	4.304400E+01
494	  0.118797600	-4.610000E-01	  0.118797600	9.816100E+01	  0.118797600	2.323000E+00	  0.118797600	4.328700E+01
495	  0.118997999	-4.640000E-01	  0.118997999	9.785900E+01	  0.118997999	2.350000E+00	  0.118997999	4.351700E+01
496	  0.119198404	-4.620000E-01	  0.119198404	9.749900E+01	  0.119198404	2.354000E+00	  0.119198404	4.379400E+01
497	  0.119398803	-4.630000E-01	  0.119398803	9.720300E+01	  0.119398803	2.371000E+00	  0.119398803	4.402200E+01
498	  0.119599201	-4.630000E-01	  0.119599201	9.683300E+01	  0.119599201	2.382000E+00	  0.119599201	4.430900E+01
499	  0.119799607	-4.660000E-01	  0.119799607	9.652500E+01	  0.119799607	2.411000E+00	  0.119799607	4.454900E+01
500	  0.120000005	-4.650000E-01	  0.120000005	9.619200E+01	  0.120000005	2.414000E+00	  0.120000005	4.481000E+01
