! Anritsu VNA Master:             	Model: MS2036C/10/77
! SN:             	1601066
! /card0/usr/18may27.balun/252b.47.2.txt
! Existing Calibration Information:
! TYPE:             	Current Settings	Active Cal Settings
! TIME:             	05/27/2018 12:29:23 PM	05/27/2018 12:21:44 PM
! INTERNAL TEMP:    	53.8 C	53.3 C
! # POINTS:         	500	500
! START FREQ:       	20.000 MHz	20.000 MHz
! STOP FREQ:        	120.000 MHz	120.000 MHz
! SOURCE POWER:     	High	High
! IFBW:             	50 Hz	50 Hz
! AVG FACTOR:       	  1 	  1 
! REF PLANE 1:      	0 mm	0 mm
! REF PLANE 2:      	0 mm	0 mm
! CAL TYPE:         	Full S11	Full S11
! CAL METHOD:       	SOLT	SOLT
! CAL LINE TYPE:    	Coax	Coax
! DUT PORT 1:       	K-Conn(M)	K-Conn(M)
! DUT PORT 2:       	K-Conn(M)	K-Conn(M)
! CAL STATUS:       	OK: Accuracy High	--
! PROP-V:       	0.700
! CABLE LOSS:       	0.000 dB/m
! REF IMPEDANCE:       	50.0
! Trace Specific Parameters:	TR1	TR2	TR3	TR4
! TRACE.#.Y (GRAPH TYPE)	LOG MAG	PHASE	REAL IMPEDANCE	IMAGINARY IMPEDANCE
! TRACE.#.X 	FREQ.GHZ	FREQ.GHZ	FREQ.GHZ	FREQ.GHZ
! S-PARAMETER	S11	S11	S11	S11
! SMOOTH/APERTURE %	0	0	0	0
! WINDOW	NSL	NSL	NSL	NSL
! GATING	OFF	OFF	OFF	OFF
! FGTD	OFF	OFF	OFF	OFF
Marker Information per Trace:	TR1	TR2	TR3	TR4
!MK1	--	--	--	"MK1 TR4:  70.100 200 MHz,Z:(0.687 ohm, -0.528 ohm)"
!MK2	--	--	--	--
!MK3	--	--	--	--
!MK4	--	--	--	--
!MK5	--	--	--	--
!MK6	--	--	--	--
!MK7	--	--	--	--
!MK8	--	--	--	--
PNT	TR1.FREQ.GHZ	TR1.LOG MAG.dB	TR2.FREQ.GHZ	TR2.PHASE.deg	TR3.FREQ.GHZ	TR3.REAL IMPEDANCE.ohm	TR4.FREQ.GHZ	TR4.IMAGINARY IMPEDANCE.ohm
1	  0.020000000	-2.800000E-02	  0.020000000	-5.645600E+01	  0.020000000	3.630000E-01	  0.020000000	-9.313700E+01
2	  0.020200402	-2.400000E-02	  0.020200402	-5.702500E+01	  0.020200402	3.080000E-01	  0.020200402	-9.203800E+01
3	  0.020400802	-2.000000E-02	  0.020400802	-5.759800E+01	  0.020400802	2.560000E-01	  0.020400802	-9.095100E+01
4	  0.020601204	-1.900000E-02	  0.020601204	-5.815300E+01	  0.020601204	2.360000E-01	  0.020601204	-8.991700E+01
5	  0.020801604	-1.700000E-02	  0.020801604	-5.872200E+01	  0.020801604	2.130000E-01	  0.020801604	-8.887500E+01
6	  0.021002004	-1.800000E-02	  0.021002004	-5.929900E+01	  0.021002004	2.200000E-01	  0.021002004	-8.783800E+01
7	  0.021202406	-1.900000E-02	  0.021202406	-5.987000E+01	  0.021202406	2.250000E-01	  0.021202406	-8.682800E+01
8	  0.021402806	-1.700000E-02	  0.021402806	-6.040800E+01	  0.021402806	2.030000E-01	  0.021402806	-8.589300E+01
9	  0.021603208	-2.300000E-02	  0.021603208	-6.096000E+01	  0.021603208	2.580000E-01	  0.021603208	-8.495000E+01
10	  0.021803608	-2.500000E-02	  0.021803608	-6.147100E+01	  0.021803608	2.760000E-01	  0.021803608	-8.408800E+01
11	  0.022004008	-2.400000E-02	  0.022004008	-6.199600E+01	  0.022004008	2.700000E-01	  0.022004008	-8.321800E+01
12	  0.022204408	-2.800000E-02	  0.022204408	-6.253600E+01	  0.022204408	3.000000E-01	  0.022204408	-8.233600E+01
13	  0.022404809	-3.100000E-02	  0.022404809	-6.307700E+01	  0.022404809	3.350000E-01	  0.022404809	-8.146800E+01
14	  0.022605211	-3.200000E-02	  0.022605211	-6.360200E+01	  0.022605211	3.380000E-01	  0.022605211	-8.063600E+01
15	  0.022805611	-2.800000E-02	  0.022805611	-6.415000E+01	  0.022805611	2.870000E-01	  0.022805611	-7.978300E+01
16	  0.023006011	-1.800000E-02	  0.023006011	-6.471900E+01	  0.023006011	1.870000E-01	  0.023006011	-7.890900E+01
17	  0.023206413	-1.300000E-02	  0.023206413	-6.524900E+01	  0.023206413	1.310000E-01	  0.023206413	-7.810700E+01
18	  0.023406813	-9.000000E-03	  0.023406813	-6.578600E+01	  0.023406813	9.100000E-02	  0.023406813	-7.730700E+01
19	  0.023607215	-9.000000E-03	  0.023607215	-6.633800E+01	  0.023607215	9.100000E-02	  0.023607215	-7.649700E+01
20	  0.023807615	-9.000000E-03	  0.023807615	-6.686000E+01	  0.023807615	8.600000E-02	  0.023807615	-7.574100E+01
21	  0.024008015	-1.300000E-02	  0.024008015	-6.735700E+01	  0.024008015	1.220000E-01	  0.024008015	-7.503100E+01
22	  0.024208417	-1.700000E-02	  0.024208417	-6.784100E+01	  0.024208417	1.610000E-01	  0.024208417	-7.434900E+01
23	  0.024408817	-2.600000E-02	  0.024408817	-6.835100E+01	  0.024408817	2.400000E-01	  0.024408817	-7.363800E+01
24	  0.024609219	-3.000000E-02	  0.024609219	-6.887100E+01	  0.024609219	2.770000E-01	  0.024609219	-7.292400E+01
25	  0.024809619	-3.700000E-02	  0.024809619	-6.941800E+01	  0.024809619	3.340000E-01	  0.024809619	-7.218300E+01
26	  0.025010020	-3.800000E-02	  0.025010020	-7.000500E+01	  0.025010020	3.330000E-01	  0.025010020	-7.139900E+01
27	  0.025210422	-4.000000E-02	  0.025210422	-7.059000E+01	  0.025210422	3.510000E-01	  0.025210422	-7.062900E+01
28	  0.025410822	-4.300000E-02	  0.025410822	-7.118300E+01	  0.025410822	3.720000E-01	  0.025410822	-6.985900E+01
29	  0.025611224	-4.200000E-02	  0.025611224	-7.178800E+01	  0.025611224	3.590000E-01	  0.025611224	-6.908500E+01
30	  0.025811624	-4.000000E-02	  0.025811624	-7.236800E+01	  0.025811624	3.310000E-01	  0.025811624	-6.835400E+01
31	  0.026012026	-3.800000E-02	  0.026012026	-7.294600E+01	  0.026012026	3.130000E-01	  0.026012026	-6.763600E+01
32	  0.026212426	-3.300000E-02	  0.026212426	-7.350500E+01	  0.026212426	2.720000E-01	  0.026212426	-6.695000E+01
33	  0.026412826	-2.700000E-02	  0.026412826	-7.405300E+01	  0.026412826	2.210000E-01	  0.026412826	-6.628700E+01
34	  0.026613226	-3.000000E-02	  0.026613226	-7.454800E+01	  0.026613226	2.420000E-01	  0.026613226	-6.569400E+01
35	  0.026813626	-3.300000E-02	  0.026813626	-7.504900E+01	  0.026813626	2.560000E-01	  0.026813626	-6.510100E+01
36	  0.027014028	-3.600000E-02	  0.027014028	-7.551600E+01	  0.027014028	2.790000E-01	  0.027014028	-6.455500E+01
37	  0.027214428	-4.500000E-02	  0.027214428	-7.598200E+01	  0.027214428	3.460000E-01	  0.027214428	-6.401500E+01
38	  0.027414829	-5.400000E-02	  0.027414829	-7.649800E+01	  0.027414829	4.100000E-01	  0.027414829	-6.342500E+01
39	  0.027615231	-6.200000E-02	  0.027615231	-7.706600E+01	  0.027615231	4.660000E-01	  0.027615231	-6.278100E+01
40	  0.027815631	-6.400000E-02	  0.027815631	-7.763300E+01	  0.027815631	4.710000E-01	  0.027815631	-6.214800E+01
41	  0.028016033	-6.500000E-02	  0.028016033	-7.821900E+01	  0.028016033	4.740000E-01	  0.028016033	-6.150100E+01
42	  0.028216433	-5.600000E-02	  0.028216433	-7.881600E+01	  0.028216433	4.010000E-01	  0.028216433	-6.085100E+01
43	  0.028416833	-4.900000E-02	  0.028416833	-7.941200E+01	  0.028416833	3.450000E-01	  0.028416833	-6.021000E+01
44	  0.028617235	-4.100000E-02	  0.028617235	-7.999900E+01	  0.028617235	2.860000E-01	  0.028617235	-5.958700E+01
45	  0.028817635	-3.400000E-02	  0.028817635	-8.055000E+01	  0.028817635	2.380000E-01	  0.028817635	-5.900900E+01
46	  0.029018037	-2.600000E-02	  0.029018037	-8.104200E+01	  0.029018037	1.810000E-01	  0.029018037	-5.849700E+01
47	  0.029218437	-1.900000E-02	  0.029218437	-8.150700E+01	  0.029218437	1.330000E-01	  0.029218437	-5.802000E+01
48	  0.029418837	-1.500000E-02	  0.029418837	-8.196200E+01	  0.029418837	1.010000E-01	  0.029418837	-5.755600E+01
49	  0.029619239	-1.400000E-02	  0.029619239	-8.239400E+01	  0.029619239	9.400000E-02	  0.029619239	-5.711900E+01
50	  0.029819639	-1.600000E-02	  0.029819639	-8.285500E+01	  0.029819639	1.110000E-01	  0.029819639	-5.665800E+01
51	  0.030020041	-2.200000E-02	  0.030020041	-8.335700E+01	  0.030020041	1.490000E-01	  0.030020041	-5.616000E+01
52	  0.030220442	-3.200000E-02	  0.030220442	-8.389500E+01	  0.030220442	2.120000E-01	  0.030220442	-5.563200E+01
53	  0.030420844	-4.400000E-02	  0.030420844	-8.445900E+01	  0.030420844	2.800000E-01	  0.030420844	-5.508400E+01
54	  0.030621244	-5.100000E-02	  0.030621244	-8.504100E+01	  0.030621244	3.240000E-01	  0.030621244	-5.452400E+01
55	  0.030821644	-5.600000E-02	  0.030821644	-8.562800E+01	  0.030821644	3.520000E-01	  0.030821644	-5.396600E+01
56	  0.031022044	-5.600000E-02	  0.031022044	-8.620900E+01	  0.031022044	3.460000E-01	  0.031022044	-5.342100E+01
57	  0.031222444	-5.300000E-02	  0.031222444	-8.678500E+01	  0.031222444	3.290000E-01	  0.031222444	-5.288600E+01
58	  0.031422846	-5.400000E-02	  0.031422846	-8.734700E+01	  0.031422846	3.270000E-01	  0.031422846	-5.236900E+01
59	  0.031623244	-5.500000E-02	  0.031623244	-8.788100E+01	  0.031623244	3.300000E-01	  0.031623244	-5.188200E+01
60	  0.031823646	-4.900000E-02	  0.031823646	-8.840400E+01	  0.031823646	2.930000E-01	  0.031823646	-5.141000E+01
61	  0.032024048	-4.500000E-02	  0.032024048	-8.887600E+01	  0.032024048	2.670000E-01	  0.032024048	-5.098900E+01
62	  0.032224450	-4.700000E-02	  0.032224450	-8.932400E+01	  0.032224450	2.770000E-01	  0.032224450	-5.059200E+01
63	  0.032424849	-5.200000E-02	  0.032424849	-8.977500E+01	  0.032424849	3.000000E-01	  0.032424849	-5.019500E+01
64	  0.032625251	-6.200000E-02	  0.032625251	-9.024800E+01	  0.032625251	3.570000E-01	  0.032625251	-4.978200E+01
65	  0.032825653	-7.200000E-02	  0.032825653	-9.074600E+01	  0.032825653	4.110000E-01	  0.032825653	-4.935100E+01
66	  0.033026051	-7.900000E-02	  0.033026051	-9.125800E+01	  0.033026051	4.470000E-01	  0.033026051	-4.891100E+01
67	  0.033226453	-8.400000E-02	  0.033226453	-9.181900E+01	  0.033226453	4.690000E-01	  0.033226453	-4.843400E+01
68	  0.033426855	-9.000000E-02	  0.033426855	-9.238200E+01	  0.033426855	4.970000E-01	  0.033426855	-4.796000E+01
69	  0.033627257	-9.600000E-02	  0.033627257	-9.297800E+01	  0.033627257	5.270000E-01	  0.033627257	-4.746300E+01
70	  0.033827655	-9.700000E-02	  0.033827655	-9.356700E+01	  0.033827655	5.250000E-01	  0.033827655	-4.697700E+01
71	  0.034028057	-9.100000E-02	  0.034028057	-9.417000E+01	  0.034028057	4.920000E-01	  0.034028057	-4.648400E+01
72	  0.034228459	-8.700000E-02	  0.034228459	-9.470900E+01	  0.034228459	4.650000E-01	  0.034228459	-4.604800E+01
73	  0.034428857	-7.800000E-02	  0.034428857	-9.528100E+01	  0.034428857	4.120000E-01	  0.034428857	-4.558900E+01
74	  0.034629259	-6.500000E-02	  0.034629259	-9.578800E+01	  0.034629259	3.430000E-01	  0.034629259	-4.518600E+01
75	  0.034829661	-6.000000E-02	  0.034829661	-9.629500E+01	  0.034829661	3.140000E-01	  0.034829661	-4.478600E+01
76	  0.035030060	-5.400000E-02	  0.035030060	-9.675700E+01	  0.035030060	2.790000E-01	  0.035030060	-4.442400E+01
77	  0.035230462	-5.000000E-02	  0.035230462	-9.724300E+01	  0.035230462	2.590000E-01	  0.035230462	-4.404600E+01
78	  0.035430863	-5.100000E-02	  0.035430863	-9.771400E+01	  0.035430863	2.600000E-01	  0.035430863	-4.368200E+01
79	  0.035631265	-6.000000E-02	  0.035631265	-9.818700E+01	  0.035631265	3.030000E-01	  0.035631265	-4.331900E+01
80	  0.035831664	-6.700000E-02	  0.035831664	-9.869500E+01	  0.035831664	3.360000E-01	  0.035831664	-4.293300E+01
81	  0.036032066	-7.500000E-02	  0.036032066	-9.924300E+01	  0.036032066	3.730000E-01	  0.036032066	-4.251900E+01
82	  0.036232468	-8.400000E-02	  0.036232468	-9.982900E+01	  0.036232468	4.140000E-01	  0.036232468	-4.208000E+01
83	  0.036432866	-8.700000E-02	  0.036432866	-1.004110E+02	  0.036432866	4.250000E-01	  0.036432866	-4.164700E+01
84	  0.036633268	-8.900000E-02	  0.036633268	-1.009710E+02	  0.036633268	4.320000E-01	  0.036633268	-4.123500E+01
85	  0.036833670	-9.200000E-02	  0.036833670	-1.015430E+02	  0.036833670	4.410000E-01	  0.036833670	-4.081800E+01
86	  0.037034072	-8.400000E-02	  0.037034072	-1.020910E+02	  0.037034072	4.040000E-01	  0.037034072	-4.042100E+01
87	  0.037234470	-7.100000E-02	  0.037234470	-1.025910E+02	  0.037234470	3.360000E-01	  0.037234470	-4.006200E+01
88	  0.037434869	-6.000000E-02	  0.037434869	-1.030460E+02	  0.037434869	2.850000E-01	  0.037434869	-3.973700E+01
89	  0.037635271	-5.500000E-02	  0.037635271	-1.034650E+02	  0.037635271	2.580000E-01	  0.037635271	-3.944000E+01
90	  0.037835669	-5.700000E-02	  0.037835669	-1.038790E+02	  0.037835669	2.660000E-01	  0.037835669	-3.914800E+01
91	  0.038036071	-6.300000E-02	  0.038036071	-1.043330E+02	  0.038036071	2.940000E-01	  0.038036071	-3.882900E+01
92	  0.038236473	-7.000000E-02	  0.038236473	-1.047950E+02	  0.038236473	3.230000E-01	  0.038236473	-3.850700E+01
93	  0.038436871	-7.700000E-02	  0.038436871	-1.052880E+02	  0.038436871	3.540000E-01	  0.038436871	-3.816500E+01
94	  0.038637273	-8.300000E-02	  0.038637273	-1.057620E+02	  0.038637273	3.790000E-01	  0.038637273	-3.783900E+01
95	  0.038837675	-9.500000E-02	  0.038837675	-1.062880E+02	  0.038837675	4.300000E-01	  0.038837675	-3.747900E+01
96	  0.039038073	-1.060000E-01	  0.039038073	-1.068220E+02	  0.039038073	4.770000E-01	  0.039038073	-3.711500E+01
97	  0.039238475	-1.140000E-01	  0.039238475	-1.073830E+02	  0.039238475	5.060000E-01	  0.039238475	-3.673700E+01
98	  0.039438877	-1.170000E-01	  0.039438877	-1.079560E+02	  0.039438877	5.160000E-01	  0.039438877	-3.635300E+01
99	  0.039639279	-1.140000E-01	  0.039639279	-1.084960E+02	  0.039639279	5.000000E-01	  0.039639279	-3.599400E+01
100	  0.039839678	-1.080000E-01	  0.039839678	-1.090450E+02	  0.039839678	4.720000E-01	  0.039839678	-3.563200E+01
101	  0.040040080	-1.010000E-01	  0.040040080	-1.095730E+02	  0.040040080	4.370000E-01	  0.040040080	-3.528600E+01
102	  0.040240481	-9.600000E-02	  0.040240481	-1.100670E+02	  0.040240481	4.110000E-01	  0.040240481	-3.496500E+01
103	  0.040440880	-8.800000E-02	  0.040440880	-1.105790E+02	  0.040440880	3.760000E-01	  0.040440880	-3.463300E+01
104	  0.040641282	-8.700000E-02	  0.040641282	-1.110790E+02	  0.040641282	3.720000E-01	  0.040641282	-3.431100E+01
105	  0.040841684	-8.800000E-02	  0.040841684	-1.115740E+02	  0.040841684	3.720000E-01	  0.040841684	-3.399400E+01
106	  0.041042086	-8.900000E-02	  0.041042086	-1.120520E+02	  0.041042086	3.730000E-01	  0.041042086	-3.369100E+01
107	  0.041242484	-9.500000E-02	  0.041242484	-1.125360E+02	  0.041242484	3.960000E-01	  0.041242484	-3.338400E+01
108	  0.041442886	-1.040000E-01	  0.041442886	-1.130400E+02	  0.041442886	4.320000E-01	  0.041442886	-3.306600E+01
109	  0.041643288	-1.150000E-01	  0.041643288	-1.135670E+02	  0.041643288	4.730000E-01	  0.041643288	-3.273600E+01
110	  0.041843686	-1.210000E-01	  0.041843686	-1.141230E+02	  0.041843686	4.950000E-01	  0.041843686	-3.239100E+01
111	  0.042044088	-1.210000E-01	  0.042044088	-1.146680E+02	  0.042044088	4.930000E-01	  0.042044088	-3.205400E+01
112	  0.042244490	-1.150000E-01	  0.042244490	-1.152140E+02	  0.042244490	4.650000E-01	  0.042244490	-3.172000E+01
113	  0.042444889	-1.040000E-01	  0.042444889	-1.157330E+02	  0.042444889	4.170000E-01	  0.042444889	-3.140300E+01
114	  0.042645290	-9.100000E-02	  0.042645290	-1.161990E+02	  0.042645290	3.650000E-01	  0.042645290	-3.112100E+01
115	  0.042845692	-8.500000E-02	  0.042845692	-1.166440E+02	  0.042845692	3.390000E-01	  0.042845692	-3.085200E+01
116	  0.043046094	-8.300000E-02	  0.043046094	-1.170840E+02	  0.043046094	3.300000E-01	  0.043046094	-3.058800E+01
117	  0.043246493	-8.500000E-02	  0.043246493	-1.174990E+02	  0.043246493	3.370000E-01	  0.043246493	-3.034000E+01
118	  0.043446895	-9.000000E-02	  0.043446895	-1.179560E+02	  0.043446895	3.550000E-01	  0.043446895	-3.006700E+01
119	  0.043647297	-9.500000E-02	  0.043647297	-1.184100E+02	  0.043647297	3.700000E-01	  0.043647297	-2.979800E+01
120	  0.043847695	-1.020000E-01	  0.043847695	-1.188580E+02	  0.043847695	3.960000E-01	  0.043847695	-2.953400E+01
121	  0.044048097	-1.110000E-01	  0.044048097	-1.193320E+02	  0.044048097	4.290000E-01	  0.044048097	-2.925500E+01
122	  0.044248499	-1.200000E-01	  0.044248499	-1.198090E+02	  0.044248499	4.640000E-01	  0.044248499	-2.897600E+01
123	  0.044448901	-1.280000E-01	  0.044448901	-1.203360E+02	  0.044448901	4.920000E-01	  0.044448901	-2.867000E+01
124	  0.044649299	-1.350000E-01	  0.044649299	-1.208560E+02	  0.044649299	5.150000E-01	  0.044649299	-2.836900E+01
125	  0.044849701	-1.370000E-01	  0.044849701	-1.214060E+02	  0.044849701	5.190000E-01	  0.044849701	-2.805200E+01
126	  0.045050103	-1.380000E-01	  0.045050103	-1.219300E+02	  0.045050103	5.200000E-01	  0.045050103	-2.775300E+01
127	  0.045250501	-1.330000E-01	  0.045250501	-1.224570E+02	  0.045250501	5.000000E-01	  0.045250501	-2.745200E+01
128	  0.045450903	-1.320000E-01	  0.045450903	-1.229690E+02	  0.045450903	4.930000E-01	  0.045450903	-2.716200E+01
129	  0.045651305	-1.320000E-01	  0.045651305	-1.235070E+02	  0.045651305	4.920000E-01	  0.045651305	-2.685900E+01
130	  0.045851704	-1.290000E-01	  0.045851704	-1.240280E+02	  0.045851704	4.770000E-01	  0.045851704	-2.656700E+01
131	  0.046052106	-1.290000E-01	  0.046052106	-1.245610E+02	  0.046052106	4.740000E-01	  0.046052106	-2.627000E+01
132	  0.046252504	-1.280000E-01	  0.046252504	-1.250510E+02	  0.046252504	4.690000E-01	  0.046252504	-2.599800E+01
133	  0.046452906	-1.310000E-01	  0.046452906	-1.254970E+02	  0.046452906	4.800000E-01	  0.046452906	-2.575100E+01
134	  0.046653304	-1.370000E-01	  0.046653304	-1.259760E+02	  0.046653304	4.970000E-01	  0.046653304	-2.548700E+01
135	  0.046853706	-1.470000E-01	  0.046853706	-1.264640E+02	  0.046853706	5.310000E-01	  0.046853706	-2.521900E+01
136	  0.047054108	-1.510000E-01	  0.047054108	-1.269870E+02	  0.047054108	5.430000E-01	  0.047054108	-2.493300E+01
137	  0.047254506	-1.520000E-01	  0.047254506	-1.275220E+02	  0.047254506	5.440000E-01	  0.047254506	-2.464200E+01
138	  0.047454908	-1.450000E-01	  0.047454908	-1.280320E+02	  0.047454908	5.170000E-01	  0.047454908	-2.436600E+01
139	  0.047655310	-1.340000E-01	  0.047655310	-1.285380E+02	  0.047655310	4.780000E-01	  0.047655310	-2.409400E+01
140	  0.047855709	-1.230000E-01	  0.047855709	-1.289910E+02	  0.047855709	4.360000E-01	  0.047855709	-2.385100E+01
141	  0.048056111	-1.160000E-01	  0.048056111	-1.294180E+02	  0.048056111	4.110000E-01	  0.048056111	-2.362300E+01
142	  0.048256513	-1.110000E-01	  0.048256513	-1.298560E+02	  0.048256513	3.910000E-01	  0.048256513	-2.339000E+01
143	  0.048456915	-1.080000E-01	  0.048456915	-1.302590E+02	  0.048456915	3.790000E-01	  0.048456915	-2.317600E+01
144	  0.048657313	-1.080000E-01	  0.048657313	-1.306850E+02	  0.048657313	3.790000E-01	  0.048657313	-2.295100E+01
145	  0.048857715	-1.120000E-01	  0.048857715	-1.310820E+02	  0.048857715	3.900000E-01	  0.048857715	-2.274100E+01
146	  0.049058117	-1.160000E-01	  0.049058117	-1.315000E+02	  0.049058117	4.020000E-01	  0.049058117	-2.252100E+01
147	  0.049258515	-1.220000E-01	  0.049258515	-1.319360E+02	  0.049258515	4.220000E-01	  0.049258515	-2.229300E+01
148	  0.049458917	-1.320000E-01	  0.049458917	-1.324000E+02	  0.049458917	4.540000E-01	  0.049458917	-2.205000E+01
149	  0.049659319	-1.360000E-01	  0.049659319	-1.328690E+02	  0.049659319	4.680000E-01	  0.049659319	-2.180600E+01
150	  0.049859721	-1.390000E-01	  0.049859721	-1.333530E+02	  0.049859721	4.770000E-01	  0.049859721	-2.155500E+01
151	  0.050060119	-1.420000E-01	  0.050060119	-1.338260E+02	  0.050060119	4.850000E-01	  0.050060119	-2.131100E+01
152	  0.050260521	-1.440000E-01	  0.050260521	-1.342950E+02	  0.050260521	4.890000E-01	  0.050260521	-2.107000E+01
153	  0.050460923	-1.470000E-01	  0.050460923	-1.347990E+02	  0.050460923	4.990000E-01	  0.050460923	-2.081100E+01
154	  0.050661322	-1.500000E-01	  0.050661322	-1.352960E+02	  0.050661322	5.070000E-01	  0.050661322	-2.055700E+01
155	  0.050861724	-1.520000E-01	  0.050861724	-1.358200E+02	  0.050861724	5.100000E-01	  0.050861724	-2.029000E+01
156	  0.051062126	-1.520000E-01	  0.051062126	-1.363250E+02	  0.051062126	5.110000E-01	  0.051062126	-2.003400E+01
157	  0.051262524	-1.490000E-01	  0.051262524	-1.368320E+02	  0.051262524	4.980000E-01	  0.051262524	-1.977800E+01
158	  0.051462926	-1.480000E-01	  0.051462926	-1.373090E+02	  0.051462926	4.930000E-01	  0.051462926	-1.953800E+01
159	  0.051663328	-1.510000E-01	  0.051663328	-1.377750E+02	  0.051663328	5.010000E-01	  0.051663328	-1.930400E+01
160	  0.051863730	-1.560000E-01	  0.051863730	-1.382350E+02	  0.051863730	5.170000E-01	  0.051863730	-1.907300E+01
161	  0.052064128	-1.650000E-01	  0.052064128	-1.387090E+02	  0.052064128	5.430000E-01	  0.052064128	-1.883600E+01
162	  0.052264530	-1.700000E-01	  0.052264530	-1.392050E+02	  0.052264530	5.590000E-01	  0.052264530	-1.859000E+01
163	  0.052464932	-1.700000E-01	  0.052464932	-1.397310E+02	  0.052464932	5.570000E-01	  0.052464932	-1.832900E+01
164	  0.052665330	-1.700000E-01	  0.052665330	-1.402300E+02	  0.052665330	5.560000E-01	  0.052665330	-1.808200E+01
165	  0.052865732	-1.660000E-01	  0.052865732	-1.407400E+02	  0.052865732	5.400000E-01	  0.052865732	-1.783100E+01
166	  0.053066134	-1.620000E-01	  0.053066134	-1.412080E+02	  0.053066134	5.250000E-01	  0.053066134	-1.760200E+01
167	  0.053266536	-1.550000E-01	  0.053266536	-1.416730E+02	  0.053266536	5.030000E-01	  0.053266536	-1.737400E+01
168	  0.053466935	-1.520000E-01	  0.053466935	-1.421310E+02	  0.053466935	4.890000E-01	  0.053466935	-1.715000E+01
169	  0.053667337	-1.490000E-01	  0.053667337	-1.425710E+02	  0.053667337	4.800000E-01	  0.053667337	-1.693600E+01
170	  0.053867739	-1.470000E-01	  0.053867739	-1.429840E+02	  0.053867739	4.730000E-01	  0.053867739	-1.673500E+01
171	  0.054068137	-1.510000E-01	  0.054068137	-1.434230E+02	  0.054068137	4.820000E-01	  0.054068137	-1.652300E+01
172	  0.054268539	-1.550000E-01	  0.054268539	-1.438410E+02	  0.054268539	4.940000E-01	  0.054268539	-1.632100E+01
173	  0.054468941	-1.600000E-01	  0.054468941	-1.442910E+02	  0.054468941	5.090000E-01	  0.054468941	-1.610400E+01
174	  0.054669339	-1.650000E-01	  0.054669339	-1.447540E+02	  0.054669339	5.250000E-01	  0.054669339	-1.588100E+01
175	  0.054869737	-1.680000E-01	  0.054869737	-1.452350E+02	  0.054869737	5.320000E-01	  0.054869737	-1.565000E+01
176	  0.055070139	-1.700000E-01	  0.055070139	-1.456940E+02	  0.055070139	5.360000E-01	  0.055070139	-1.543000E+01
177	  0.055270538	-1.700000E-01	  0.055270538	-1.461690E+02	  0.055270538	5.370000E-01	  0.055270538	-1.520300E+01
178	  0.055470940	-1.720000E-01	  0.055470940	-1.466360E+02	  0.055470940	5.410000E-01	  0.055470940	-1.498100E+01
179	  0.055671342	-1.760000E-01	  0.055671342	-1.470990E+02	  0.055671342	5.510000E-01	  0.055671342	-1.476100E+01
180	  0.055871744	-1.800000E-01	  0.055871744	-1.475900E+02	  0.055871744	5.620000E-01	  0.055871744	-1.452900E+01
181	  0.056072142	-1.810000E-01	  0.056072142	-1.481010E+02	  0.056072142	5.660000E-01	  0.056072142	-1.428700E+01
182	  0.056272544	-1.820000E-01	  0.056272544	-1.486040E+02	  0.056272544	5.650000E-01	  0.056272544	-1.405000E+01
183	  0.056472946	-1.800000E-01	  0.056472946	-1.491180E+02	  0.056472946	5.580000E-01	  0.056472946	-1.380800E+01
184	  0.056673344	-1.800000E-01	  0.056673344	-1.495840E+02	  0.056673344	5.560000E-01	  0.056673344	-1.359000E+01
185	  0.056873746	-1.790000E-01	  0.056873746	-1.500430E+02	  0.056873746	5.530000E-01	  0.056873746	-1.337500E+01
186	  0.057074148	-1.780000E-01	  0.057074148	-1.505020E+02	  0.057074148	5.500000E-01	  0.057074148	-1.316100E+01
187	  0.057274550	-1.820000E-01	  0.057274550	-1.509270E+02	  0.057274550	5.600000E-01	  0.057274550	-1.296300E+01
188	  0.057474948	-1.850000E-01	  0.057474948	-1.513870E+02	  0.057474948	5.670000E-01	  0.057474948	-1.274900E+01
189	  0.057675350	-1.880000E-01	  0.057675350	-1.518670E+02	  0.057675350	5.750000E-01	  0.057675350	-1.252600E+01
190	  0.057875752	-1.880000E-01	  0.057875752	-1.523260E+02	  0.057875752	5.750000E-01	  0.057875752	-1.231300E+01
191	  0.058076151	-1.860000E-01	  0.058076151	-1.527770E+02	  0.058076151	5.670000E-01	  0.058076151	-1.210500E+01
192	  0.058276553	-1.820000E-01	  0.058276553	-1.532440E+02	  0.058276553	5.540000E-01	  0.058276553	-1.188900E+01
193	  0.058476955	-1.780000E-01	  0.058476955	-1.536820E+02	  0.058476955	5.400000E-01	  0.058476955	-1.168800E+01
194	  0.058677353	-1.750000E-01	  0.058677353	-1.541100E+02	  0.058677353	5.300000E-01	  0.058677353	-1.149100E+01
195	  0.058877755	-1.730000E-01	  0.058877755	-1.545210E+02	  0.058877755	5.250000E-01	  0.058877755	-1.130200E+01
196	  0.059078157	-1.700000E-01	  0.059078157	-1.549280E+02	  0.059078157	5.140000E-01	  0.059078157	-1.111600E+01
197	  0.059278559	-1.720000E-01	  0.059278559	-1.553270E+02	  0.059278559	5.190000E-01	  0.059278559	-1.093300E+01
198	  0.059478957	-1.770000E-01	  0.059478957	-1.557260E+02	  0.059478957	5.340000E-01	  0.059478957	-1.075100E+01
199	  0.059679359	-1.810000E-01	  0.059679359	-1.561500E+02	  0.059679359	5.440000E-01	  0.059679359	-1.055800E+01
200	  0.059879761	-1.850000E-01	  0.059879761	-1.565680E+02	  0.059879761	5.560000E-01	  0.059879761	-1.036700E+01
201	  0.060080159	-1.860000E-01	  0.060080159	-1.570180E+02	  0.060080159	5.580000E-01	  0.060080159	-1.016300E+01
202	  0.060280561	-1.870000E-01	  0.060280561	-1.574380E+02	  0.060280561	5.610000E-01	  0.060280561	-9.972000E+00
203	  0.060480963	-1.890000E-01	  0.060480963	-1.578750E+02	  0.060480963	5.670000E-01	  0.060480963	-9.773000E+00
204	  0.060681365	-1.950000E-01	  0.060681365	-1.583200E+02	  0.060681365	5.820000E-01	  0.060681365	-9.572000E+00
205	  0.060881764	-2.000000E-01	  0.060881764	-1.587670E+02	  0.060881764	5.980000E-01	  0.060881764	-9.370000E+00
206	  0.061082166	-2.020000E-01	  0.061082166	-1.592400E+02	  0.061082166	6.010000E-01	  0.061082166	-9.157000E+00
207	  0.061282568	-2.060000E-01	  0.061282568	-1.597290E+02	  0.061282568	6.120000E-01	  0.061282568	-8.936000E+00
208	  0.061482966	-2.090000E-01	  0.061482966	-1.602340E+02	  0.061482966	6.190000E-01	  0.061482966	-8.709000E+00
209	  0.061683368	-2.090000E-01	  0.061683368	-1.607100E+02	  0.061683368	6.200000E-01	  0.061683368	-8.495000E+00
210	  0.061883770	-2.120000E-01	  0.061883770	-1.611880E+02	  0.061883770	6.270000E-01	  0.061883770	-8.281000E+00
211	  0.062084168	-2.110000E-01	  0.062084168	-1.616640E+02	  0.062084168	6.240000E-01	  0.062084168	-8.068000E+00
212	  0.062284570	-2.130000E-01	  0.062284570	-1.621500E+02	  0.062284570	6.280000E-01	  0.062284570	-7.850000E+00
213	  0.062484972	-2.130000E-01	  0.062484972	-1.626090E+02	  0.062484972	6.280000E-01	  0.062484972	-7.645000E+00
214	  0.062685370	-2.130000E-01	  0.062685370	-1.630440E+02	  0.062685370	6.270000E-01	  0.062685370	-7.451000E+00
215	  0.062885776	-2.160000E-01	  0.062885776	-1.635200E+02	  0.062885776	6.360000E-01	  0.062885776	-7.239000E+00
216	  0.063086174	-2.160000E-01	  0.063086174	-1.639960E+02	  0.063086174	6.350000E-01	  0.063086174	-7.027000E+00
217	  0.063286573	-2.170000E-01	  0.063286573	-1.644810E+02	  0.063286573	6.370000E-01	  0.063286573	-6.811000E+00
218	  0.063486971	-2.150000E-01	  0.063486971	-1.649240E+02	  0.063486971	6.310000E-01	  0.063486971	-6.615000E+00
219	  0.063687377	-2.140000E-01	  0.063687377	-1.653990E+02	  0.063687377	6.270000E-01	  0.063687377	-6.404000E+00
220	  0.063887775	-2.090000E-01	  0.063887775	-1.658280E+02	  0.063887775	6.120000E-01	  0.063887775	-6.214000E+00
221	  0.064088173	-2.070000E-01	  0.064088173	-1.662510E+02	  0.064088173	6.040000E-01	  0.064088173	-6.027000E+00
222	  0.064288579	-2.050000E-01	  0.064288579	-1.666830E+02	  0.064288579	5.990000E-01	  0.064288579	-5.836000E+00
223	  0.064488977	-2.080000E-01	  0.064488977	-1.670760E+02	  0.064488977	6.070000E-01	  0.064488977	-5.662000E+00
224	  0.064689375	-2.080000E-01	  0.064689375	-1.674970E+02	  0.064689375	6.050000E-01	  0.064689375	-5.476000E+00
225	  0.064889781	-2.090000E-01	  0.064889781	-1.679100E+02	  0.064889781	6.090000E-01	  0.064889781	-5.293000E+00
226	  0.065090179	-2.100000E-01	  0.065090179	-1.683120E+02	  0.065090179	6.110000E-01	  0.065090179	-5.116000E+00
227	  0.065290578	-2.110000E-01	  0.065290578	-1.687330E+02	  0.065290578	6.140000E-01	  0.065290578	-4.931000E+00
228	  0.065490983	-2.120000E-01	  0.065490983	-1.691310E+02	  0.065490983	6.150000E-01	  0.065490983	-4.755000E+00
229	  0.065691382	-2.120000E-01	  0.065691382	-1.695220E+02	  0.065691382	6.170000E-01	  0.065691382	-4.583000E+00
230	  0.065891780	-2.150000E-01	  0.065891780	-1.699320E+02	  0.065891780	6.230000E-01	  0.065891780	-4.403000E+00
231	  0.066092186	-2.150000E-01	  0.066092186	-1.703340E+02	  0.066092186	6.230000E-01	  0.066092186	-4.226000E+00
232	  0.066292584	-2.170000E-01	  0.066292584	-1.707550E+02	  0.066292584	6.300000E-01	  0.066292584	-4.041000E+00
233	  0.066492982	-2.170000E-01	  0.066492982	-1.711820E+02	  0.066492982	6.290000E-01	  0.066492982	-3.854000E+00
234	  0.066693388	-2.200000E-01	  0.066693388	-1.715930E+02	  0.066693388	6.360000E-01	  0.066693388	-3.674000E+00
235	  0.066893786	-2.240000E-01	  0.066893786	-1.720040E+02	  0.066893786	6.480000E-01	  0.066893786	-3.493000E+00
236	  0.067094192	-2.240000E-01	  0.067094192	-1.724460E+02	  0.067094192	6.490000E-01	  0.067094192	-3.300000E+00
237	  0.067294590	-2.250000E-01	  0.067294590	-1.728680E+02	  0.067294590	6.520000E-01	  0.067294590	-3.115000E+00
238	  0.067494988	-2.270000E-01	  0.067494988	-1.732960E+02	  0.067494988	6.570000E-01	  0.067494988	-2.927000E+00
239	  0.067695394	-2.250000E-01	  0.067695394	-1.737260E+02	  0.067695394	6.510000E-01	  0.067695394	-2.739000E+00
240	  0.067895792	-2.270000E-01	  0.067895792	-1.740950E+02	  0.067895792	6.570000E-01	  0.067895792	-2.577000E+00
241	  0.068096191	-2.270000E-01	  0.068096191	-1.745130E+02	  0.068096191	6.570000E-01	  0.068096191	-2.395000E+00
242	  0.068296596	-2.300000E-01	  0.068296596	-1.749530E+02	  0.068296596	6.630000E-01	  0.068296596	-2.202000E+00
243	  0.068496995	-2.330000E-01	  0.068496995	-1.753690E+02	  0.068496995	6.740000E-01	  0.068496995	-2.021000E+00
244	  0.068697393	-2.360000E-01	  0.068697393	-1.757920E+02	  0.068697393	6.800000E-01	  0.068697393	-1.836000E+00
245	  0.068897791	-2.330000E-01	  0.068897791	-1.762220E+02	  0.068897791	6.710000E-01	  0.068897791	-1.648000E+00
246	  0.069098189	-2.320000E-01	  0.069098189	-1.766500E+02	  0.069098189	6.700000E-01	  0.069098189	-1.461000E+00
247	  0.069298595	-2.320000E-01	  0.069298595	-1.770580E+02	  0.069298595	6.680000E-01	  0.069298595	-1.283000E+00
248	  0.069498993	-2.340000E-01	  0.069498993	-1.774980E+02	  0.069498993	6.750000E-01	  0.069498993	-1.091000E+00
249	  0.069699399	-2.350000E-01	  0.069699399	-1.779170E+02	  0.069699399	6.790000E-01	  0.069699399	-9.080000E-01
250	  0.069899797	-2.400000E-01	  0.069899797	-1.783450E+02	  0.069899797	6.930000E-01	  0.069899797	-7.220000E-01
251	  0.070100196	-2.380000E-01	  0.070100196	-1.787880E+02	  0.070100196	6.870000E-01	  0.070100196	-5.280000E-01
252	  0.070300601	-2.420000E-01	  0.070300601	-1.792030E+02	  0.070300601	6.980000E-01	  0.070300601	-3.470000E-01
253	  0.070501000	-2.460000E-01	  0.070501000	-1.796060E+02	  0.070501000	7.080000E-01	  0.070501000	-1.710000E-01
254	  0.070701398	-2.420000E-01	  0.070701398	1.799610E+02	  0.070701398	6.970000E-01	  0.070701398	1.600000E-02
255	  0.070901804	-2.440000E-01	  0.070901804	1.795440E+02	  0.070901804	7.030000E-01	  0.070901804	1.980000E-01
256	  0.071102202	-2.460000E-01	  0.071102202	1.791270E+02	  0.071102202	7.100000E-01	  0.071102202	3.800000E-01
257	  0.071302600	-2.470000E-01	  0.071302600	1.786850E+02	  0.071302600	7.110000E-01	  0.071302600	5.730000E-01
258	  0.071503006	-2.450000E-01	  0.071503006	1.782680E+02	  0.071503006	7.080000E-01	  0.071503006	7.550000E-01
259	  0.071703404	-2.440000E-01	  0.071703404	1.778620E+02	  0.071703404	7.020000E-01	  0.071703404	9.320000E-01
260	  0.071903802	-2.470000E-01	  0.071903802	1.774280E+02	  0.071903802	7.130000E-01	  0.071903802	1.121000E+00
261	  0.072104208	-2.440000E-01	  0.072104208	1.770240E+02	  0.072104208	7.040000E-01	  0.072104208	1.298000E+00
262	  0.072304606	-2.460000E-01	  0.072304606	1.765900E+02	  0.072304606	7.100000E-01	  0.072304606	1.487000E+00
263	  0.072505005	-2.470000E-01	  0.072505005	1.761850E+02	  0.072505005	7.120000E-01	  0.072505005	1.664000E+00
264	  0.072705410	-2.490000E-01	  0.072705410	1.758000E+02	  0.072705410	7.190000E-01	  0.072705410	1.832000E+00
265	  0.072905809	-2.490000E-01	  0.072905809	1.754050E+02	  0.072905809	7.180000E-01	  0.072905809	2.005000E+00
266	  0.073106214	-2.470000E-01	  0.073106214	1.750100E+02	  0.073106214	7.120000E-01	  0.073106214	2.177000E+00
267	  0.073306613	-2.510000E-01	  0.073306613	1.746190E+02	  0.073306613	7.260000E-01	  0.073306613	2.348000E+00
268	  0.073507011	-2.530000E-01	  0.073507011	1.741930E+02	  0.073507011	7.300000E-01	  0.073507011	2.535000E+00
269	  0.073707417	-2.530000E-01	  0.073707417	1.737940E+02	  0.073707417	7.320000E-01	  0.073707417	2.709000E+00
270	  0.073907815	-2.530000E-01	  0.073907815	1.734070E+02	  0.073907815	7.310000E-01	  0.073907815	2.879000E+00
271	  0.074108213	-2.540000E-01	  0.074108213	1.730150E+02	  0.074108213	7.340000E-01	  0.074108213	3.050000E+00
272	  0.074308619	-2.530000E-01	  0.074308619	1.726160E+02	  0.074308619	7.330000E-01	  0.074308619	3.225000E+00
273	  0.074509017	-2.530000E-01	  0.074509017	1.722130E+02	  0.074509017	7.330000E-01	  0.074509017	3.401000E+00
274	  0.074709415	-2.580000E-01	  0.074709415	1.717940E+02	  0.074709415	7.470000E-01	  0.074709415	3.585000E+00
275	  0.074909821	-2.650000E-01	  0.074909821	1.713610E+02	  0.074909821	7.690000E-01	  0.074909821	3.775000E+00
276	  0.075110219	-2.670000E-01	  0.075110219	1.709490E+02	  0.075110219	7.750000E-01	  0.075110219	3.956000E+00
277	  0.075310618	-2.710000E-01	  0.075310618	1.705200E+02	  0.075310618	7.860000E-01	  0.075310618	4.144000E+00
278	  0.075511023	-2.730000E-01	  0.075511023	1.701010E+02	  0.075511023	7.910000E-01	  0.075511023	4.328000E+00
279	  0.075711422	-2.750000E-01	  0.075711422	1.696750E+02	  0.075711422	7.980000E-01	  0.075711422	4.516000E+00
280	  0.075911827	-2.770000E-01	  0.075911827	1.692520E+02	  0.075911827	8.050000E-01	  0.075911827	4.702000E+00
281	  0.076112226	-2.750000E-01	  0.076112226	1.688260E+02	  0.076112226	8.000000E-01	  0.076112226	4.889000E+00
282	  0.076312624	-2.750000E-01	  0.076312624	1.683770E+02	  0.076312624	8.020000E-01	  0.076312624	5.087000E+00
283	  0.076513030	-2.740000E-01	  0.076513030	1.679410E+02	  0.076513030	8.000000E-01	  0.076513030	5.279000E+00
284	  0.076713428	-2.740000E-01	  0.076713428	1.675160E+02	  0.076713428	7.980000E-01	  0.076713428	5.467000E+00
285	  0.076913826	-2.750000E-01	  0.076913826	1.670700E+02	  0.076913826	8.010000E-01	  0.076913826	5.664000E+00
286	  0.077114232	-2.700000E-01	  0.077114232	1.666820E+02	  0.077114232	7.880000E-01	  0.077114232	5.835000E+00
287	  0.077314630	-2.690000E-01	  0.077314630	1.662700E+02	  0.077314630	7.860000E-01	  0.077314630	6.018000E+00
288	  0.077515028	-2.690000E-01	  0.077515028	1.658680E+02	  0.077515028	7.860000E-01	  0.077515028	6.195000E+00
289	  0.077715434	-2.660000E-01	  0.077715434	1.654990E+02	  0.077715434	7.780000E-01	  0.077715434	6.359000E+00
290	  0.077915832	-2.640000E-01	  0.077915832	1.651240E+02	  0.077915832	7.730000E-01	  0.077915832	6.525000E+00
291	  0.078116231	-2.630000E-01	  0.078116231	1.647630E+02	  0.078116231	7.710000E-01	  0.078116231	6.685000E+00
292	  0.078316636	-2.620000E-01	  0.078316636	1.644120E+02	  0.078316636	7.680000E-01	  0.078316636	6.842000E+00
293	  0.078517035	-2.640000E-01	  0.078517035	1.640520E+02	  0.078517035	7.740000E-01	  0.078517035	7.001000E+00
294	  0.078717433	-2.630000E-01	  0.078717433	1.636870E+02	  0.078717433	7.730000E-01	  0.078717433	7.164000E+00
295	  0.078917839	-2.640000E-01	  0.078917839	1.633120E+02	  0.078917839	7.770000E-01	  0.078917839	7.331000E+00
296	  0.079118237	-2.620000E-01	  0.079118237	1.629620E+02	  0.079118237	7.730000E-01	  0.079118237	7.487000E+00
297	  0.079318643	-2.620000E-01	  0.079318643	1.626330E+02	  0.079318643	7.740000E-01	  0.079318643	7.634000E+00
298	  0.079519041	-2.640000E-01	  0.079519041	1.622690E+02	  0.079519041	7.800000E-01	  0.079519041	7.796000E+00
299	  0.079719439	-2.680000E-01	  0.079719439	1.619130E+02	  0.079719439	7.910000E-01	  0.079719439	7.956000E+00
300	  0.079919845	-2.720000E-01	  0.079919845	1.615420E+02	  0.079919845	8.040000E-01	  0.079919845	8.122000E+00
301	  0.080120243	-2.800000E-01	  0.080120243	1.611490E+02	  0.080120243	8.290000E-01	  0.080120243	8.297000E+00
302	  0.080320641	-2.840000E-01	  0.080320641	1.607570E+02	  0.080320641	8.410000E-01	  0.080320641	8.473000E+00
303	  0.080521047	-2.910000E-01	  0.080521047	1.603450E+02	  0.080521047	8.630000E-01	  0.080521047	8.658000E+00
304	  0.080721445	-2.940000E-01	  0.080721445	1.599400E+02	  0.080721445	8.740000E-01	  0.080721445	8.840000E+00
305	  0.080921844	-3.010000E-01	  0.080921844	1.595150E+02	  0.080921844	8.970000E-01	  0.080921844	9.031000E+00
306	  0.081122249	-3.020000E-01	  0.081122249	1.590890E+02	  0.081122249	9.010000E-01	  0.081122249	9.223000E+00
307	  0.081322648	-3.060000E-01	  0.081322648	1.586530E+02	  0.081322648	9.130000E-01	  0.081322648	9.420000E+00
308	  0.081523046	-3.110000E-01	  0.081523046	1.582050E+02	  0.081523046	9.300000E-01	  0.081523046	9.622000E+00
309	  0.081723452	-3.090000E-01	  0.081723452	1.577380E+02	  0.081723452	9.240000E-01	  0.081723452	9.834000E+00
310	  0.081923850	-3.110000E-01	  0.081923850	1.572860E+02	  0.081923850	9.340000E-01	  0.081923850	1.003900E+01
311	  0.082124248	-3.120000E-01	  0.082124248	1.568080E+02	  0.082124248	9.350000E-01	  0.082124248	1.025500E+01
312	  0.082324654	-3.110000E-01	  0.082324654	1.563760E+02	  0.082324654	9.360000E-01	  0.082324654	1.045200E+01
313	  0.082525052	-3.070000E-01	  0.082525052	1.559210E+02	  0.082525052	9.250000E-01	  0.082525052	1.066000E+01
314	  0.082725458	-3.050000E-01	  0.082725458	1.554930E+02	  0.082725458	9.190000E-01	  0.082725458	1.085500E+01
315	  0.082925856	-2.990000E-01	  0.082925856	1.550900E+02	  0.082925856	9.040000E-01	  0.082925856	1.103900E+01
316	  0.083126254	-2.990000E-01	  0.083126254	1.547020E+02	  0.083126254	9.050000E-01	  0.083126254	1.121700E+01
317	  0.083326660	-2.990000E-01	  0.083326660	1.543270E+02	  0.083326660	9.060000E-01	  0.083326660	1.138900E+01
318	  0.083527058	-2.980000E-01	  0.083527058	1.539380E+02	  0.083527058	9.040000E-01	  0.083527058	1.156800E+01
319	  0.083727457	-2.990000E-01	  0.083727457	1.535500E+02	  0.083727457	9.090000E-01	  0.083727457	1.174600E+01
320	  0.083927862	-2.950000E-01	  0.083927862	1.531760E+02	  0.083927862	8.980000E-01	  0.083927862	1.191800E+01
321	  0.084128261	-2.930000E-01	  0.084128261	1.527790E+02	  0.084128261	8.940000E-01	  0.084128261	1.210200E+01
322	  0.084328659	-2.900000E-01	  0.084328659	1.524400E+02	  0.084328659	8.860000E-01	  0.084328659	1.225800E+01
323	  0.084529065	-2.880000E-01	  0.084529065	1.521160E+02	  0.084529065	8.800000E-01	  0.084529065	1.240900E+01
324	  0.084729463	-2.860000E-01	  0.084729463	1.517830E+02	  0.084729463	8.770000E-01	  0.084729463	1.256300E+01
325	  0.084929861	-2.880000E-01	  0.084929861	1.514330E+02	  0.084929861	8.820000E-01	  0.084929861	1.272500E+01
326	  0.085130267	-2.900000E-01	  0.085130267	1.510890E+02	  0.085130267	8.920000E-01	  0.085130267	1.288500E+01
327	  0.085330658	-2.950000E-01	  0.085330658	1.507320E+02	  0.085330658	9.080000E-01	  0.085330658	1.305100E+01
328	  0.085531056	-2.970000E-01	  0.085531056	1.503870E+02	  0.085531056	9.160000E-01	  0.085531056	1.321200E+01
329	  0.085731462	-3.010000E-01	  0.085731462	1.500540E+02	  0.085731462	9.300000E-01	  0.085731462	1.336700E+01
330	  0.085931860	-3.070000E-01	  0.085931860	1.496840E+02	  0.085931860	9.500000E-01	  0.085931860	1.354000E+01
331	  0.086132258	-3.110000E-01	  0.086132258	1.493150E+02	  0.086132258	9.640000E-01	  0.086132258	1.371300E+01
332	  0.086332664	-3.150000E-01	  0.086332664	1.489350E+02	  0.086332664	9.790000E-01	  0.086332664	1.389100E+01
333	  0.086533062	-3.190000E-01	  0.086533062	1.485490E+02	  0.086533062	9.910000E-01	  0.086533062	1.407300E+01
334	  0.086733460	-3.190000E-01	  0.086733460	1.481300E+02	  0.086733460	9.930000E-01	  0.086733460	1.427000E+01
335	  0.086933866	-3.170000E-01	  0.086933866	1.477270E+02	  0.086933866	9.900000E-01	  0.086933866	1.446000E+01
336	  0.087134264	-3.220000E-01	  0.087134264	1.473090E+02	  0.087134264	1.008000E+00	  0.087134264	1.465800E+01
337	  0.087334670	-3.240000E-01	  0.087334670	1.468970E+02	  0.087334670	1.016000E+00	  0.087334670	1.485300E+01
338	  0.087535068	-3.220000E-01	  0.087535068	1.464870E+02	  0.087535068	1.012000E+00	  0.087535068	1.504800E+01
339	  0.087735467	-3.200000E-01	  0.087735467	1.460640E+02	  0.087735467	1.008000E+00	  0.087735467	1.524900E+01
340	  0.087935872	-3.160000E-01	  0.087935872	1.456680E+02	  0.087935872	9.970000E-01	  0.087935872	1.543900E+01
341	  0.088136271	-3.140000E-01	  0.088136271	1.452750E+02	  0.088136271	9.940000E-01	  0.088136271	1.562700E+01
342	  0.088336669	-3.110000E-01	  0.088336669	1.448850E+02	  0.088336669	9.860000E-01	  0.088336669	1.581400E+01
343	  0.088537075	-3.110000E-01	  0.088537075	1.445310E+02	  0.088537075	9.870000E-01	  0.088537075	1.598400E+01
344	  0.088737473	-3.100000E-01	  0.088737473	1.441580E+02	  0.088737473	9.860000E-01	  0.088737473	1.616300E+01
345	  0.088937871	-3.120000E-01	  0.088937871	1.437880E+02	  0.088937871	9.940000E-01	  0.088937871	1.634200E+01
346	  0.089138277	-3.110000E-01	  0.089138277	1.434070E+02	  0.089138277	9.950000E-01	  0.089138277	1.652600E+01
347	  0.089338675	-3.090000E-01	  0.089338675	1.430030E+02	  0.089338675	9.890000E-01	  0.089338675	1.672200E+01
348	  0.089539073	-3.080000E-01	  0.089539073	1.426660E+02	  0.089539073	9.900000E-01	  0.089539073	1.688500E+01
349	  0.089739479	-3.050000E-01	  0.089739479	1.423070E+02	  0.089739479	9.810000E-01	  0.089739479	1.706000E+01
350	  0.089939877	-3.080000E-01	  0.089939877	1.419700E+02	  0.089939877	9.920000E-01	  0.089939877	1.722400E+01
351	  0.090140276	-3.060000E-01	  0.090140276	1.416190E+02	  0.090140276	9.890000E-01	  0.090140276	1.739600E+01
352	  0.090340681	-3.070000E-01	  0.090340681	1.412740E+02	  0.090340681	9.940000E-01	  0.090340681	1.756500E+01
353	  0.090541080	-3.100000E-01	  0.090541080	1.409210E+02	  0.090541080	1.005000E+00	  0.090541080	1.773800E+01
354	  0.090741485	-3.110000E-01	  0.090741485	1.405600E+02	  0.090741485	1.010000E+00	  0.090741485	1.791500E+01
355	  0.090941884	-3.170000E-01	  0.090941884	1.402130E+02	  0.090941884	1.034000E+00	  0.090941884	1.808600E+01
356	  0.091142282	-3.200000E-01	  0.091142282	1.398680E+02	  0.091142282	1.046000E+00	  0.091142282	1.825600E+01
357	  0.091342688	-3.260000E-01	  0.091342688	1.395010E+02	  0.091342688	1.067000E+00	  0.091342688	1.843700E+01
358	  0.091543086	-3.290000E-01	  0.091543086	1.391420E+02	  0.091543086	1.078000E+00	  0.091543086	1.861500E+01
359	  0.091743484	-3.310000E-01	  0.091743484	1.387430E+02	  0.091743484	1.090000E+00	  0.091743484	1.881400E+01
360	  0.091943890	-3.320000E-01	  0.091943890	1.383640E+02	  0.091943890	1.096000E+00	  0.091943890	1.900300E+01
361	  0.092144288	-3.350000E-01	  0.092144288	1.379730E+02	  0.092144288	1.106000E+00	  0.092144288	1.919800E+01
362	  0.092344686	-3.390000E-01	  0.092344686	1.375750E+02	  0.092344686	1.125000E+00	  0.092344686	1.939700E+01
363	  0.092545092	-3.370000E-01	  0.092545092	1.372020E+02	  0.092545092	1.121000E+00	  0.092545092	1.958500E+01
364	  0.092745490	-3.400000E-01	  0.092745490	1.368130E+02	  0.092745490	1.133000E+00	  0.092745490	1.978000E+01
365	  0.092945889	-3.350000E-01	  0.092945889	1.364020E+02	  0.092945889	1.120000E+00	  0.092945889	1.998800E+01
366	  0.093146294	-3.390000E-01	  0.093146294	1.360150E+02	  0.093146294	1.135000E+00	  0.093146294	2.018400E+01
367	  0.093346693	-3.290000E-01	  0.093346693	1.356350E+02	  0.093346693	1.105000E+00	  0.093346693	2.037700E+01
368	  0.093547091	-3.340000E-01	  0.093547091	1.352650E+02	  0.093547091	1.124000E+00	  0.093547091	2.056600E+01
369	  0.093747497	-3.290000E-01	  0.093747497	1.349130E+02	  0.093747497	1.112000E+00	  0.093747497	2.074500E+01
370	  0.093947895	-3.350000E-01	  0.093947895	1.345540E+02	  0.093947895	1.133000E+00	  0.093947895	2.092900E+01
371	  0.094148301	-3.320000E-01	  0.094148301	1.341730E+02	  0.094148301	1.127000E+00	  0.094148301	2.112500E+01
372	  0.094348699	-3.340000E-01	  0.094348699	1.337870E+02	  0.094348699	1.139000E+00	  0.094348699	2.132300E+01
373	  0.094549097	-3.310000E-01	  0.094549097	1.334390E+02	  0.094549097	1.131000E+00	  0.094549097	2.150300E+01
374	  0.094749503	-3.320000E-01	  0.094749503	1.330570E+02	  0.094749503	1.138000E+00	  0.094749503	2.170100E+01
375	  0.094949901	-3.330000E-01	  0.094949901	1.327050E+02	  0.094949901	1.143000E+00	  0.094949901	2.188400E+01
376	  0.095150299	-3.320000E-01	  0.095150299	1.323420E+02	  0.095150299	1.144000E+00	  0.095150299	2.207200E+01
377	  0.095350705	-3.320000E-01	  0.095350705	1.319790E+02	  0.095350705	1.146000E+00	  0.095350705	2.226200E+01
378	  0.095551103	-3.300000E-01	  0.095551103	1.316040E+02	  0.095551103	1.144000E+00	  0.095551103	2.245800E+01
379	  0.095751502	-3.300000E-01	  0.095751502	1.312480E+02	  0.095751502	1.146000E+00	  0.095751502	2.264500E+01
380	  0.095951907	-3.280000E-01	  0.095951907	1.308810E+02	  0.095951907	1.143000E+00	  0.095951907	2.283800E+01
381	  0.096152306	-3.320000E-01	  0.096152306	1.305250E+02	  0.096152306	1.161000E+00	  0.096152306	2.302600E+01
382	  0.096352704	-3.340000E-01	  0.096352704	1.301660E+02	  0.096352704	1.169000E+00	  0.096352704	2.321600E+01
383	  0.096553110	-3.360000E-01	  0.096553110	1.298060E+02	  0.096553110	1.179000E+00	  0.096553110	2.340700E+01
384	  0.096753508	-3.370000E-01	  0.096753508	1.294380E+02	  0.096753508	1.187000E+00	  0.096753508	2.360300E+01
385	  0.096953906	-3.380000E-01	  0.096953906	1.290780E+02	  0.096953906	1.196000E+00	  0.096953906	2.379500E+01
386	  0.097154312	-3.400000E-01	  0.097154312	1.287210E+02	  0.097154312	1.203000E+00	  0.097154312	2.398600E+01
387	  0.097354710	-3.370000E-01	  0.097354710	1.283420E+02	  0.097354710	1.197000E+00	  0.097354710	2.419000E+01
388	  0.097555116	-3.390000E-01	  0.097555116	1.279730E+02	  0.097555116	1.210000E+00	  0.097555116	2.438900E+01
389	  0.097755514	-3.370000E-01	  0.097755514	1.276070E+02	  0.097755514	1.207000E+00	  0.097755514	2.458700E+01
390	  0.097955912	-3.380000E-01	  0.097955912	1.272490E+02	  0.097955912	1.212000E+00	  0.097955912	2.478100E+01
391	  0.098156318	-3.340000E-01	  0.098156318	1.268980E+02	  0.098156318	1.202000E+00	  0.098156318	2.497200E+01
392	  0.098356716	-3.290000E-01	  0.098356716	1.265590E+02	  0.098356716	1.190000E+00	  0.098356716	2.515700E+01
393	  0.098557115	-3.280000E-01	  0.098557115	1.262310E+02	  0.098557115	1.187000E+00	  0.098557115	2.533700E+01
394	  0.098757520	-3.290000E-01	  0.098757520	1.259200E+02	  0.098757520	1.196000E+00	  0.098757520	2.550800E+01
395	  0.098957919	-3.260000E-01	  0.098957919	1.255980E+02	  0.098957919	1.186000E+00	  0.098957919	2.568500E+01
396	  0.099158317	-3.300000E-01	  0.099158317	1.252710E+02	  0.099158317	1.204000E+00	  0.099158317	2.586600E+01
397	  0.099358723	-3.270000E-01	  0.099358723	1.249580E+02	  0.099358723	1.199000E+00	  0.099358723	2.603900E+01
398	  0.099559121	-3.280000E-01	  0.099559121	1.246350E+02	  0.099559121	1.203000E+00	  0.099559121	2.621800E+01
399	  0.099759519	-3.290000E-01	  0.099759519	1.243300E+02	  0.099759519	1.212000E+00	  0.099759519	2.638800E+01
400	  0.099959925	-3.400000E-01	  0.099959925	1.239800E+02	  0.099959925	1.255000E+00	  0.099959925	2.658300E+01
401	  0.100160323	-3.400000E-01	  0.100160323	1.236810E+02	  0.100160323	1.259000E+00	  0.100160323	2.675000E+01
402	  0.100360721	-3.510000E-01	  0.100360721	1.233210E+02	  0.100360721	1.307000E+00	  0.100360721	2.695200E+01
403	  0.100561127	-3.490000E-01	  0.100561127	1.229770E+02	  0.100561127	1.303000E+00	  0.100561127	2.714600E+01
404	  0.100761525	-3.520000E-01	  0.100761525	1.226130E+02	  0.100761525	1.318000E+00	  0.100761525	2.735100E+01
405	  0.100961931	-3.490000E-01	  0.100961931	1.222600E+02	  0.100961931	1.310000E+00	  0.100961931	2.755200E+01
406	  0.101162329	-3.520000E-01	  0.101162329	1.218620E+02	  0.101162329	1.326000E+00	  0.101162329	2.777800E+01
407	  0.101362728	-3.570000E-01	  0.101362728	1.215320E+02	  0.101362728	1.349000E+00	  0.101362728	2.796700E+01
408	  0.101563133	-3.600000E-01	  0.101563133	1.211360E+02	  0.101563133	1.367000E+00	  0.101563133	2.819300E+01
409	  0.101763532	-3.690000E-01	  0.101763532	1.207810E+02	  0.101763532	1.405000E+00	  0.101763532	2.839700E+01
410	  0.101963930	-3.730000E-01	  0.101963930	1.204220E+02	  0.101963930	1.426000E+00	  0.101963930	2.860400E+01
411	  0.102164336	-3.710000E-01	  0.102164336	1.199750E+02	  0.102164336	1.426000E+00	  0.102164336	2.886400E+01
412	  0.102364734	-3.770000E-01	  0.102364734	1.195630E+02	  0.102364734	1.453000E+00	  0.102364734	2.910300E+01
413	  0.102565132	-3.760000E-01	  0.102565132	1.191870E+02	  0.102565132	1.455000E+00	  0.102565132	2.932300E+01
414	  0.102765530	-3.740000E-01	  0.102765530	1.187370E+02	  0.102765530	1.456000E+00	  0.102765530	2.958800E+01
415	  0.102965929	-3.750000E-01	  0.102965929	1.184020E+02	  0.102965929	1.463000E+00	  0.102965929	2.978500E+01
416	  0.103166327	-3.710000E-01	  0.103166327	1.179800E+02	  0.103166327	1.454000E+00	  0.103166327	3.003600E+01
417	  0.103366733	-3.750000E-01	  0.103366733	1.175840E+02	  0.103366733	1.475000E+00	  0.103366733	3.027000E+01
418	  0.103567131	-3.690000E-01	  0.103567131	1.171760E+02	  0.103567131	1.458000E+00	  0.103567131	3.051500E+01
419	  0.103767529	-3.640000E-01	  0.103767529	1.168570E+02	  0.103767529	1.444000E+00	  0.103767529	3.070700E+01
420	  0.103967935	-3.650000E-01	  0.103967935	1.164730E+02	  0.103967935	1.453000E+00	  0.103967935	3.093800E+01
421	  0.104168333	-3.620000E-01	  0.104168333	1.161330E+02	  0.104168333	1.447000E+00	  0.104168333	3.114300E+01
422	  0.104368731	-3.600000E-01	  0.104368731	1.157940E+02	  0.104368731	1.445000E+00	  0.104368731	3.134900E+01
423	  0.104569137	-3.540000E-01	  0.104569137	1.154720E+02	  0.104569137	1.427000E+00	  0.104569137	3.154600E+01
424	  0.104769535	-3.520000E-01	  0.104769535	1.151490E+02	  0.104769535	1.424000E+00	  0.104769535	3.174300E+01
425	  0.104969934	-3.480000E-01	  0.104969934	1.148070E+02	  0.104969934	1.414000E+00	  0.104969934	3.195300E+01
426	  0.105170339	-3.530000E-01	  0.105170339	1.145320E+02	  0.105170339	1.438000E+00	  0.105170339	3.212200E+01
427	  0.105370738	-3.550000E-01	  0.105370738	1.142070E+02	  0.105370738	1.450000E+00	  0.105370738	3.232200E+01
428	  0.105571143	-3.540000E-01	  0.105571143	1.139070E+02	  0.105571143	1.449000E+00	  0.105571143	3.250800E+01
429	  0.105771542	-3.570000E-01	  0.105771542	1.135840E+02	  0.105771542	1.469000E+00	  0.105771542	3.270800E+01
430	  0.105971940	-3.560000E-01	  0.105971940	1.132550E+02	  0.105971940	1.470000E+00	  0.105971940	3.291400E+01
431	  0.106172346	-3.510000E-01	  0.106172346	1.129260E+02	  0.106172346	1.457000E+00	  0.106172346	3.312000E+01
432	  0.106372744	-3.620000E-01	  0.106372744	1.126110E+02	  0.106372744	1.506000E+00	  0.106372744	3.331700E+01
433	  0.106573142	-3.550000E-01	  0.106573142	1.122810E+02	  0.106573142	1.484000E+00	  0.106573142	3.352600E+01
434	  0.106773548	-3.610000E-01	  0.106773548	1.120040E+02	  0.106773548	1.511000E+00	  0.106773548	3.370100E+01
435	  0.106973946	-3.590000E-01	  0.106973946	1.116660E+02	  0.106973946	1.512000E+00	  0.106973946	3.391600E+01
436	  0.107174344	-3.680000E-01	  0.107174344	1.113240E+02	  0.107174344	1.553000E+00	  0.107174344	3.413300E+01
437	  0.107374750	-3.620000E-01	  0.107374750	1.109850E+02	  0.107374750	1.534000E+00	  0.107374750	3.435100E+01
438	  0.107575148	-3.650000E-01	  0.107575148	1.106310E+02	  0.107575148	1.554000E+00	  0.107575148	3.457800E+01
439	  0.107775547	-3.640000E-01	  0.107775547	1.102940E+02	  0.107775547	1.555000E+00	  0.107775547	3.479600E+01
440	  0.107975952	-3.630000E-01	  0.107975952	1.099280E+02	  0.107975952	1.560000E+00	  0.107975952	3.503400E+01
441	  0.108176351	-3.670000E-01	  0.108176351	1.095910E+02	  0.108176351	1.585000E+00	  0.108176351	3.525300E+01
442	  0.108376749	-3.640000E-01	  0.108376749	1.092420E+02	  0.108376749	1.575000E+00	  0.108376749	3.548100E+01
443	  0.108577155	-3.660000E-01	  0.108577155	1.088700E+02	  0.108577155	1.592000E+00	  0.108577155	3.572600E+01
444	  0.108777553	-3.610000E-01	  0.108777553	1.085120E+02	  0.108777553	1.580000E+00	  0.108777553	3.596200E+01
445	  0.108977959	-3.560000E-01	  0.108977959	1.081990E+02	  0.108977959	1.564000E+00	  0.108977959	3.617100E+01
446	  0.109178357	-3.640000E-01	  0.109178357	1.078390E+02	  0.109178357	1.605000E+00	  0.109178357	3.640900E+01
447	  0.109378755	-3.640000E-01	  0.109378755	1.074970E+02	  0.109378755	1.613000E+00	  0.109378755	3.663800E+01
448	  0.109579161	-3.600000E-01	  0.109579161	1.071460E+02	  0.109579161	1.603000E+00	  0.109579161	3.687400E+01
449	  0.109779559	-3.510000E-01	  0.109779559	1.068140E+02	  0.109779559	1.567000E+00	  0.109779559	3.710000E+01
450	  0.109979957	-3.520000E-01	  0.109979957	1.064790E+02	  0.109979957	1.579000E+00	  0.109979957	3.732600E+01
451	  0.110180363	-3.560000E-01	  0.110180363	1.061430E+02	  0.110180363	1.605000E+00	  0.110180363	3.755400E+01
452	  0.110380761	-3.630000E-01	  0.110380761	1.057970E+02	  0.110380761	1.646000E+00	  0.110380761	3.779000E+01
453	  0.110581160	-3.610000E-01	  0.110581160	1.054700E+02	  0.110581160	1.642000E+00	  0.110581160	3.801500E+01
454	  0.110781565	-3.650000E-01	  0.110781565	1.051320E+02	  0.110781565	1.667000E+00	  0.110781565	3.824700E+01
455	  0.110981964	-3.710000E-01	  0.110981964	1.047750E+02	  0.110981964	1.703000E+00	  0.110981964	3.849400E+01
456	  0.111182362	-3.690000E-01	  0.111182362	1.044430E+02	  0.111182362	1.701000E+00	  0.111182362	3.872500E+01
457	  0.111382768	-3.710000E-01	  0.111382768	1.040430E+02	  0.111382768	1.718000E+00	  0.111382768	3.900400E+01
458	  0.111583166	-3.680000E-01	  0.111583166	1.036960E+02	  0.111583166	1.712000E+00	  0.111583166	3.924900E+01
459	  0.111783572	-3.720000E-01	  0.111783572	1.033720E+02	  0.111783572	1.743000E+00	  0.111783572	3.947700E+01
460	  0.111983970	-3.770000E-01	  0.111983970	1.029950E+02	  0.111983970	1.773000E+00	  0.111983970	3.974400E+01
461	  0.112184368	-3.780000E-01	  0.112184368	1.026850E+02	  0.112184368	1.787000E+00	  0.112184368	3.996500E+01
462	  0.112384774	-3.790000E-01	  0.112384774	1.023350E+02	  0.112384774	1.800000E+00	  0.112384774	4.021500E+01
463	  0.112585172	-3.750000E-01	  0.112585172	1.019620E+02	  0.112585172	1.787000E+00	  0.112585172	4.048400E+01
464	  0.112785570	-3.770000E-01	  0.112785570	1.016070E+02	  0.112785570	1.807000E+00	  0.112785570	4.074100E+01
465	  0.112985976	-3.740000E-01	  0.112985976	1.012540E+02	  0.112985976	1.803000E+00	  0.112985976	4.099800E+01
466	  0.113186374	-3.740000E-01	  0.113186374	1.009380E+02	  0.113186374	1.813000E+00	  0.113186374	4.122900E+01
467	  0.113386773	-3.730000E-01	  0.113386773	1.006130E+02	  0.113386773	1.813000E+00	  0.113386773	4.146800E+01
468	  0.113587178	-3.700000E-01	  0.113587178	1.002420E+02	  0.113587178	1.808000E+00	  0.113587178	4.174200E+01
469	  0.113787577	-3.660000E-01	  0.113787577	9.994100E+01	  0.113787577	1.800000E+00	  0.113787577	4.196600E+01
470	  0.113987975	-3.650000E-01	  0.113987975	9.961000E+01	  0.113987975	1.804000E+00	  0.113987975	4.221300E+01
471	  0.114188381	-3.650000E-01	  0.114188381	9.929900E+01	  0.114188381	1.808000E+00	  0.114188381	4.244500E+01
472	  0.114388779	-3.630000E-01	  0.114388779	9.897300E+01	  0.114388779	1.808000E+00	  0.114388779	4.269100E+01
473	  0.114589177	-3.630000E-01	  0.114589177	9.867000E+01	  0.114589177	1.815000E+00	  0.114589177	4.292100E+01
474	  0.114789583	-3.610000E-01	  0.114789583	9.836800E+01	  0.114789583	1.815000E+00	  0.114789583	4.315000E+01
475	  0.114989981	-3.560000E-01	  0.114989981	9.805900E+01	  0.114989981	1.796000E+00	  0.114989981	4.338700E+01
476	  0.115190387	-3.560000E-01	  0.115190387	9.774900E+01	  0.115190387	1.809000E+00	  0.115190387	4.362400E+01
477	  0.115390785	-3.600000E-01	  0.115390785	9.743100E+01	  0.115390785	1.836000E+00	  0.115390785	4.386800E+01
478	  0.115591183	-3.570000E-01	  0.115591183	9.714400E+01	  0.115591183	1.828000E+00	  0.115591183	4.409000E+01
479	  0.115791589	-3.630000E-01	  0.115791589	9.682300E+01	  0.115791589	1.870000E+00	  0.115791589	4.433800E+01
480	  0.115991987	-3.660000E-01	  0.115991987	9.650900E+01	  0.115991987	1.891000E+00	  0.115991987	4.458300E+01
481	  0.116192386	-3.670000E-01	  0.116192386	9.618400E+01	  0.116192386	1.909000E+00	  0.116192386	4.483800E+01
482	  0.116392791	-3.730000E-01	  0.116392791	9.584800E+01	  0.116392791	1.948000E+00	  0.116392791	4.510200E+01
483	  0.116593190	-3.710000E-01	  0.116593190	9.551500E+01	  0.116593190	1.952000E+00	  0.116593190	4.536600E+01
484	  0.116793588	-3.710000E-01	  0.116793588	9.517100E+01	  0.116793588	1.962000E+00	  0.116793588	4.564000E+01
485	  0.116993994	-3.750000E-01	  0.116993994	9.481000E+01	  0.116993994	1.990000E+00	  0.116993994	4.592900E+01
486	  0.117194392	-3.760000E-01	  0.117194392	9.447400E+01	  0.117194392	2.011000E+00	  0.117194392	4.619900E+01
487	  0.117394790	-3.820000E-01	  0.117394790	9.411900E+01	  0.117394790	2.053000E+00	  0.117394790	4.648600E+01
488	  0.117595196	-3.820000E-01	  0.117595196	9.377100E+01	  0.117595196	2.063000E+00	  0.117595196	4.677000E+01
489	  0.117795594	-3.770000E-01	  0.117795594	9.341600E+01	  0.117795594	2.049000E+00	  0.117795594	4.706200E+01
490	  0.117995992	-3.780000E-01	  0.117995992	9.305700E+01	  0.117995992	2.068000E+00	  0.117995992	4.735800E+01
491	  0.118196398	-3.780000E-01	  0.118196398	9.270800E+01	  0.118196398	2.078000E+00	  0.118196398	4.764700E+01
492	  0.118396796	-3.700000E-01	  0.118396796	9.237400E+01	  0.118396796	2.049000E+00	  0.118396796	4.792700E+01
493	  0.118597202	-3.660000E-01	  0.118597202	9.206200E+01	  0.118597202	2.034000E+00	  0.118597202	4.819000E+01
494	  0.118797600	-3.670000E-01	  0.118797600	9.172300E+01	  0.118797600	2.052000E+00	  0.118797600	4.847500E+01
495	  0.118997999	-3.570000E-01	  0.118997999	9.141900E+01	  0.118997999	2.009000E+00	  0.118997999	4.873600E+01
496	  0.119198404	-3.600000E-01	  0.119198404	9.112800E+01	  0.119198404	2.033000E+00	  0.119198404	4.898300E+01
497	  0.119398803	-3.580000E-01	  0.119398803	9.079900E+01	  0.119398803	2.033000E+00	  0.119398803	4.926500E+01
498	  0.119599201	-3.580000E-01	  0.119599201	9.052000E+01	  0.119599201	2.041000E+00	  0.119599201	4.950600E+01
499	  0.119799607	-3.530000E-01	  0.119799607	9.020600E+01	  0.119799607	2.025000E+00	  0.119799607	4.977800E+01
500	  0.120000005	-3.550000E-01	  0.120000005	8.994000E+01	  0.120000005	2.050000E+00	  0.120000005	5.001000E+01
