! Anritsu VNA Master:             	Model: MS2036C/10/77
! SN:             	1601066
! /card0/usr/18may27.balun/252b.66.5.txt
! Existing Calibration Information:
! TYPE:             	Current Settings	Active Cal Settings
! TIME:             	05/27/2018 01:22:19 PM	05/27/2018 01:14:08 PM
! INTERNAL TEMP:    	52.0 C	52.0 C
! # POINTS:         	500	500
! START FREQ:       	20.000 MHz	20.000 MHz
! STOP FREQ:        	120.000 MHz	120.000 MHz
! SOURCE POWER:     	High	High
! IFBW:             	50 Hz	50 Hz
! AVG FACTOR:       	  1 	  1 
! REF PLANE 1:      	0 mm	0 mm
! REF PLANE 2:      	0 mm	0 mm
! CAL TYPE:         	Full S11	Full S11
! CAL METHOD:       	SOLT	SOLT
! CAL LINE TYPE:    	Coax	Coax
! DUT PORT 1:       	K-Conn(M)	K-Conn(M)
! DUT PORT 2:       	K-Conn(M)	K-Conn(M)
! CAL STATUS:       	OK: Accuracy High	--
! PROP-V:       	0.700
! CABLE LOSS:       	0.000 dB/m
! REF IMPEDANCE:       	50.0
! Trace Specific Parameters:	TR1	TR2	TR3	TR4
! TRACE.#.Y (GRAPH TYPE)	LOG MAG	PHASE	REAL IMPEDANCE	IMAGINARY IMPEDANCE
! TRACE.#.X 	FREQ.GHZ	FREQ.GHZ	FREQ.GHZ	FREQ.GHZ
! S-PARAMETER	S11	S11	S11	S11
! SMOOTH/APERTURE %	0	0	0	0
! WINDOW	NSL	NSL	NSL	NSL
! GATING	OFF	OFF	OFF	OFF
! FGTD	OFF	OFF	OFF	OFF
Marker Information per Trace:	TR1	TR2	TR3	TR4
!MK1	--	--	--	"MK1 TR4:  70.100 200 MHz,Z:(0.829 ohm, 7.060 ohm)"
!MK2	--	--	--	--
!MK3	--	--	--	--
!MK4	--	--	--	--
!MK5	--	--	--	--
!MK6	--	--	--	--
!MK7	--	--	--	--
!MK8	--	--	--	--
PNT	TR1.FREQ.GHZ	TR1.LOG MAG.dB	TR2.FREQ.GHZ	TR2.PHASE.deg	TR3.FREQ.GHZ	TR3.REAL IMPEDANCE.ohm	TR4.FREQ.GHZ	TR4.IMAGINARY IMPEDANCE.ohm
1	  0.020000000	-3.700000E-02	  0.020000000	-6.807100E+01	  0.020000000	3.460000E-01	  0.020000000	-7.402600E+01
2	  0.020200402	-3.300000E-02	  0.020200402	-6.873200E+01	  0.020200402	3.000000E-01	  0.020200402	-7.311400E+01
3	  0.020400802	-3.100000E-02	  0.020400802	-6.938200E+01	  0.020400802	2.780000E-01	  0.020400802	-7.223100E+01
4	  0.020601204	-3.100000E-02	  0.020601204	-7.002400E+01	  0.020601204	2.780000E-01	  0.020601204	-7.137400E+01
5	  0.020801604	-2.800000E-02	  0.020801604	-7.064900E+01	  0.020801604	2.450000E-01	  0.020801604	-7.055100E+01
6	  0.021002004	-2.900000E-02	  0.021002004	-7.130400E+01	  0.021002004	2.480000E-01	  0.021002004	-6.970400E+01
7	  0.021202406	-3.300000E-02	  0.021202406	-7.195700E+01	  0.021202406	2.760000E-01	  0.021202406	-6.887200E+01
8	  0.021402806	-3.700000E-02	  0.021402806	-7.259300E+01	  0.021402806	3.110000E-01	  0.021402806	-6.807400E+01
9	  0.021603208	-4.300000E-02	  0.021603208	-7.323100E+01	  0.021603208	3.490000E-01	  0.021603208	-6.728400E+01
10	  0.021803608	-4.700000E-02	  0.021803608	-7.385500E+01	  0.021803608	3.740000E-01	  0.021803608	-6.652500E+01
11	  0.022004008	-4.900000E-02	  0.022004008	-7.448600E+01	  0.022004008	3.900000E-01	  0.022004008	-6.576700E+01
12	  0.022204408	-5.400000E-02	  0.022204408	-7.513300E+01	  0.022204408	4.200000E-01	  0.022204408	-6.500200E+01
13	  0.022404809	-5.500000E-02	  0.022404809	-7.577500E+01	  0.022404809	4.230000E-01	  0.022404809	-6.425400E+01
14	  0.022605211	-5.600000E-02	  0.022605211	-7.642600E+01	  0.022605211	4.260000E-01	  0.022605211	-6.350700E+01
15	  0.022805611	-5.200000E-02	  0.022805611	-7.708100E+01	  0.022805611	3.900000E-01	  0.022805611	-6.276500E+01
16	  0.023006011	-4.500000E-02	  0.023006011	-7.773000E+01	  0.023006011	3.290000E-01	  0.023006011	-6.204100E+01
17	  0.023206413	-3.900000E-02	  0.023206413	-7.837400E+01	  0.023206413	2.810000E-01	  0.023206413	-6.133300E+01
18	  0.023406813	-3.400000E-02	  0.023406813	-7.901600E+01	  0.023406813	2.420000E-01	  0.023406813	-6.063600E+01
19	  0.023607215	-3.100000E-02	  0.023607215	-7.963400E+01	  0.023607215	2.180000E-01	  0.023607215	-5.997400E+01
20	  0.023807615	-3.100000E-02	  0.023807615	-8.023300E+01	  0.023807615	2.210000E-01	  0.023807615	-5.934000E+01
21	  0.024008015	-3.700000E-02	  0.024008015	-8.080300E+01	  0.024008015	2.560000E-01	  0.024008015	-5.874500E+01
22	  0.024208417	-4.100000E-02	  0.024208417	-8.137700E+01	  0.024208417	2.790000E-01	  0.024208417	-5.815200E+01
23	  0.024408817	-4.700000E-02	  0.024408817	-8.194400E+01	  0.024408817	3.180000E-01	  0.024408817	-5.757400E+01
24	  0.024609219	-5.400000E-02	  0.024609219	-8.251900E+01	  0.024609219	3.600000E-01	  0.024609219	-5.699200E+01
25	  0.024809619	-6.000000E-02	  0.024809619	-8.313600E+01	  0.024809619	3.950000E-01	  0.024809619	-5.637800E+01
26	  0.025010020	-6.000000E-02	  0.025010020	-8.378000E+01	  0.025010020	3.900000E-01	  0.025010020	-5.574300E+01
27	  0.025210422	-6.100000E-02	  0.025210422	-8.442200E+01	  0.025210422	3.940000E-01	  0.025210422	-5.511800E+01
28	  0.025410822	-6.400000E-02	  0.025410822	-8.508300E+01	  0.025410822	4.030000E-01	  0.025410822	-5.448400E+01
29	  0.025611224	-6.500000E-02	  0.025611224	-8.571400E+01	  0.025611224	4.040000E-01	  0.025611224	-5.388500E+01
30	  0.025811624	-6.000000E-02	  0.025811624	-8.636200E+01	  0.025811624	3.730000E-01	  0.025811624	-5.327700E+01
31	  0.026012026	-5.400000E-02	  0.026012026	-8.697200E+01	  0.026012026	3.330000E-01	  0.026012026	-5.271300E+01
32	  0.026212426	-5.400000E-02	  0.026212426	-8.757700E+01	  0.026212426	3.250000E-01	  0.026212426	-5.215800E+01
33	  0.026412826	-5.700000E-02	  0.026412826	-8.817400E+01	  0.026412826	3.410000E-01	  0.026412826	-5.161800E+01
34	  0.026613226	-6.100000E-02	  0.026613226	-8.877000E+01	  0.026613226	3.600000E-01	  0.026613226	-5.108300E+01
35	  0.026813626	-6.700000E-02	  0.026813626	-8.934400E+01	  0.026813626	3.920000E-01	  0.026813626	-5.057400E+01
36	  0.027014028	-7.500000E-02	  0.027014028	-8.990400E+01	  0.027014028	4.370000E-01	  0.027014028	-5.008100E+01
37	  0.027214428	-8.400000E-02	  0.027214428	-9.049200E+01	  0.027214428	4.820000E-01	  0.027214428	-4.956900E+01
38	  0.027414829	-9.500000E-02	  0.027414829	-9.112000E+01	  0.027414829	5.410000E-01	  0.027414829	-4.902800E+01
39	  0.027615231	-1.020000E-01	  0.027615231	-9.179600E+01	  0.027615231	5.690000E-01	  0.027615231	-4.845300E+01
40	  0.027815631	-1.030000E-01	  0.027815631	-9.248400E+01	  0.027815631	5.720000E-01	  0.027815631	-4.787300E+01
41	  0.028016033	-9.900000E-02	  0.028016033	-9.317600E+01	  0.028016033	5.410000E-01	  0.028016033	-4.729900E+01
42	  0.028216433	-9.000000E-02	  0.028216433	-9.387200E+01	  0.028216433	4.850000E-01	  0.028216433	-4.672700E+01
43	  0.028416833	-7.900000E-02	  0.028416833	-9.453400E+01	  0.028416833	4.230000E-01	  0.028416833	-4.618900E+01
44	  0.028617235	-7.100000E-02	  0.028617235	-9.518200E+01	  0.028617235	3.770000E-01	  0.028617235	-4.566800E+01
45	  0.028817635	-6.400000E-02	  0.028817635	-9.577100E+01	  0.028817635	3.350000E-01	  0.028817635	-4.519900E+01
46	  0.029018037	-5.500000E-02	  0.029018037	-9.631000E+01	  0.029018037	2.890000E-01	  0.029018037	-4.477400E+01
47	  0.029218437	-5.000000E-02	  0.029218437	-9.683500E+01	  0.029218437	2.600000E-01	  0.029218437	-4.436300E+01
48	  0.029418837	-4.500000E-02	  0.029418837	-9.733500E+01	  0.029418837	2.330000E-01	  0.029418837	-4.397500E+01
49	  0.029619239	-4.300000E-02	  0.029619239	-9.781900E+01	  0.029619239	2.180000E-01	  0.029619239	-4.360200E+01
50	  0.029819639	-4.400000E-02	  0.029819639	-9.833900E+01	  0.029819639	2.240000E-01	  0.029819639	-4.320400E+01
51	  0.030020041	-5.200000E-02	  0.030020041	-9.887300E+01	  0.030020041	2.600000E-01	  0.030020041	-4.279800E+01
52	  0.030220442	-6.200000E-02	  0.030220442	-9.942900E+01	  0.030220442	3.090000E-01	  0.030220442	-4.237900E+01
53	  0.030420844	-7.300000E-02	  0.030420844	-1.000260E+02	  0.030420844	3.620000E-01	  0.030420844	-4.193400E+01
54	  0.030621244	-8.300000E-02	  0.030621244	-1.006610E+02	  0.030621244	4.040000E-01	  0.030621244	-4.146400E+01
55	  0.030821644	-8.300000E-02	  0.030821644	-1.012980E+02	  0.030821644	4.020000E-01	  0.030821644	-4.099700E+01
56	  0.031022044	-8.200000E-02	  0.031022044	-1.019010E+02	  0.031022044	3.910000E-01	  0.031022044	-4.055800E+01
57	  0.031222444	-7.700000E-02	  0.031222444	-1.024920E+02	  0.031222444	3.650000E-01	  0.031222444	-4.013300E+01
58	  0.031422846	-7.400000E-02	  0.031422846	-1.030780E+02	  0.031422846	3.470000E-01	  0.031422846	-3.971400E+01
59	  0.031623244	-7.600000E-02	  0.031623244	-1.036240E+02	  0.031623244	3.580000E-01	  0.031623244	-3.932700E+01
60	  0.031823646	-7.700000E-02	  0.031823646	-1.041650E+02	  0.031823646	3.570000E-01	  0.031823646	-3.894700E+01
61	  0.032024048	-7.800000E-02	  0.032024048	-1.046790E+02	  0.032024048	3.620000E-01	  0.032024048	-3.858700E+01
62	  0.032224450	-8.700000E-02	  0.032224450	-1.051970E+02	  0.032224450	3.980000E-01	  0.032224450	-3.822800E+01
63	  0.032424849	-9.900000E-02	  0.032424849	-1.057310E+02	  0.032424849	4.510000E-01	  0.032424849	-3.786000E+01
64	  0.032625251	-1.110000E-01	  0.032625251	-1.063130E+02	  0.032625251	5.000000E-01	  0.032625251	-3.746100E+01
65	  0.032825653	-1.230000E-01	  0.032825653	-1.069070E+02	  0.032825653	5.490000E-01	  0.032825653	-3.705700E+01
66	  0.033026051	-1.280000E-01	  0.033026051	-1.075490E+02	  0.033026051	5.690000E-01	  0.033026051	-3.662500E+01
67	  0.033226453	-1.280000E-01	  0.033226453	-1.081810E+02	  0.033226453	5.620000E-01	  0.033226453	-3.620300E+01
68	  0.033426855	-1.320000E-01	  0.033426855	-1.088130E+02	  0.033426855	5.750000E-01	  0.033426855	-3.578400E+01
69	  0.033627257	-1.330000E-01	  0.033627257	-1.094700E+02	  0.033627257	5.770000E-01	  0.033627257	-3.535200E+01
70	  0.033827655	-1.340000E-01	  0.033827655	-1.101220E+02	  0.033827655	5.740000E-01	  0.033827655	-3.492700E+01
71	  0.034028057	-1.280000E-01	  0.034028057	-1.107350E+02	  0.034028057	5.460000E-01	  0.034028057	-3.453100E+01
72	  0.034228459	-1.200000E-01	  0.034228459	-1.113570E+02	  0.034228459	5.060000E-01	  0.034228459	-3.413200E+01
73	  0.034428857	-1.110000E-01	  0.034428857	-1.119400E+02	  0.034428857	4.680000E-01	  0.034428857	-3.376100E+01
74	  0.034629259	-1.000000E-01	  0.034629259	-1.124900E+02	  0.034629259	4.200000E-01	  0.034629259	-3.341300E+01
75	  0.034829661	-9.500000E-02	  0.034829661	-1.129920E+02	  0.034829661	3.940000E-01	  0.034829661	-3.309700E+01
76	  0.035030060	-9.000000E-02	  0.035030060	-1.134930E+02	  0.035030060	3.710000E-01	  0.035030060	-3.278400E+01
77	  0.035230462	-8.600000E-02	  0.035230462	-1.139760E+02	  0.035230462	3.530000E-01	  0.035230462	-3.248300E+01
78	  0.035430863	-8.700000E-02	  0.035430863	-1.144760E+02	  0.035430863	3.570000E-01	  0.035430863	-3.217400E+01
79	  0.035631265	-9.400000E-02	  0.035631265	-1.149970E+02	  0.035631265	3.830000E-01	  0.035631265	-3.185300E+01
80	  0.035831664	-1.030000E-01	  0.035831664	-1.155320E+02	  0.035831664	4.140000E-01	  0.035831664	-3.152600E+01
81	  0.036032066	-1.130000E-01	  0.036032066	-1.161060E+02	  0.036032066	4.520000E-01	  0.036032066	-3.117700E+01
82	  0.036232468	-1.180000E-01	  0.036232468	-1.166820E+02	  0.036232468	4.700000E-01	  0.036232468	-3.082900E+01
83	  0.036432866	-1.230000E-01	  0.036432866	-1.173090E+02	  0.036432866	4.880000E-01	  0.036432866	-3.045200E+01
84	  0.036633268	-1.250000E-01	  0.036633268	-1.178990E+02	  0.036633268	4.920000E-01	  0.036633268	-3.010000E+01
85	  0.036833670	-1.210000E-01	  0.036833670	-1.185060E+02	  0.036833670	4.740000E-01	  0.036833670	-2.974100E+01
86	  0.037034072	-1.090000E-01	  0.037034072	-1.190440E+02	  0.037034072	4.250000E-01	  0.037034072	-2.942400E+01
87	  0.037234470	-1.020000E-01	  0.037234470	-1.195260E+02	  0.037234470	3.940000E-01	  0.037234470	-2.914200E+01
88	  0.037434869	-9.900000E-02	  0.037434869	-1.199940E+02	  0.037434869	3.820000E-01	  0.037434869	-2.886900E+01
89	  0.037635271	-9.800000E-02	  0.037635271	-1.204780E+02	  0.037635271	3.770000E-01	  0.037635271	-2.858800E+01
90	  0.037835669	-1.050000E-01	  0.037835669	-1.209690E+02	  0.037835669	4.020000E-01	  0.037835669	-2.830400E+01
91	  0.038036071	-1.140000E-01	  0.038036071	-1.214950E+02	  0.038036071	4.340000E-01	  0.038036071	-2.800200E+01
92	  0.038236473	-1.220000E-01	  0.038236473	-1.220390E+02	  0.038236473	4.610000E-01	  0.038236473	-2.769000E+01
93	  0.038436871	-1.300000E-01	  0.038436871	-1.226030E+02	  0.038436871	4.860000E-01	  0.038436871	-2.736900E+01
94	  0.038637273	-1.360000E-01	  0.038637273	-1.231550E+02	  0.038637273	5.080000E-01	  0.038637273	-2.705700E+01
95	  0.038837675	-1.420000E-01	  0.038837675	-1.237190E+02	  0.038837675	5.280000E-01	  0.038837675	-2.674000E+01
96	  0.039038073	-1.500000E-01	  0.039038073	-1.243050E+02	  0.039038073	5.520000E-01	  0.039038073	-2.641200E+01
97	  0.039238475	-1.530000E-01	  0.039238475	-1.248910E+02	  0.039238475	5.600000E-01	  0.039238475	-2.608500E+01
98	  0.039438877	-1.530000E-01	  0.039438877	-1.254810E+02	  0.039438877	5.600000E-01	  0.039438877	-2.575900E+01
99	  0.039639279	-1.490000E-01	  0.039639279	-1.260480E+02	  0.039639279	5.420000E-01	  0.039639279	-2.544700E+01
100	  0.039839678	-1.450000E-01	  0.039839678	-1.265850E+02	  0.039839678	5.240000E-01	  0.039839678	-2.515200E+01
101	  0.040040080	-1.380000E-01	  0.040040080	-1.271120E+02	  0.040040080	4.970000E-01	  0.040040080	-2.486500E+01
102	  0.040240481	-1.340000E-01	  0.040240481	-1.276290E+02	  0.040240481	4.790000E-01	  0.040240481	-2.458500E+01
103	  0.040440880	-1.320000E-01	  0.040440880	-1.281450E+02	  0.040440880	4.720000E-01	  0.040440880	-2.430600E+01
104	  0.040641282	-1.280000E-01	  0.040641282	-1.286680E+02	  0.040641282	4.540000E-01	  0.040641282	-2.402500E+01
105	  0.040841684	-1.300000E-01	  0.040841684	-1.291750E+02	  0.040841684	4.590000E-01	  0.040841684	-2.375300E+01
106	  0.041042086	-1.300000E-01	  0.041042086	-1.296780E+02	  0.041042086	4.600000E-01	  0.041042086	-2.348400E+01
107	  0.041242484	-1.390000E-01	  0.041242484	-1.301810E+02	  0.041242484	4.880000E-01	  0.041242484	-2.321700E+01
108	  0.041442886	-1.520000E-01	  0.041442886	-1.306950E+02	  0.041442886	5.320000E-01	  0.041442886	-2.294400E+01
109	  0.041643288	-1.630000E-01	  0.041643288	-1.312740E+02	  0.041643288	5.650000E-01	  0.041643288	-2.263900E+01
110	  0.041843686	-1.660000E-01	  0.041843686	-1.318620E+02	  0.041843686	5.740000E-01	  0.041843686	-2.233100E+01
111	  0.042044088	-1.620000E-01	  0.042044088	-1.324580E+02	  0.042044088	5.590000E-01	  0.042044088	-2.202000E+01
112	  0.042244490	-1.500000E-01	  0.042244490	-1.330170E+02	  0.042244490	5.150000E-01	  0.042244490	-2.172900E+01
113	  0.042444889	-1.410000E-01	  0.042444889	-1.335310E+02	  0.042444889	4.810000E-01	  0.042444889	-2.146300E+01
114	  0.042645290	-1.360000E-01	  0.042645290	-1.339990E+02	  0.042645290	4.640000E-01	  0.042645290	-2.122200E+01
115	  0.042845692	-1.340000E-01	  0.042845692	-1.344830E+02	  0.042845692	4.550000E-01	  0.042845692	-2.097300E+01
116	  0.043046094	-1.380000E-01	  0.043046094	-1.349680E+02	  0.043046094	4.660000E-01	  0.043046094	-2.072500E+01
117	  0.043246493	-1.420000E-01	  0.043246493	-1.354830E+02	  0.043246493	4.770000E-01	  0.043246493	-2.046200E+01
118	  0.043446895	-1.460000E-01	  0.043446895	-1.359860E+02	  0.043446895	4.910000E-01	  0.043446895	-2.020600E+01
119	  0.043647297	-1.500000E-01	  0.043647297	-1.364730E+02	  0.043647297	5.010000E-01	  0.043647297	-1.995900E+01
120	  0.043847695	-1.560000E-01	  0.043847695	-1.369760E+02	  0.043847695	5.190000E-01	  0.043847695	-1.970500E+01
121	  0.044048097	-1.610000E-01	  0.044048097	-1.374700E+02	  0.044048097	5.350000E-01	  0.044048097	-1.945600E+01
122	  0.044248499	-1.680000E-01	  0.044248499	-1.379820E+02	  0.044248499	5.570000E-01	  0.044248499	-1.920000E+01
123	  0.044448901	-1.710000E-01	  0.044448901	-1.385220E+02	  0.044448901	5.640000E-01	  0.044448901	-1.892900E+01
124	  0.044649299	-1.700000E-01	  0.044649299	-1.390270E+02	  0.044649299	5.590000E-01	  0.044649299	-1.867800E+01
125	  0.044849701	-1.700000E-01	  0.044849701	-1.395240E+02	  0.044849701	5.570000E-01	  0.044849701	-1.843100E+01
126	  0.045050103	-1.690000E-01	  0.045050103	-1.399840E+02	  0.045050103	5.530000E-01	  0.045050103	-1.820400E+01
127	  0.045250501	-1.690000E-01	  0.045250501	-1.404630E+02	  0.045250501	5.520000E-01	  0.045250501	-1.796700E+01
128	  0.045450903	-1.700000E-01	  0.045450903	-1.409650E+02	  0.045450903	5.530000E-01	  0.045450903	-1.772100E+01
129	  0.045651305	-1.700000E-01	  0.045651305	-1.414630E+02	  0.045651305	5.520000E-01	  0.045651305	-1.747600E+01
130	  0.045851704	-1.680000E-01	  0.045851704	-1.419560E+02	  0.045851704	5.410000E-01	  0.045851704	-1.723500E+01
131	  0.046052106	-1.650000E-01	  0.046052106	-1.424150E+02	  0.046052106	5.300000E-01	  0.046052106	-1.701100E+01
132	  0.046252504	-1.660000E-01	  0.046252504	-1.428790E+02	  0.046252504	5.320000E-01	  0.046252504	-1.678600E+01
133	  0.046452906	-1.730000E-01	  0.046452906	-1.433210E+02	  0.046452906	5.530000E-01	  0.046452906	-1.657200E+01
134	  0.046653304	-1.830000E-01	  0.046653304	-1.437940E+02	  0.046653304	5.850000E-01	  0.046653304	-1.634300E+01
135	  0.046853706	-1.940000E-01	  0.046853706	-1.442980E+02	  0.046853706	6.160000E-01	  0.046853706	-1.609900E+01
136	  0.047054108	-1.990000E-01	  0.047054108	-1.448300E+02	  0.047054108	6.310000E-01	  0.047054108	-1.584400E+01
137	  0.047254506	-1.960000E-01	  0.047254506	-1.453950E+02	  0.047254506	6.200000E-01	  0.047254506	-1.557300E+01
138	  0.047454908	-1.900000E-01	  0.047454908	-1.459430E+02	  0.047454908	6.000000E-01	  0.047454908	-1.531100E+01
139	  0.047655310	-1.840000E-01	  0.047655310	-1.464430E+02	  0.047655310	5.790000E-01	  0.047655310	-1.507300E+01
140	  0.047855709	-1.820000E-01	  0.047855709	-1.469310E+02	  0.047855709	5.720000E-01	  0.047855709	-1.484100E+01
141	  0.048056111	-1.820000E-01	  0.048056111	-1.474430E+02	  0.048056111	5.690000E-01	  0.048056111	-1.459800E+01
142	  0.048256513	-1.810000E-01	  0.048256513	-1.479450E+02	  0.048256513	5.660000E-01	  0.048256513	-1.436100E+01
143	  0.048456915	-1.810000E-01	  0.048456915	-1.484550E+02	  0.048456915	5.640000E-01	  0.048456915	-1.412000E+01
144	  0.048657313	-1.830000E-01	  0.048657313	-1.489490E+02	  0.048657313	5.690000E-01	  0.048657313	-1.388800E+01
145	  0.048857715	-1.860000E-01	  0.048857715	-1.494510E+02	  0.048857715	5.760000E-01	  0.048857715	-1.365200E+01
146	  0.049058117	-1.910000E-01	  0.049058117	-1.499470E+02	  0.049058117	5.900000E-01	  0.049058117	-1.342000E+01
147	  0.049258515	-1.950000E-01	  0.049258515	-1.504800E+02	  0.049258515	6.000000E-01	  0.049258515	-1.317100E+01
148	  0.049458917	-1.980000E-01	  0.049458917	-1.509920E+02	  0.049458917	6.100000E-01	  0.049458917	-1.293200E+01
149	  0.049659319	-1.990000E-01	  0.049659319	-1.515120E+02	  0.049659319	6.100000E-01	  0.049659319	-1.269000E+01
150	  0.049859721	-1.950000E-01	  0.049859721	-1.520130E+02	  0.049859721	5.980000E-01	  0.049859721	-1.245800E+01
151	  0.050060119	-1.950000E-01	  0.050060119	-1.525010E+02	  0.050060119	5.970000E-01	  0.050060119	-1.223200E+01
152	  0.050260521	-1.930000E-01	  0.050260521	-1.529810E+02	  0.050260521	5.890000E-01	  0.050260521	-1.201000E+01
153	  0.050460923	-1.960000E-01	  0.050460923	-1.534520E+02	  0.050460923	5.960000E-01	  0.050460923	-1.179300E+01
154	  0.050661322	-1.950000E-01	  0.050661322	-1.539330E+02	  0.050661322	5.930000E-01	  0.050661322	-1.157200E+01
155	  0.050861724	-1.940000E-01	  0.050861724	-1.544140E+02	  0.050861724	5.880000E-01	  0.050861724	-1.135100E+01
156	  0.051062126	-1.900000E-01	  0.051062126	-1.548790E+02	  0.051062126	5.760000E-01	  0.051062126	-1.113800E+01
157	  0.051262524	-1.880000E-01	  0.051262524	-1.553210E+02	  0.051262524	5.680000E-01	  0.051262524	-1.093600E+01
158	  0.051462926	-1.900000E-01	  0.051462926	-1.557490E+02	  0.051462926	5.740000E-01	  0.051462926	-1.074000E+01
159	  0.051663328	-1.920000E-01	  0.051663328	-1.561670E+02	  0.051663328	5.780000E-01	  0.051663328	-1.055000E+01
160	  0.051863730	-2.000000E-01	  0.051863730	-1.565970E+02	  0.051863730	6.020000E-01	  0.051863730	-1.035400E+01
161	  0.052064128	-2.050000E-01	  0.052064128	-1.570460E+02	  0.052064128	6.140000E-01	  0.052064128	-1.015000E+01
162	  0.052264530	-2.090000E-01	  0.052264530	-1.575060E+02	  0.052264530	6.260000E-01	  0.052264530	-9.941000E+00
163	  0.052464932	-2.100000E-01	  0.052464932	-1.579860E+02	  0.052464932	6.290000E-01	  0.052464932	-9.723000E+00
164	  0.052665330	-2.090000E-01	  0.052665330	-1.584480E+02	  0.052665330	6.250000E-01	  0.052665330	-9.514000E+00
165	  0.052865732	-2.070000E-01	  0.052865732	-1.588980E+02	  0.052865732	6.160000E-01	  0.052865732	-9.311000E+00
166	  0.053066134	-2.070000E-01	  0.053066134	-1.593540E+02	  0.053066134	6.170000E-01	  0.053066134	-9.105000E+00
167	  0.053266536	-2.050000E-01	  0.053266536	-1.598110E+02	  0.053266536	6.110000E-01	  0.053266536	-8.899000E+00
168	  0.053466935	-2.090000E-01	  0.053466935	-1.602750E+02	  0.053466935	6.200000E-01	  0.053466935	-8.690000E+00
169	  0.053667337	-2.080000E-01	  0.053667337	-1.607380E+02	  0.053667337	6.170000E-01	  0.053667337	-8.483000E+00
170	  0.053867739	-2.090000E-01	  0.053867739	-1.611980E+02	  0.053867739	6.180000E-01	  0.053867739	-8.276000E+00
171	  0.054068137	-2.130000E-01	  0.054068137	-1.616510E+02	  0.054068137	6.300000E-01	  0.054068137	-8.073000E+00
172	  0.054268539	-2.190000E-01	  0.054268539	-1.621150E+02	  0.054268539	6.470000E-01	  0.054268539	-7.866000E+00
173	  0.054468941	-2.220000E-01	  0.054468941	-1.626060E+02	  0.054468941	6.550000E-01	  0.054468941	-7.646000E+00
174	  0.054669339	-2.230000E-01	  0.054669339	-1.630900E+02	  0.054669339	6.570000E-01	  0.054669339	-7.430000E+00
175	  0.054869737	-2.230000E-01	  0.054869737	-1.635740E+02	  0.054869737	6.570000E-01	  0.054869737	-7.215000E+00
176	  0.055070139	-2.230000E-01	  0.055070139	-1.640500E+02	  0.055070139	6.550000E-01	  0.055070139	-7.003000E+00
177	  0.055270538	-2.230000E-01	  0.055270538	-1.645120E+02	  0.055270538	6.550000E-01	  0.055270538	-6.797000E+00
178	  0.055470940	-2.240000E-01	  0.055470940	-1.649760E+02	  0.055470940	6.570000E-01	  0.055470940	-6.592000E+00
179	  0.055671342	-2.250000E-01	  0.055671342	-1.654350E+02	  0.055671342	6.600000E-01	  0.055671342	-6.388000E+00
180	  0.055871744	-2.250000E-01	  0.055871744	-1.659100E+02	  0.055871744	6.600000E-01	  0.055871744	-6.177000E+00
181	  0.056072142	-2.260000E-01	  0.056072142	-1.663900E+02	  0.056072142	6.600000E-01	  0.056072142	-5.965000E+00
182	  0.056272544	-2.240000E-01	  0.056272544	-1.668410E+02	  0.056272544	6.540000E-01	  0.056272544	-5.766000E+00
183	  0.056472946	-2.190000E-01	  0.056472946	-1.672980E+02	  0.056472946	6.390000E-01	  0.056472946	-5.563000E+00
184	  0.056673344	-2.210000E-01	  0.056673344	-1.677370E+02	  0.056673344	6.440000E-01	  0.056673344	-5.369000E+00
185	  0.056873746	-2.230000E-01	  0.056873746	-1.681670E+02	  0.056873746	6.500000E-01	  0.056873746	-5.180000E+00
186	  0.057074148	-2.230000E-01	  0.057074148	-1.685940E+02	  0.057074148	6.490000E-01	  0.057074148	-4.992000E+00
187	  0.057274550	-2.260000E-01	  0.057274550	-1.690340E+02	  0.057274550	6.570000E-01	  0.057274550	-4.798000E+00
188	  0.057474948	-2.300000E-01	  0.057474948	-1.694530E+02	  0.057474948	6.680000E-01	  0.057474948	-4.613000E+00
189	  0.057675350	-2.310000E-01	  0.057675350	-1.698960E+02	  0.057675350	6.710000E-01	  0.057675350	-4.419000E+00
190	  0.057875752	-2.330000E-01	  0.057875752	-1.703460E+02	  0.057875752	6.750000E-01	  0.057875752	-4.221000E+00
191	  0.058076151	-2.320000E-01	  0.058076151	-1.707780E+02	  0.058076151	6.740000E-01	  0.058076151	-4.031000E+00
192	  0.058276553	-2.310000E-01	  0.058276553	-1.712220E+02	  0.058276553	6.710000E-01	  0.058276553	-3.836000E+00
193	  0.058476955	-2.310000E-01	  0.058476955	-1.716720E+02	  0.058476955	6.700000E-01	  0.058476955	-3.639000E+00
194	  0.058677353	-2.330000E-01	  0.058677353	-1.721250E+02	  0.058677353	6.750000E-01	  0.058677353	-3.440000E+00
195	  0.058877755	-2.340000E-01	  0.058877755	-1.725580E+02	  0.058877755	6.780000E-01	  0.058877755	-3.250000E+00
196	  0.059078157	-2.370000E-01	  0.059078157	-1.729920E+02	  0.059078157	6.850000E-01	  0.059078157	-3.060000E+00
197	  0.059278559	-2.410000E-01	  0.059278559	-1.734470E+02	  0.059278559	6.960000E-01	  0.059278559	-2.861000E+00
198	  0.059478957	-2.430000E-01	  0.059478957	-1.739000E+02	  0.059478957	7.030000E-01	  0.059478957	-2.663000E+00
199	  0.059679359	-2.460000E-01	  0.059679359	-1.743640E+02	  0.059679359	7.100000E-01	  0.059679359	-2.460000E+00
200	  0.059879761	-2.490000E-01	  0.059879761	-1.748350E+02	  0.059879761	7.200000E-01	  0.059879761	-2.254000E+00
201	  0.060080159	-2.480000E-01	  0.060080159	-1.752740E+02	  0.060080159	7.170000E-01	  0.060080159	-2.062000E+00
202	  0.060280561	-2.490000E-01	  0.060280561	-1.757360E+02	  0.060280561	7.180000E-01	  0.060280561	-1.860000E+00
203	  0.060480963	-2.490000E-01	  0.060480963	-1.761820E+02	  0.060480963	7.180000E-01	  0.060480963	-1.666000E+00
204	  0.060681365	-2.510000E-01	  0.060681365	-1.766330E+02	  0.060681365	7.250000E-01	  0.060681365	-1.468000E+00
205	  0.060881764	-2.500000E-01	  0.060881764	-1.770870E+02	  0.060881764	7.210000E-01	  0.060881764	-1.270000E+00
206	  0.061082166	-2.480000E-01	  0.061082166	-1.775240E+02	  0.061082166	7.160000E-01	  0.061082166	-1.080000E+00
207	  0.061282568	-2.500000E-01	  0.061282568	-1.779770E+02	  0.061282568	7.200000E-01	  0.061282568	-8.820000E-01
208	  0.061482966	-2.490000E-01	  0.061482966	-1.784180E+02	  0.061482966	7.170000E-01	  0.061482966	-6.900000E-01
209	  0.061683368	-2.470000E-01	  0.061683368	-1.788580E+02	  0.061683368	7.110000E-01	  0.061683368	-4.980000E-01
210	  0.061883770	-2.470000E-01	  0.061883770	-1.792850E+02	  0.061883770	7.130000E-01	  0.061883770	-3.110000E-01
211	  0.062084168	-2.450000E-01	  0.062084168	-1.797050E+02	  0.062084168	7.060000E-01	  0.062084168	-1.280000E-01
212	  0.062284570	-2.460000E-01	  0.062284570	1.798820E+02	  0.062284570	7.080000E-01	  0.062284570	5.100000E-02
213	  0.062484972	-2.440000E-01	  0.062484972	1.795050E+02	  0.062484972	7.040000E-01	  0.062484972	2.150000E-01
214	  0.062685370	-2.440000E-01	  0.062685370	1.791050E+02	  0.062685370	7.030000E-01	  0.062685370	3.900000E-01
215	  0.062885776	-2.460000E-01	  0.062885776	1.787200E+02	  0.062885776	7.090000E-01	  0.062885776	5.580000E-01
216	  0.063086174	-2.480000E-01	  0.063086174	1.783150E+02	  0.063086174	7.140000E-01	  0.063086174	7.340000E-01
217	  0.063286573	-2.480000E-01	  0.063286573	1.779000E+02	  0.063286573	7.140000E-01	  0.063286573	9.150000E-01
218	  0.063486971	-2.440000E-01	  0.063486971	1.775280E+02	  0.063486971	7.040000E-01	  0.063486971	1.078000E+00
219	  0.063687377	-2.480000E-01	  0.063687377	1.771130E+02	  0.063687377	7.140000E-01	  0.063687377	1.259000E+00
220	  0.063887775	-2.470000E-01	  0.063887775	1.767310E+02	  0.063887775	7.110000E-01	  0.063887775	1.426000E+00
221	  0.064088173	-2.480000E-01	  0.064088173	1.763470E+02	  0.064088173	7.140000E-01	  0.064088173	1.593000E+00
222	  0.064288579	-2.530000E-01	  0.064288579	1.759250E+02	  0.064288579	7.310000E-01	  0.064288579	1.778000E+00
223	  0.064488977	-2.580000E-01	  0.064488977	1.755050E+02	  0.064488977	7.440000E-01	  0.064488977	1.961000E+00
224	  0.064689375	-2.570000E-01	  0.064689375	1.750730E+02	  0.064689375	7.420000E-01	  0.064689375	2.150000E+00
225	  0.064889781	-2.600000E-01	  0.064889781	1.746570E+02	  0.064889781	7.510000E-01	  0.064889781	2.332000E+00
226	  0.065090179	-2.610000E-01	  0.065090179	1.742350E+02	  0.065090179	7.540000E-01	  0.065090179	2.516000E+00
227	  0.065290578	-2.640000E-01	  0.065290578	1.738170E+02	  0.065290578	7.630000E-01	  0.065290578	2.699000E+00
228	  0.065490983	-2.670000E-01	  0.065490983	1.733990E+02	  0.065490983	7.720000E-01	  0.065490983	2.882000E+00
229	  0.065691382	-2.690000E-01	  0.065691382	1.729600E+02	  0.065691382	7.770000E-01	  0.065691382	3.074000E+00
230	  0.065891780	-2.690000E-01	  0.065891780	1.725210E+02	  0.065891780	7.780000E-01	  0.065891780	3.267000E+00
231	  0.066092186	-2.710000E-01	  0.066092186	1.721070E+02	  0.066092186	7.840000E-01	  0.066092186	3.448000E+00
232	  0.066292584	-2.700000E-01	  0.066292584	1.716610E+02	  0.066292584	7.820000E-01	  0.066292584	3.643000E+00
233	  0.066492982	-2.710000E-01	  0.066492982	1.712230E+02	  0.066492982	7.850000E-01	  0.066492982	3.836000E+00
234	  0.066693388	-2.700000E-01	  0.066693388	1.707970E+02	  0.066693388	7.840000E-01	  0.066693388	4.022000E+00
235	  0.066893786	-2.710000E-01	  0.066893786	1.703640E+02	  0.066893786	7.860000E-01	  0.066893786	4.213000E+00
236	  0.067094192	-2.720000E-01	  0.067094192	1.699170E+02	  0.067094192	7.890000E-01	  0.067094192	4.409000E+00
237	  0.067294590	-2.720000E-01	  0.067294590	1.694890E+02	  0.067294590	7.910000E-01	  0.067294590	4.597000E+00
238	  0.067494988	-2.740000E-01	  0.067494988	1.690950E+02	  0.067494988	7.960000E-01	  0.067494988	4.771000E+00
239	  0.067695394	-2.730000E-01	  0.067695394	1.686790E+02	  0.067695394	7.950000E-01	  0.067695394	4.954000E+00
240	  0.067895792	-2.710000E-01	  0.067895792	1.682720E+02	  0.067895792	7.900000E-01	  0.067895792	5.133000E+00
241	  0.068096191	-2.710000E-01	  0.068096191	1.678760E+02	  0.068096191	7.900000E-01	  0.068096191	5.308000E+00
242	  0.068296596	-2.730000E-01	  0.068296596	1.674750E+02	  0.068296596	7.950000E-01	  0.068296596	5.485000E+00
243	  0.068496995	-2.700000E-01	  0.068496995	1.670730E+02	  0.068496995	7.890000E-01	  0.068496995	5.662000E+00
244	  0.068697393	-2.680000E-01	  0.068697393	1.666830E+02	  0.068697393	7.830000E-01	  0.068697393	5.835000E+00
245	  0.068897791	-2.680000E-01	  0.068897791	1.663160E+02	  0.068897791	7.820000E-01	  0.068897791	5.997000E+00
246	  0.069098189	-2.690000E-01	  0.069098189	1.659330E+02	  0.069098189	7.860000E-01	  0.069098189	6.167000E+00
247	  0.069298595	-2.700000E-01	  0.069298595	1.655590E+02	  0.069298595	7.890000E-01	  0.069298595	6.332000E+00
248	  0.069498993	-2.750000E-01	  0.069498993	1.651430E+02	  0.069498993	8.060000E-01	  0.069498993	6.517000E+00
249	  0.069699399	-2.800000E-01	  0.069699399	1.647310E+02	  0.069699399	8.210000E-01	  0.069699399	6.699000E+00
250	  0.069899797	-2.790000E-01	  0.069899797	1.643110E+02	  0.069899797	8.190000E-01	  0.069899797	6.886000E+00
251	  0.070100196	-2.820000E-01	  0.070100196	1.639200E+02	  0.070100196	8.280000E-01	  0.070100196	7.060000E+00
252	  0.070300601	-2.840000E-01	  0.070300601	1.635280E+02	  0.070300601	8.340000E-01	  0.070300601	7.235000E+00
253	  0.070501000	-2.840000E-01	  0.070501000	1.631100E+02	  0.070501000	8.360000E-01	  0.070501000	7.421000E+00
254	  0.070701398	-2.860000E-01	  0.070701398	1.627180E+02	  0.070701398	8.430000E-01	  0.070701398	7.596000E+00
255	  0.070901804	-2.900000E-01	  0.070901804	1.623060E+02	  0.070901804	8.550000E-01	  0.070901804	7.779000E+00
256	  0.071102202	-2.900000E-01	  0.071102202	1.618890E+02	  0.071102202	8.560000E-01	  0.071102202	7.966000E+00
257	  0.071302600	-2.910000E-01	  0.071302600	1.614730E+02	  0.071302600	8.600000E-01	  0.071302600	8.152000E+00
258	  0.071503006	-2.890000E-01	  0.071503006	1.610630E+02	  0.071503006	8.560000E-01	  0.071503006	8.336000E+00
259	  0.071703404	-2.900000E-01	  0.071703404	1.606390E+02	  0.071703404	8.610000E-01	  0.071703404	8.526000E+00
260	  0.071903802	-2.900000E-01	  0.071903802	1.602360E+02	  0.071903802	8.610000E-01	  0.071903802	8.707000E+00
261	  0.072104208	-2.930000E-01	  0.072104208	1.598120E+02	  0.072104208	8.710000E-01	  0.072104208	8.897000E+00
262	  0.072304606	-2.870000E-01	  0.072304606	1.594070E+02	  0.072304606	8.560000E-01	  0.072304606	9.080000E+00
263	  0.072505005	-2.910000E-01	  0.072505005	1.590080E+02	  0.072505005	8.690000E-01	  0.072505005	9.260000E+00
264	  0.072705410	-2.930000E-01	  0.072705410	1.586310E+02	  0.072705410	8.730000E-01	  0.072705410	9.430000E+00
265	  0.072905809	-2.920000E-01	  0.072905809	1.582270E+02	  0.072905809	8.730000E-01	  0.072905809	9.613000E+00
266	  0.073106214	-2.900000E-01	  0.073106214	1.578490E+02	  0.073106214	8.670000E-01	  0.073106214	9.784000E+00
267	  0.073306613	-2.930000E-01	  0.073306613	1.574410E+02	  0.073306613	8.790000E-01	  0.073306613	9.969000E+00
268	  0.073507011	-2.910000E-01	  0.073507011	1.570340E+02	  0.073507011	8.740000E-01	  0.073507011	1.015300E+01
269	  0.073707417	-2.890000E-01	  0.073707417	1.566630E+02	  0.073707417	8.690000E-01	  0.073707417	1.032200E+01
270	  0.073907815	-2.840000E-01	  0.073907815	1.563090E+02	  0.073907815	8.550000E-01	  0.073907815	1.048300E+01
271	  0.074108213	-2.820000E-01	  0.074108213	1.559760E+02	  0.074108213	8.500000E-01	  0.074108213	1.063500E+01
272	  0.074308619	-2.840000E-01	  0.074308619	1.556130E+02	  0.074308619	8.560000E-01	  0.074308619	1.080100E+01
273	  0.074509017	-2.870000E-01	  0.074509017	1.552560E+02	  0.074509017	8.670000E-01	  0.074509017	1.096400E+01
274	  0.074709415	-2.880000E-01	  0.074709415	1.548780E+02	  0.074709415	8.710000E-01	  0.074709415	1.113600E+01
275	  0.074909821	-2.900000E-01	  0.074909821	1.544930E+02	  0.074909821	8.770000E-01	  0.074909821	1.131300E+01
276	  0.075110219	-2.910000E-01	  0.075110219	1.541110E+02	  0.075110219	8.840000E-01	  0.075110219	1.148800E+01
277	  0.075310618	-2.950000E-01	  0.075310618	1.537560E+02	  0.075310618	8.970000E-01	  0.075310618	1.165100E+01
278	  0.075511023	-2.980000E-01	  0.075511023	1.533660E+02	  0.075511023	9.080000E-01	  0.075511023	1.183100E+01
279	  0.075711422	-3.000000E-01	  0.075711422	1.530000E+02	  0.075711422	9.140000E-01	  0.075711422	1.199900E+01
280	  0.075911827	-3.020000E-01	  0.075911827	1.526230E+02	  0.075911827	9.220000E-01	  0.075911827	1.217400E+01
281	  0.076112226	-3.040000E-01	  0.076112226	1.522480E+02	  0.076112226	9.280000E-01	  0.076112226	1.234700E+01
282	  0.076312624	-3.020000E-01	  0.076312624	1.518340E+02	  0.076312624	9.250000E-01	  0.076312624	1.253800E+01
283	  0.076513030	-3.000000E-01	  0.076513030	1.514600E+02	  0.076513030	9.190000E-01	  0.076513030	1.271200E+01
284	  0.076713428	-3.030000E-01	  0.076713428	1.510800E+02	  0.076713428	9.310000E-01	  0.076713428	1.288900E+01
285	  0.076913826	-3.030000E-01	  0.076913826	1.506720E+02	  0.076913826	9.340000E-01	  0.076913826	1.307900E+01
286	  0.077114232	-3.010000E-01	  0.077114232	1.502610E+02	  0.077114232	9.300000E-01	  0.077114232	1.327000E+01
287	  0.077314630	-3.010000E-01	  0.077314630	1.498610E+02	  0.077314630	9.320000E-01	  0.077314630	1.345700E+01
288	  0.077515028	-3.020000E-01	  0.077515028	1.494770E+02	  0.077515028	9.360000E-01	  0.077515028	1.363700E+01
289	  0.077715434	-3.010000E-01	  0.077715434	1.491060E+02	  0.077715434	9.330000E-01	  0.077715434	1.381100E+01
290	  0.077915832	-3.050000E-01	  0.077915832	1.487270E+02	  0.077915832	9.480000E-01	  0.077915832	1.398900E+01
291	  0.078116231	-3.080000E-01	  0.078116231	1.483440E+02	  0.078116231	9.590000E-01	  0.078116231	1.416900E+01
292	  0.078316636	-3.110000E-01	  0.078316636	1.479450E+02	  0.078316636	9.700000E-01	  0.078316636	1.435800E+01
293	  0.078517035	-3.100000E-01	  0.078517035	1.475440E+02	  0.078517035	9.690000E-01	  0.078517035	1.454700E+01
294	  0.078717433	-3.080000E-01	  0.078717433	1.471350E+02	  0.078717433	9.650000E-01	  0.078717433	1.474100E+01
295	  0.078917839	-3.080000E-01	  0.078917839	1.467480E+02	  0.078917839	9.660000E-01	  0.078917839	1.492500E+01
296	  0.079118237	-3.040000E-01	  0.079118237	1.464080E+02	  0.079118237	9.540000E-01	  0.079118237	1.508600E+01
297	  0.079318643	-3.020000E-01	  0.079318643	1.460340E+02	  0.079318643	9.510000E-01	  0.079318643	1.526500E+01
298	  0.079519041	-3.000000E-01	  0.079519041	1.456870E+02	  0.079519041	9.480000E-01	  0.079519041	1.543000E+01
299	  0.079719439	-3.050000E-01	  0.079719439	1.453180E+02	  0.079719439	9.640000E-01	  0.079719439	1.560700E+01
300	  0.079919845	-3.080000E-01	  0.079919845	1.449320E+02	  0.079919845	9.750000E-01	  0.079919845	1.579100E+01
301	  0.080120243	-3.100000E-01	  0.080120243	1.445540E+02	  0.080120243	9.840000E-01	  0.080120243	1.597300E+01
302	  0.080320641	-3.120000E-01	  0.080320641	1.441990E+02	  0.080320641	9.920000E-01	  0.080320641	1.614400E+01
303	  0.080521047	-3.130000E-01	  0.080521047	1.438290E+02	  0.080521047	9.970000E-01	  0.080521047	1.632200E+01
304	  0.080721445	-3.180000E-01	  0.080721445	1.434690E+02	  0.080721445	1.015000E+00	  0.080721445	1.649600E+01
305	  0.080921844	-3.190000E-01	  0.080921844	1.430950E+02	  0.080921844	1.021000E+00	  0.080921844	1.667700E+01
306	  0.081122249	-3.180000E-01	  0.081122249	1.427300E+02	  0.081122249	1.022000E+00	  0.081122249	1.685400E+01
307	  0.081322648	-3.170000E-01	  0.081322648	1.423430E+02	  0.081322648	1.019000E+00	  0.081322648	1.704200E+01
308	  0.081523046	-3.190000E-01	  0.081523046	1.419760E+02	  0.081523046	1.029000E+00	  0.081523046	1.722100E+01
309	  0.081723452	-3.170000E-01	  0.081723452	1.416120E+02	  0.081723452	1.023000E+00	  0.081723452	1.739900E+01
310	  0.081923850	-3.170000E-01	  0.081923850	1.412350E+02	  0.081923850	1.027000E+00	  0.081923850	1.758300E+01
311	  0.082124248	-3.170000E-01	  0.082124248	1.408650E+02	  0.082124248	1.029000E+00	  0.082124248	1.776500E+01
312	  0.082324654	-3.140000E-01	  0.082324654	1.404900E+02	  0.082324654	1.023000E+00	  0.082324654	1.794900E+01
313	  0.082525052	-3.130000E-01	  0.082525052	1.401340E+02	  0.082525052	1.022000E+00	  0.082525052	1.812500E+01
314	  0.082725458	-3.100000E-01	  0.082725458	1.397740E+02	  0.082725458	1.013000E+00	  0.082725458	1.830300E+01
315	  0.082925856	-3.110000E-01	  0.082925856	1.394480E+02	  0.082925856	1.018000E+00	  0.082925856	1.846400E+01
316	  0.083126254	-3.130000E-01	  0.083126254	1.391030E+02	  0.083126254	1.028000E+00	  0.083126254	1.863500E+01
317	  0.083326660	-3.170000E-01	  0.083326660	1.387420E+02	  0.083326660	1.043000E+00	  0.083326660	1.881500E+01
318	  0.083527058	-3.200000E-01	  0.083527058	1.383970E+02	  0.083527058	1.056000E+00	  0.083527058	1.898700E+01
319	  0.083727457	-3.220000E-01	  0.083727457	1.380170E+02	  0.083727457	1.063000E+00	  0.083727457	1.917700E+01
320	  0.083927862	-3.180000E-01	  0.083927862	1.376050E+02	  0.083927862	1.055000E+00	  0.083927862	1.938300E+01
321	  0.084128261	-3.190000E-01	  0.084128261	1.372410E+02	  0.084128261	1.060000E+00	  0.084128261	1.956600E+01
322	  0.084328659	-3.170000E-01	  0.084328659	1.368770E+02	  0.084328659	1.057000E+00	  0.084328659	1.974900E+01
323	  0.084529065	-3.140000E-01	  0.084529065	1.365560E+02	  0.084529065	1.049000E+00	  0.084529065	1.991100E+01
324	  0.084729463	-3.180000E-01	  0.084729463	1.361940E+02	  0.084729463	1.063000E+00	  0.084729463	2.009400E+01
325	  0.084929861	-3.220000E-01	  0.084929861	1.358320E+02	  0.084929861	1.080000E+00	  0.084929861	2.027800E+01
326	  0.085130267	-3.210000E-01	  0.085130267	1.354800E+02	  0.085130267	1.081000E+00	  0.085130267	2.045700E+01
327	  0.085330658	-3.220000E-01	  0.085330658	1.351220E+02	  0.085330658	1.087000E+00	  0.085330658	2.063900E+01
328	  0.085531056	-3.250000E-01	  0.085531056	1.347680E+02	  0.085531056	1.098000E+00	  0.085531056	2.082000E+01
329	  0.085731462	-3.280000E-01	  0.085731462	1.344090E+02	  0.085731462	1.112000E+00	  0.085731462	2.100400E+01
330	  0.085931860	-3.320000E-01	  0.085931860	1.340470E+02	  0.085931860	1.129000E+00	  0.085931860	2.118900E+01
331	  0.086132258	-3.340000E-01	  0.086132258	1.336740E+02	  0.086132258	1.137000E+00	  0.086132258	2.138100E+01
332	  0.086332664	-3.360000E-01	  0.086332664	1.333050E+02	  0.086332664	1.149000E+00	  0.086332664	2.157200E+01
333	  0.086533062	-3.330000E-01	  0.086533062	1.329340E+02	  0.086533062	1.143000E+00	  0.086533062	2.176500E+01
334	  0.086733460	-3.320000E-01	  0.086733460	1.325750E+02	  0.086733460	1.139000E+00	  0.086733460	2.195100E+01
335	  0.086933866	-3.300000E-01	  0.086933866	1.321890E+02	  0.086933866	1.139000E+00	  0.086933866	2.215200E+01
336	  0.087134264	-3.330000E-01	  0.087134264	1.318290E+02	  0.087134264	1.151000E+00	  0.087134264	2.234000E+01
337	  0.087334670	-3.300000E-01	  0.087334670	1.314710E+02	  0.087334670	1.142000E+00	  0.087334670	2.252800E+01
338	  0.087535068	-3.270000E-01	  0.087535068	1.311170E+02	  0.087535068	1.135000E+00	  0.087535068	2.271400E+01
339	  0.087735467	-3.230000E-01	  0.087735467	1.307700E+02	  0.087735467	1.125000E+00	  0.087735467	2.289700E+01
340	  0.087935872	-3.180000E-01	  0.087935872	1.304230E+02	  0.087935872	1.111000E+00	  0.087935872	2.308100E+01
341	  0.088136271	-3.180000E-01	  0.088136271	1.300930E+02	  0.088136271	1.113000E+00	  0.088136271	2.325600E+01
342	  0.088336669	-3.160000E-01	  0.088336669	1.297870E+02	  0.088336669	1.111000E+00	  0.088336669	2.341900E+01
343	  0.088537075	-3.200000E-01	  0.088537075	1.294660E+02	  0.088537075	1.127000E+00	  0.088537075	2.358900E+01
344	  0.088737473	-3.200000E-01	  0.088737473	1.291190E+02	  0.088737473	1.131000E+00	  0.088737473	2.377400E+01
345	  0.088937871	-3.240000E-01	  0.088937871	1.287800E+02	  0.088937871	1.148000E+00	  0.088937871	2.395600E+01
346	  0.089138277	-3.220000E-01	  0.089138277	1.284030E+02	  0.089138277	1.143000E+00	  0.089138277	2.415800E+01
347	  0.089338675	-3.220000E-01	  0.089338675	1.280810E+02	  0.089338675	1.146000E+00	  0.089338675	2.433200E+01
348	  0.089539073	-3.200000E-01	  0.089539073	1.277240E+02	  0.089539073	1.142000E+00	  0.089539073	2.452500E+01
349	  0.089739479	-3.230000E-01	  0.089739479	1.273820E+02	  0.089739479	1.158000E+00	  0.089739479	2.471000E+01
350	  0.089939877	-3.230000E-01	  0.089939877	1.270510E+02	  0.089939877	1.161000E+00	  0.089939877	2.488900E+01
351	  0.090140276	-3.250000E-01	  0.090140276	1.267000E+02	  0.090140276	1.170000E+00	  0.090140276	2.508100E+01
352	  0.090340681	-3.240000E-01	  0.090340681	1.263360E+02	  0.090340681	1.174000E+00	  0.090340681	2.528000E+01
353	  0.090541080	-3.260000E-01	  0.090541080	1.260020E+02	  0.090541080	1.182000E+00	  0.090541080	2.546300E+01
354	  0.090741485	-3.270000E-01	  0.090741485	1.256570E+02	  0.090741485	1.191000E+00	  0.090741485	2.565300E+01
355	  0.090941884	-3.330000E-01	  0.090941884	1.253130E+02	  0.090941884	1.217000E+00	  0.090941884	2.584200E+01
356	  0.091142282	-3.360000E-01	  0.091142282	1.249460E+02	  0.091142282	1.233000E+00	  0.091142282	2.604500E+01
357	  0.091342688	-3.430000E-01	  0.091342688	1.245780E+02	  0.091342688	1.262000E+00	  0.091342688	2.624900E+01
358	  0.091543086	-3.460000E-01	  0.091543086	1.242000E+02	  0.091543086	1.276000E+00	  0.091543086	2.645900E+01
359	  0.091743484	-3.460000E-01	  0.091743484	1.238350E+02	  0.091743484	1.279000E+00	  0.091743484	2.666400E+01
360	  0.091943890	-3.470000E-01	  0.091943890	1.234510E+02	  0.091943890	1.290000E+00	  0.091943890	2.687900E+01
361	  0.092144288	-3.480000E-01	  0.092144288	1.230600E+02	  0.092144288	1.297000E+00	  0.092144288	2.709900E+01
362	  0.092344686	-3.460000E-01	  0.092344686	1.226820E+02	  0.092344686	1.295000E+00	  0.092344686	2.731300E+01
363	  0.092545092	-3.490000E-01	  0.092545092	1.223270E+02	  0.092545092	1.310000E+00	  0.092545092	2.751400E+01
364	  0.092745490	-3.460000E-01	  0.092745490	1.219690E+02	  0.092745490	1.303000E+00	  0.092745490	2.771800E+01
365	  0.092945889	-3.410000E-01	  0.092945889	1.215920E+02	  0.092945889	1.290000E+00	  0.092945889	2.793400E+01
366	  0.093146294	-3.390000E-01	  0.093146294	1.212610E+02	  0.093146294	1.285000E+00	  0.093146294	2.812400E+01
367	  0.093346693	-3.340000E-01	  0.093346693	1.209460E+02	  0.093346693	1.272000E+00	  0.093346693	2.830500E+01
368	  0.093547091	-3.350000E-01	  0.093547091	1.206160E+02	  0.093547091	1.279000E+00	  0.093547091	2.849600E+01
369	  0.093747497	-3.350000E-01	  0.093747497	1.203030E+02	  0.093747497	1.283000E+00	  0.093747497	2.867600E+01
370	  0.093947895	-3.350000E-01	  0.093947895	1.199900E+02	  0.093947895	1.287000E+00	  0.093947895	2.885800E+01
371	  0.094148301	-3.340000E-01	  0.094148301	1.196560E+02	  0.094148301	1.288000E+00	  0.094148301	2.905300E+01
372	  0.094348699	-3.320000E-01	  0.094348699	1.193440E+02	  0.094348699	1.285000E+00	  0.094348699	2.923500E+01
373	  0.094549097	-3.300000E-01	  0.094549097	1.190120E+02	  0.094549097	1.279000E+00	  0.094549097	2.943000E+01
374	  0.094749503	-3.330000E-01	  0.094749503	1.187150E+02	  0.094749503	1.295000E+00	  0.094749503	2.960400E+01
375	  0.094949901	-3.290000E-01	  0.094949901	1.183990E+02	  0.094949901	1.286000E+00	  0.094949901	2.979100E+01
376	  0.095150299	-3.250000E-01	  0.095150299	1.180820E+02	  0.095150299	1.272000E+00	  0.095150299	2.997900E+01
377	  0.095350705	-3.260000E-01	  0.095350705	1.177760E+02	  0.095350705	1.282000E+00	  0.095350705	3.016100E+01
378	  0.095551103	-3.260000E-01	  0.095551103	1.174590E+02	  0.095551103	1.285000E+00	  0.095551103	3.035000E+01
379	  0.095751502	-3.210000E-01	  0.095751502	1.171670E+02	  0.095751502	1.269000E+00	  0.095751502	3.052500E+01
380	  0.095951907	-3.220000E-01	  0.095951907	1.168450E+02	  0.095951907	1.279000E+00	  0.095951907	3.071800E+01
381	  0.096152306	-3.270000E-01	  0.096152306	1.165250E+02	  0.096152306	1.301000E+00	  0.096152306	3.091000E+01
382	  0.096352704	-3.300000E-01	  0.096352704	1.162270E+02	  0.096352704	1.317000E+00	  0.096352704	3.108900E+01
383	  0.096553110	-3.320000E-01	  0.096553110	1.159040E+02	  0.096553110	1.332000E+00	  0.096553110	3.128500E+01
384	  0.096753508	-3.350000E-01	  0.096753508	1.155630E+02	  0.096753508	1.349000E+00	  0.096753508	3.149200E+01
385	  0.096953906	-3.370000E-01	  0.096953906	1.152040E+02	  0.096953906	1.364000E+00	  0.096953906	3.171100E+01
386	  0.097154312	-3.380000E-01	  0.097154312	1.148470E+02	  0.097154312	1.371000E+00	  0.097154312	3.193000E+01
387	  0.097354710	-3.430000E-01	  0.097354710	1.144960E+02	  0.097354710	1.398000E+00	  0.097354710	3.214500E+01
388	  0.097555116	-3.440000E-01	  0.097555116	1.141170E+02	  0.097555116	1.408000E+00	  0.097555116	3.237900E+01
389	  0.097755514	-3.450000E-01	  0.097755514	1.137530E+02	  0.097755514	1.416000E+00	  0.097755514	3.260500E+01
390	  0.097955912	-3.430000E-01	  0.097955912	1.133880E+02	  0.097955912	1.416000E+00	  0.097955912	3.283200E+01
391	  0.098156318	-3.410000E-01	  0.098156318	1.130400E+02	  0.098156318	1.414000E+00	  0.098156318	3.305000E+01
392	  0.098356716	-3.420000E-01	  0.098356716	1.126670E+02	  0.098356716	1.424000E+00	  0.098356716	3.328400E+01
393	  0.098557115	-3.440000E-01	  0.098557115	1.123270E+02	  0.098557115	1.438000E+00	  0.098557115	3.349800E+01
394	  0.098757520	-3.460000E-01	  0.098757520	1.119660E+02	  0.098757520	1.451000E+00	  0.098757520	3.372700E+01
395	  0.098957919	-3.430000E-01	  0.098957919	1.116370E+02	  0.098957919	1.445000E+00	  0.098957919	3.393600E+01
396	  0.099158317	-3.410000E-01	  0.099158317	1.112650E+02	  0.099158317	1.442000E+00	  0.099158317	3.417400E+01
397	  0.099358723	-3.440000E-01	  0.099358723	1.109350E+02	  0.099358723	1.458000E+00	  0.099358723	3.438500E+01
398	  0.099559121	-3.400000E-01	  0.099559121	1.105930E+02	  0.099559121	1.450000E+00	  0.099559121	3.460600E+01
399	  0.099759519	-3.410000E-01	  0.099759519	1.102680E+02	  0.099759519	1.458000E+00	  0.099759519	3.481600E+01
400	  0.099959925	-3.440000E-01	  0.099959925	1.099310E+02	  0.099959925	1.479000E+00	  0.099959925	3.503400E+01
401	  0.100160323	-3.430000E-01	  0.100160323	1.096290E+02	  0.100160323	1.480000E+00	  0.100160323	3.523100E+01
402	  0.100360721	-3.390000E-01	  0.100360721	1.092870E+02	  0.100360721	1.470000E+00	  0.100360721	3.545500E+01
403	  0.100561127	-3.410000E-01	  0.100561127	1.089400E+02	  0.100561127	1.484000E+00	  0.100561127	3.568200E+01
404	  0.100761525	-3.320000E-01	  0.100761525	1.086110E+02	  0.100761525	1.450000E+00	  0.100761525	3.590000E+01
405	  0.100961931	-3.340000E-01	  0.100961931	1.083470E+02	  0.100961931	1.465000E+00	  0.100961931	3.607500E+01
406	  0.101162329	-3.370000E-01	  0.101162329	1.080400E+02	  0.101162329	1.485000E+00	  0.101162329	3.627900E+01
407	  0.101362728	-3.320000E-01	  0.101362728	1.077460E+02	  0.101362728	1.467000E+00	  0.101362728	3.647500E+01
408	  0.101563133	-3.360000E-01	  0.101563133	1.074200E+02	  0.101563133	1.491000E+00	  0.101563133	3.669300E+01
409	  0.101763532	-3.360000E-01	  0.101763532	1.071290E+02	  0.101763532	1.497000E+00	  0.101763532	3.688900E+01
410	  0.101963930	-3.390000E-01	  0.101963930	1.068590E+02	  0.101963930	1.516000E+00	  0.101963930	3.707000E+01
411	  0.102164336	-3.360000E-01	  0.102164336	1.064940E+02	  0.102164336	1.510000E+00	  0.102164336	3.731800E+01
412	  0.102364734	-3.390000E-01	  0.102364734	1.061760E+02	  0.102364734	1.528000E+00	  0.102364734	3.753400E+01
413	  0.102565132	-3.400000E-01	  0.102565132	1.058730E+02	  0.102565132	1.539000E+00	  0.102565132	3.774100E+01
414	  0.102765530	-3.390000E-01	  0.102765530	1.055610E+02	  0.102765530	1.541000E+00	  0.102765530	3.795500E+01
415	  0.102965929	-3.460000E-01	  0.102965929	1.051610E+02	  0.102965929	1.579000E+00	  0.102965929	3.823000E+01
416	  0.103166327	-3.430000E-01	  0.103166327	1.048900E+02	  0.103166327	1.571000E+00	  0.103166327	3.841800E+01
417	  0.103366733	-3.410000E-01	  0.103366733	1.045520E+02	  0.103366733	1.568000E+00	  0.103366733	3.865300E+01
418	  0.103567131	-3.400000E-01	  0.103567131	1.042200E+02	  0.103567131	1.571000E+00	  0.103567131	3.888500E+01
419	  0.103767529	-3.410000E-01	  0.103767529	1.038730E+02	  0.103767529	1.585000E+00	  0.103767529	3.912900E+01
420	  0.103967935	-3.440000E-01	  0.103967935	1.035530E+02	  0.103967935	1.604000E+00	  0.103967935	3.935300E+01
421	  0.104168333	-3.460000E-01	  0.104168333	1.032560E+02	  0.104168333	1.621000E+00	  0.104168333	3.956300E+01
422	  0.104368731	-3.430000E-01	  0.104368731	1.029120E+02	  0.104368731	1.614000E+00	  0.104368731	3.980800E+01
423	  0.104569137	-3.420000E-01	  0.104569137	1.025420E+02	  0.104569137	1.618000E+00	  0.104569137	4.007300E+01
424	  0.104769535	-3.420000E-01	  0.104769535	1.022450E+02	  0.104769535	1.626000E+00	  0.104769535	4.028600E+01
425	  0.104969934	-3.470000E-01	  0.104969934	1.019410E+02	  0.104969934	1.656000E+00	  0.104969934	4.050400E+01
426	  0.105170339	-3.490000E-01	  0.105170339	1.015780E+02	  0.105170339	1.673000E+00	  0.105170339	4.076600E+01
427	  0.105370738	-3.480000E-01	  0.105370738	1.013010E+02	  0.105370738	1.675000E+00	  0.105370738	4.096900E+01
428	  0.105571143	-3.510000E-01	  0.105571143	1.009470E+02	  0.105571143	1.702000E+00	  0.105571143	4.122700E+01
429	  0.105771542	-3.480000E-01	  0.105771542	1.006400E+02	  0.105771542	1.693000E+00	  0.105771542	4.145200E+01
430	  0.105971940	-3.390000E-01	  0.105971940	1.003250E+02	  0.105971940	1.656000E+00	  0.105971940	4.168600E+01
431	  0.106172346	-3.440000E-01	  0.106172346	1.000040E+02	  0.106172346	1.690000E+00	  0.106172346	4.192300E+01
432	  0.106372744	-3.450000E-01	  0.106372744	9.966500E+01	  0.106372744	1.701000E+00	  0.106372744	4.217500E+01
433	  0.106573142	-3.490000E-01	  0.106573142	9.934000E+01	  0.106573142	1.730000E+00	  0.106573142	4.241700E+01
434	  0.106773548	-3.500000E-01	  0.106773548	9.905200E+01	  0.106773548	1.740000E+00	  0.106773548	4.263400E+01
435	  0.106973946	-3.480000E-01	  0.106973946	9.872700E+01	  0.106973946	1.740000E+00	  0.106973946	4.287900E+01
436	  0.107174344	-3.450000E-01	  0.107174344	9.842800E+01	  0.107174344	1.735000E+00	  0.107174344	4.310700E+01
437	  0.107374750	-3.450000E-01	  0.107374750	9.809600E+01	  0.107374750	1.742000E+00	  0.107374750	4.336000E+01
438	  0.107575148	-3.420000E-01	  0.107575148	9.777600E+01	  0.107575148	1.735000E+00	  0.107575148	4.360500E+01
439	  0.107775547	-3.460000E-01	  0.107775547	9.749200E+01	  0.107775547	1.761000E+00	  0.107775547	4.382300E+01
440	  0.107975952	-3.440000E-01	  0.107975952	9.715300E+01	  0.107975952	1.761000E+00	  0.107975952	4.408600E+01
441	  0.108176351	-3.450000E-01	  0.108176351	9.686400E+01	  0.108176351	1.777000E+00	  0.108176351	4.431000E+01
442	  0.108376749	-3.490000E-01	  0.108376749	9.655200E+01	  0.108376749	1.807000E+00	  0.108376749	4.455200E+01
443	  0.108577155	-3.390000E-01	  0.108577155	9.622800E+01	  0.108577155	1.762000E+00	  0.108577155	4.480900E+01
444	  0.108777553	-3.420000E-01	  0.108777553	9.589500E+01	  0.108777553	1.787000E+00	  0.108777553	4.507000E+01
445	  0.108977959	-3.410000E-01	  0.108977959	9.559700E+01	  0.108977959	1.788000E+00	  0.108977959	4.530700E+01
446	  0.109178357	-3.420000E-01	  0.109178357	9.525100E+01	  0.109178357	1.803000E+00	  0.109178357	4.558200E+01
447	  0.109378755	-3.410000E-01	  0.109378755	9.493900E+01	  0.109378755	1.811000E+00	  0.109378755	4.583200E+01
448	  0.109579161	-3.420000E-01	  0.109579161	9.464100E+01	  0.109579161	1.823000E+00	  0.109579161	4.607100E+01
449	  0.109779559	-3.380000E-01	  0.109779559	9.428100E+01	  0.109779559	1.813000E+00	  0.109779559	4.636300E+01
450	  0.109979957	-3.420000E-01	  0.109979957	9.400700E+01	  0.109979957	1.843000E+00	  0.109979957	4.658500E+01
451	  0.110180363	-3.450000E-01	  0.110180363	9.366800E+01	  0.110180363	1.866000E+00	  0.110180363	4.686100E+01
452	  0.110380761	-3.410000E-01	  0.110380761	9.336100E+01	  0.110380761	1.854000E+00	  0.110380761	4.711500E+01
453	  0.110581160	-3.430000E-01	  0.110581160	9.303700E+01	  0.110581160	1.875000E+00	  0.110581160	4.738200E+01
454	  0.110781565	-3.490000E-01	  0.110781565	9.274400E+01	  0.110781565	1.920000E+00	  0.110781565	4.762300E+01
455	  0.110981964	-3.440000E-01	  0.110981964	9.238700E+01	  0.110981964	1.900000E+00	  0.110981964	4.792200E+01
456	  0.111182362	-3.410000E-01	  0.111182362	9.210000E+01	  0.111182362	1.896000E+00	  0.111182362	4.816400E+01
457	  0.111382768	-3.450000E-01	  0.111382768	9.175200E+01	  0.111382768	1.927000E+00	  0.111382768	4.845600E+01
458	  0.111583166	-3.430000E-01	  0.111583166	9.146700E+01	  0.111583166	1.927000E+00	  0.111583166	4.869700E+01
459	  0.111783572	-3.440000E-01	  0.111783572	9.114000E+01	  0.111783572	1.941000E+00	  0.111783572	4.897600E+01
460	  0.111983970	-3.480000E-01	  0.111983970	9.082800E+01	  0.111983970	1.978000E+00	  0.111983970	4.924300E+01
461	  0.112184368	-3.480000E-01	  0.112184368	9.057500E+01	  0.112184368	1.987000E+00	  0.112184368	4.946000E+01
462	  0.112384774	-3.450000E-01	  0.112384774	9.025500E+01	  0.112384774	1.978000E+00	  0.112384774	4.973800E+01
463	  0.112585172	-3.430000E-01	  0.112585172	8.996400E+01	  0.112585172	1.979000E+00	  0.112585172	4.999200E+01
464	  0.112785570	-3.410000E-01	  0.112785570	8.964700E+01	  0.112785570	1.978000E+00	  0.112785570	5.026900E+01
465	  0.112985976	-3.490000E-01	  0.112985976	8.934300E+01	  0.112985976	2.034000E+00	  0.112985976	5.053400E+01
466	  0.113186374	-3.410000E-01	  0.113186374	8.903600E+01	  0.113186374	1.996000E+00	  0.113186374	5.080800E+01
467	  0.113386773	-3.440000E-01	  0.113386773	8.872800E+01	  0.113386773	2.027000E+00	  0.113386773	5.108000E+01
468	  0.113587178	-3.380000E-01	  0.113587178	8.842500E+01	  0.113587178	2.001000E+00	  0.113587178	5.135200E+01
469	  0.113787577	-3.410000E-01	  0.113787577	8.811600E+01	  0.113787577	2.030000E+00	  0.113787577	5.162900E+01
470	  0.113987975	-3.380000E-01	  0.113987975	8.784300E+01	  0.113987975	2.023000E+00	  0.113987975	5.187700E+01
471	  0.114188381	-3.420000E-01	  0.114188381	8.754600E+01	  0.114188381	2.056000E+00	  0.114188381	5.214600E+01
472	  0.114388779	-3.440000E-01	  0.114388779	8.722200E+01	  0.114388779	2.081000E+00	  0.114388779	5.244100E+01
473	  0.114589177	-3.400000E-01	  0.114589177	8.692000E+01	  0.114589177	2.067000E+00	  0.114589177	5.271900E+01
474	  0.114789583	-3.420000E-01	  0.114789583	8.662000E+01	  0.114789583	2.094000E+00	  0.114789583	5.299500E+01
475	  0.114989981	-3.410000E-01	  0.114989981	8.630200E+01	  0.114989981	2.099000E+00	  0.114989981	5.329100E+01
476	  0.115190387	-3.390000E-01	  0.115190387	8.601500E+01	  0.115190387	2.097000E+00	  0.115190387	5.355900E+01
477	  0.115390785	-3.390000E-01	  0.115390785	8.571500E+01	  0.115390785	2.108000E+00	  0.115390785	5.384200E+01
478	  0.115591183	-3.440000E-01	  0.115591183	8.539600E+01	  0.115591183	2.154000E+00	  0.115591183	5.414100E+01
479	  0.115791589	-3.440000E-01	  0.115791589	8.506900E+01	  0.115791589	2.166000E+00	  0.115791589	5.445200E+01
480	  0.115991987	-3.430000E-01	  0.115991987	8.476700E+01	  0.115991987	2.172000E+00	  0.115991987	5.474100E+01
481	  0.116192386	-3.420000E-01	  0.116192386	8.446200E+01	  0.116192386	2.182000E+00	  0.116192386	5.503400E+01
482	  0.116392791	-3.430000E-01	  0.116392791	8.412400E+01	  0.116392791	2.201000E+00	  0.116392791	5.536100E+01
483	  0.116593190	-3.400000E-01	  0.116593190	8.382900E+01	  0.116593190	2.193000E+00	  0.116593190	5.564900E+01
484	  0.116793588	-3.440000E-01	  0.116793588	8.351400E+01	  0.116793588	2.236000E+00	  0.116793588	5.595600E+01
485	  0.116993994	-3.450000E-01	  0.116993994	8.320900E+01	  0.116993994	2.255000E+00	  0.116993994	5.625600E+01
486	  0.117194392	-3.420000E-01	  0.117194392	8.288700E+01	  0.117194392	2.249000E+00	  0.117194392	5.657600E+01
487	  0.117394790	-3.430000E-01	  0.117394790	8.257000E+01	  0.117394790	2.270000E+00	  0.117394790	5.689200E+01
488	  0.117595196	-3.420000E-01	  0.117595196	8.229900E+01	  0.117595196	2.276000E+00	  0.117595196	5.716400E+01
489	  0.117795594	-3.370000E-01	  0.117795594	8.199700E+01	  0.117795594	2.253000E+00	  0.117795594	5.747000E+01
490	  0.117995992	-3.410000E-01	  0.117995992	8.165700E+01	  0.117995992	2.298000E+00	  0.117995992	5.781400E+01
491	  0.118196398	-3.380000E-01	  0.118196398	8.136900E+01	  0.118196398	2.288000E+00	  0.118196398	5.810900E+01
492	  0.118396796	-3.430000E-01	  0.118396796	8.109500E+01	  0.118396796	2.340000E+00	  0.118396796	5.838900E+01
493	  0.118597202	-3.430000E-01	  0.118597202	8.078900E+01	  0.118597202	2.349000E+00	  0.118597202	5.870500E+01
494	  0.118797600	-3.420000E-01	  0.118797600	8.049700E+01	  0.118797600	2.361000E+00	  0.118797600	5.900900E+01
495	  0.118997999	-3.400000E-01	  0.118997999	8.020600E+01	  0.118997999	2.363000E+00	  0.118997999	5.931500E+01
496	  0.119198404	-3.390000E-01	  0.119198404	7.987300E+01	  0.119198404	2.371000E+00	  0.119198404	5.966600E+01
497	  0.119398803	-3.420000E-01	  0.119398803	7.961400E+01	  0.119398803	2.404000E+00	  0.119398803	5.993900E+01
498	  0.119599201	-3.430000E-01	  0.119599201	7.930500E+01	  0.119599201	2.424000E+00	  0.119599201	6.026800E+01
499	  0.119799607	-3.420000E-01	  0.119799607	7.902800E+01	  0.119799607	2.433000E+00	  0.119799607	6.056500E+01
500	  0.120000005	-3.370000E-01	  0.120000005	7.868800E+01	  0.120000005	2.417000E+00	  0.120000005	6.093400E+01
