! Anritsu VNA Master:             	Model: MS2036C/10/77
! SN:             	1601066
! /card0/usr/18may27.balun/252b.66.2.txt
! Existing Calibration Information:
! TYPE:             	Current Settings	Active Cal Settings
! TIME:             	05/27/2018 12:30:42 PM	05/27/2018 12:21:44 PM
! INTERNAL TEMP:    	53.8 C	53.3 C
! # POINTS:         	500	500
! START FREQ:       	20.000 MHz	20.000 MHz
! STOP FREQ:        	120.000 MHz	120.000 MHz
! SOURCE POWER:     	High	High
! IFBW:             	50 Hz	50 Hz
! AVG FACTOR:       	  1 	  1 
! REF PLANE 1:      	0 mm	0 mm
! REF PLANE 2:      	0 mm	0 mm
! CAL TYPE:         	Full S11	Full S11
! CAL METHOD:       	SOLT	SOLT
! CAL LINE TYPE:    	Coax	Coax
! DUT PORT 1:       	K-Conn(M)	K-Conn(M)
! DUT PORT 2:       	K-Conn(M)	K-Conn(M)
! CAL STATUS:       	OK: Accuracy High	--
! PROP-V:       	0.700
! CABLE LOSS:       	0.000 dB/m
! REF IMPEDANCE:       	50.0
! Trace Specific Parameters:	TR1	TR2	TR3	TR4
! TRACE.#.Y (GRAPH TYPE)	LOG MAG	PHASE	REAL IMPEDANCE	IMAGINARY IMPEDANCE
! TRACE.#.X 	FREQ.GHZ	FREQ.GHZ	FREQ.GHZ	FREQ.GHZ
! S-PARAMETER	S11	S11	S11	S11
! SMOOTH/APERTURE %	0	0	0	0
! WINDOW	NSL	NSL	NSL	NSL
! GATING	OFF	OFF	OFF	OFF
! FGTD	OFF	OFF	OFF	OFF
Marker Information per Trace:	TR1	TR2	TR3	TR4
!MK1	--	--	--	"MK1 TR4:  70.100 200 MHz,Z:(0.797 ohm, 8.118 ohm)"
!MK2	--	--	--	--
!MK3	--	--	--	--
!MK4	--	--	--	--
!MK5	--	--	--	--
!MK6	--	--	--	--
!MK7	--	--	--	--
!MK8	--	--	--	--
PNT	TR1.FREQ.GHZ	TR1.LOG MAG.dB	TR2.FREQ.GHZ	TR2.PHASE.deg	TR3.FREQ.GHZ	TR3.REAL IMPEDANCE.ohm	TR4.FREQ.GHZ	TR4.IMAGINARY IMPEDANCE.ohm
1	  0.020000000	-3.700000E-02	  0.020000000	-6.867300E+01	  0.020000000	3.430000E-01	  0.020000000	-7.319500E+01
2	  0.020200402	-3.500000E-02	  0.020200402	-6.933900E+01	  0.020200402	3.190000E-01	  0.020200402	-7.228900E+01
3	  0.020400802	-3.100000E-02	  0.020400802	-7.001800E+01	  0.020400802	2.740000E-01	  0.020400802	-7.138100E+01
4	  0.020601204	-2.900000E-02	  0.020601204	-7.067000E+01	  0.020601204	2.530000E-01	  0.020601204	-7.052500E+01
5	  0.020801604	-2.500000E-02	  0.020801604	-7.133400E+01	  0.020801604	2.140000E-01	  0.020801604	-6.966600E+01
6	  0.021002004	-2.700000E-02	  0.021002004	-7.200600E+01	  0.021002004	2.280000E-01	  0.021002004	-6.881000E+01
7	  0.021202406	-2.900000E-02	  0.021202406	-7.265500E+01	  0.021202406	2.430000E-01	  0.021202406	-6.799600E+01
8	  0.021402806	-2.900000E-02	  0.021402806	-7.328400E+01	  0.021402806	2.340000E-01	  0.021402806	-6.722100E+01
9	  0.021603208	-3.400000E-02	  0.021603208	-7.392600E+01	  0.021603208	2.740000E-01	  0.021603208	-6.644000E+01
10	  0.021803608	-3.700000E-02	  0.021803608	-7.452400E+01	  0.021803608	2.950000E-01	  0.021803608	-6.572300E+01
11	  0.022004008	-3.700000E-02	  0.022004008	-7.513400E+01	  0.022004008	2.910000E-01	  0.022004008	-6.500100E+01
12	  0.022204408	-4.000000E-02	  0.022204408	-7.576600E+01	  0.022204408	3.050000E-01	  0.022204408	-6.426500E+01
13	  0.022404809	-4.400000E-02	  0.022404809	-7.638500E+01	  0.022404809	3.320000E-01	  0.022404809	-6.355400E+01
14	  0.022605211	-4.300000E-02	  0.022605211	-7.699400E+01	  0.022605211	3.230000E-01	  0.022605211	-6.286300E+01
15	  0.022805611	-3.700000E-02	  0.022805611	-7.762800E+01	  0.022805611	2.720000E-01	  0.022805611	-6.215500E+01
16	  0.023006011	-2.800000E-02	  0.023006011	-7.827400E+01	  0.023006011	2.050000E-01	  0.023006011	-6.144200E+01
17	  0.023206413	-2.200000E-02	  0.023206413	-7.889400E+01	  0.023206413	1.630000E-01	  0.023206413	-6.076700E+01
18	  0.023406813	-1.900000E-02	  0.023406813	-7.951100E+01	  0.023406813	1.390000E-01	  0.023406813	-6.010600E+01
19	  0.023607215	-2.000000E-02	  0.023607215	-8.013600E+01	  0.023607215	1.390000E-01	  0.023607215	-5.944300E+01
20	  0.023807615	-2.200000E-02	  0.023807615	-8.073500E+01	  0.023807615	1.560000E-01	  0.023807615	-5.881600E+01
21	  0.024008015	-2.800000E-02	  0.024008015	-8.132500E+01	  0.024008015	1.910000E-01	  0.024008015	-5.820600E+01
22	  0.024208417	-3.500000E-02	  0.024208417	-8.189100E+01	  0.024208417	2.360000E-01	  0.024208417	-5.762800E+01
23	  0.024408817	-4.300000E-02	  0.024408817	-8.250500E+01	  0.024408817	2.900000E-01	  0.024408817	-5.700800E+01
24	  0.024609219	-4.700000E-02	  0.024609219	-8.311500E+01	  0.024609219	3.120000E-01	  0.024609219	-5.639800E+01
25	  0.024809619	-5.300000E-02	  0.024809619	-8.376300E+01	  0.024809619	3.470000E-01	  0.024809619	-5.576000E+01
26	  0.025010020	-5.400000E-02	  0.025010020	-8.444500E+01	  0.025010020	3.500000E-01	  0.025010020	-5.509700E+01
27	  0.025210422	-5.900000E-02	  0.025210422	-8.511600E+01	  0.025210422	3.740000E-01	  0.025210422	-5.445200E+01
28	  0.025410822	-6.100000E-02	  0.025410822	-8.581300E+01	  0.025410822	3.840000E-01	  0.025410822	-5.379100E+01
29	  0.025611224	-5.900000E-02	  0.025611224	-8.650300E+01	  0.025611224	3.660000E-01	  0.025611224	-5.314700E+01
30	  0.025811624	-5.300000E-02	  0.025811624	-8.717000E+01	  0.025811624	3.230000E-01	  0.025811624	-5.253100E+01
31	  0.026012026	-4.700000E-02	  0.026012026	-8.779800E+01	  0.026012026	2.860000E-01	  0.026012026	-5.195700E+01
32	  0.026212426	-4.500000E-02	  0.026212426	-8.840800E+01	  0.026212426	2.670000E-01	  0.026212426	-5.140700E+01
33	  0.026412826	-4.400000E-02	  0.026412826	-8.901900E+01	  0.026412826	2.580000E-01	  0.026412826	-5.086200E+01
34	  0.026613226	-4.700000E-02	  0.026613226	-8.958500E+01	  0.026613226	2.760000E-01	  0.026613226	-5.036200E+01
35	  0.026813626	-5.200000E-02	  0.026813626	-9.017300E+01	  0.026813626	2.980000E-01	  0.026813626	-4.984700E+01
36	  0.027014028	-5.800000E-02	  0.027014028	-9.071000E+01	  0.027014028	3.300000E-01	  0.027014028	-4.938200E+01
37	  0.027214428	-6.800000E-02	  0.027214428	-9.126100E+01	  0.027214428	3.880000E-01	  0.027214428	-4.890900E+01
38	  0.027414829	-7.800000E-02	  0.027414829	-9.186400E+01	  0.027414829	4.370000E-01	  0.027414829	-4.839600E+01
39	  0.027615231	-8.400000E-02	  0.027615231	-9.250400E+01	  0.027615231	4.650000E-01	  0.027615231	-4.785800E+01
40	  0.027815631	-8.300000E-02	  0.027815631	-9.314600E+01	  0.027815631	4.570000E-01	  0.027815631	-4.732400E+01
41	  0.028016033	-8.100000E-02	  0.028016033	-9.380700E+01	  0.028016033	4.400000E-01	  0.028016033	-4.678100E+01
42	  0.028216433	-7.100000E-02	  0.028216433	-9.446500E+01	  0.028216433	3.810000E-01	  0.028216433	-4.624600E+01
43	  0.028416833	-6.400000E-02	  0.028416833	-9.512500E+01	  0.028416833	3.420000E-01	  0.028416833	-4.571400E+01
44	  0.028617235	-5.800000E-02	  0.028617235	-9.575500E+01	  0.028617235	3.030000E-01	  0.028617235	-4.521200E+01
45	  0.028817635	-5.200000E-02	  0.028817635	-9.636100E+01	  0.028817635	2.700000E-01	  0.028817635	-4.473400E+01
46	  0.029018037	-4.500000E-02	  0.029018037	-9.690900E+01	  0.029018037	2.350000E-01	  0.029018037	-4.430500E+01
47	  0.029218437	-4.100000E-02	  0.029218437	-9.745300E+01	  0.029218437	2.120000E-01	  0.029218437	-4.388400E+01
48	  0.029418837	-3.800000E-02	  0.029418837	-9.799700E+01	  0.029418837	1.950000E-01	  0.029418837	-4.346500E+01
49	  0.029619239	-3.900000E-02	  0.029619239	-9.851800E+01	  0.029619239	1.960000E-01	  0.029619239	-4.306800E+01
50	  0.029819639	-4.300000E-02	  0.029819639	-9.905700E+01	  0.029819639	2.160000E-01	  0.029819639	-4.266000E+01
51	  0.030020041	-5.000000E-02	  0.030020041	-9.964500E+01	  0.030020041	2.460000E-01	  0.030020041	-4.221800E+01
52	  0.030220442	-6.200000E-02	  0.030220442	-1.002630E+02	  0.030220442	3.030000E-01	  0.030220442	-4.175800E+01
53	  0.030420844	-7.300000E-02	  0.030420844	-1.009050E+02	  0.030420844	3.560000E-01	  0.030420844	-4.128400E+01
54	  0.030621244	-7.900000E-02	  0.030621244	-1.015770E+02	  0.030621244	3.820000E-01	  0.030621244	-4.079300E+01
55	  0.030821644	-8.100000E-02	  0.030821644	-1.022600E+02	  0.030821644	3.860000E-01	  0.030821644	-4.029900E+01
56	  0.031022044	-7.800000E-02	  0.031022044	-1.029130E+02	  0.031022044	3.680000E-01	  0.031022044	-3.983200E+01
57	  0.031222444	-7.300000E-02	  0.031222444	-1.035560E+02	  0.031222444	3.430000E-01	  0.031222444	-3.937600E+01
58	  0.031422846	-7.000000E-02	  0.031422846	-1.041480E+02	  0.031422846	3.240000E-01	  0.031422846	-3.895800E+01
59	  0.031623244	-6.900000E-02	  0.031623244	-1.047160E+02	  0.031623244	3.180000E-01	  0.031623244	-3.856200E+01
60	  0.031823646	-6.400000E-02	  0.031823646	-1.052550E+02	  0.031823646	2.950000E-01	  0.031823646	-3.818800E+01
61	  0.032024048	-6.500000E-02	  0.032024048	-1.057650E+02	  0.032024048	2.960000E-01	  0.032024048	-3.783700E+01
62	  0.032224450	-7.200000E-02	  0.032224450	-1.062550E+02	  0.032224450	3.280000E-01	  0.032224450	-3.750200E+01
63	  0.032424849	-8.000000E-02	  0.032424849	-1.067620E+02	  0.032424849	3.600000E-01	  0.032424849	-3.715700E+01
64	  0.032625251	-9.000000E-02	  0.032625251	-1.073190E+02	  0.032625251	4.020000E-01	  0.032625251	-3.678100E+01
65	  0.032825653	-1.010000E-01	  0.032825653	-1.078780E+02	  0.032825653	4.460000E-01	  0.032825653	-3.640600E+01
66	  0.033026051	-1.060000E-01	  0.033026051	-1.084710E+02	  0.033026051	4.660000E-01	  0.033026051	-3.601100E+01
67	  0.033226453	-1.080000E-01	  0.033226453	-1.090680E+02	  0.033226453	4.690000E-01	  0.033226453	-3.561700E+01
68	  0.033426855	-1.110000E-01	  0.033426855	-1.096920E+02	  0.033426855	4.780000E-01	  0.033426855	-3.520800E+01
69	  0.033627257	-1.150000E-01	  0.033627257	-1.103120E+02	  0.033627257	4.920000E-01	  0.033627257	-3.480500E+01
70	  0.033827655	-1.150000E-01	  0.033827655	-1.109360E+02	  0.033827655	4.890000E-01	  0.033827655	-3.440200E+01
71	  0.034028057	-1.110000E-01	  0.034028057	-1.115820E+02	  0.034028057	4.680000E-01	  0.034028057	-3.398900E+01
72	  0.034228459	-1.080000E-01	  0.034228459	-1.121640E+02	  0.034228459	4.530000E-01	  0.034228459	-3.361900E+01
73	  0.034428857	-1.000000E-01	  0.034428857	-1.127790E+02	  0.034428857	4.170000E-01	  0.034428857	-3.323100E+01
74	  0.034629259	-9.000000E-02	  0.034629259	-1.133420E+02	  0.034629259	3.730000E-01	  0.034629259	-3.287800E+01
75	  0.034829661	-8.700000E-02	  0.034829661	-1.138880E+02	  0.034829661	3.580000E-01	  0.034829661	-3.253800E+01
76	  0.035030060	-8.200000E-02	  0.035030060	-1.144000E+02	  0.035030060	3.370000E-01	  0.035030060	-3.222100E+01
77	  0.035230462	-8.100000E-02	  0.035230462	-1.149420E+02	  0.035230462	3.290000E-01	  0.035230462	-3.188700E+01
78	  0.035430863	-8.500000E-02	  0.035430863	-1.154950E+02	  0.035430863	3.430000E-01	  0.035430863	-3.154900E+01
79	  0.035631265	-9.200000E-02	  0.035631265	-1.160450E+02	  0.035631265	3.710000E-01	  0.035631265	-3.121400E+01
80	  0.035831664	-9.900000E-02	  0.035831664	-1.166120E+02	  0.035831664	3.950000E-01	  0.035831664	-3.087100E+01
81	  0.036032066	-1.090000E-01	  0.036032066	-1.172280E+02	  0.036032066	4.320000E-01	  0.036032066	-3.050100E+01
82	  0.036232468	-1.180000E-01	  0.036232468	-1.178700E+02	  0.036232468	4.630000E-01	  0.036232468	-3.011700E+01
83	  0.036432866	-1.200000E-01	  0.036432866	-1.185080E+02	  0.036432866	4.680000E-01	  0.036432866	-2.973900E+01
84	  0.036633268	-1.200000E-01	  0.036633268	-1.191370E+02	  0.036633268	4.650000E-01	  0.036633268	-2.936900E+01
85	  0.036833670	-1.150000E-01	  0.036833670	-1.197540E+02	  0.036833670	4.440000E-01	  0.036833670	-2.900800E+01
86	  0.037034072	-1.030000E-01	  0.037034072	-1.203190E+02	  0.037034072	3.970000E-01	  0.037034072	-2.868000E+01
87	  0.037234470	-9.000000E-02	  0.037234470	-1.208130E+02	  0.037234470	3.460000E-01	  0.037234470	-2.839500E+01
88	  0.037434869	-8.600000E-02	  0.037434869	-1.212680E+02	  0.037434869	3.260000E-01	  0.037434869	-2.813300E+01
89	  0.037635271	-8.400000E-02	  0.037635271	-1.217270E+02	  0.037635271	3.200000E-01	  0.037635271	-2.787000E+01
90	  0.037835669	-9.000000E-02	  0.037835669	-1.221980E+02	  0.037835669	3.410000E-01	  0.037835669	-2.760100E+01
91	  0.038036071	-9.900000E-02	  0.038036071	-1.227120E+02	  0.038036071	3.730000E-01	  0.038036071	-2.730900E+01
92	  0.038236473	-1.060000E-01	  0.038236473	-1.232430E+02	  0.038236473	3.960000E-01	  0.038236473	-2.700800E+01
93	  0.038436871	-1.120000E-01	  0.038436871	-1.237910E+02	  0.038436871	4.170000E-01	  0.038436871	-2.670000E+01
94	  0.038637273	-1.170000E-01	  0.038637273	-1.243120E+02	  0.038637273	4.320000E-01	  0.038637273	-2.640900E+01
95	  0.038837675	-1.260000E-01	  0.038837675	-1.248760E+02	  0.038837675	4.620000E-01	  0.038837675	-2.609500E+01
96	  0.039038073	-1.350000E-01	  0.039038073	-1.254490E+02	  0.039038073	4.920000E-01	  0.039038073	-2.577700E+01
97	  0.039238475	-1.390000E-01	  0.039238475	-1.260450E+02	  0.039238475	5.060000E-01	  0.039238475	-2.544900E+01
98	  0.039438877	-1.430000E-01	  0.039438877	-1.266370E+02	  0.039438877	5.150000E-01	  0.039438877	-2.512400E+01
99	  0.039639279	-1.390000E-01	  0.039639279	-1.272040E+02	  0.039639279	5.020000E-01	  0.039639279	-2.481500E+01
100	  0.039839678	-1.340000E-01	  0.039839678	-1.277690E+02	  0.039839678	4.800000E-01	  0.039839678	-2.450900E+01
101	  0.040040080	-1.280000E-01	  0.040040080	-1.283140E+02	  0.040040080	4.580000E-01	  0.040040080	-2.421500E+01
102	  0.040240481	-1.260000E-01	  0.040240481	-1.288460E+02	  0.040240481	4.490000E-01	  0.040240481	-2.392900E+01
103	  0.040440880	-1.210000E-01	  0.040440880	-1.294110E+02	  0.040440880	4.290000E-01	  0.040440880	-2.362700E+01
104	  0.040641282	-1.210000E-01	  0.040641282	-1.299630E+02	  0.040641282	4.260000E-01	  0.040641282	-2.333300E+01
105	  0.040841684	-1.210000E-01	  0.040841684	-1.304910E+02	  0.040841684	4.250000E-01	  0.040841684	-2.305300E+01
106	  0.041042086	-1.240000E-01	  0.041042086	-1.310060E+02	  0.041042086	4.310000E-01	  0.041042086	-2.278100E+01
107	  0.041242484	-1.310000E-01	  0.041242484	-1.315130E+02	  0.041242484	4.530000E-01	  0.041242484	-2.251400E+01
108	  0.041442886	-1.410000E-01	  0.041442886	-1.320600E+02	  0.041442886	4.870000E-01	  0.041442886	-2.222700E+01
109	  0.041643288	-1.520000E-01	  0.041643288	-1.326380E+02	  0.041643288	5.210000E-01	  0.041643288	-2.192600E+01
110	  0.041843686	-1.550000E-01	  0.041843686	-1.332310E+02	  0.041843686	5.300000E-01	  0.041843686	-2.161800E+01
111	  0.042044088	-1.510000E-01	  0.042044088	-1.338140E+02	  0.042044088	5.150000E-01	  0.042044088	-2.131700E+01
112	  0.042244490	-1.370000E-01	  0.042244490	-1.343670E+02	  0.042244490	4.650000E-01	  0.042244490	-2.103300E+01
113	  0.042444889	-1.260000E-01	  0.042444889	-1.348670E+02	  0.042444889	4.260000E-01	  0.042444889	-2.077600E+01
114	  0.042645290	-1.200000E-01	  0.042645290	-1.353140E+02	  0.042645290	4.030000E-01	  0.042645290	-2.054800E+01
115	  0.042845692	-1.190000E-01	  0.042845692	-1.357760E+02	  0.042845692	3.990000E-01	  0.042845692	-2.031300E+01
116	  0.043046094	-1.180000E-01	  0.043046094	-1.362570E+02	  0.043046094	3.970000E-01	  0.043046094	-2.006900E+01
117	  0.043246493	-1.240000E-01	  0.043246493	-1.367170E+02	  0.043246493	4.130000E-01	  0.043246493	-1.983600E+01
118	  0.043446895	-1.290000E-01	  0.043446895	-1.372190E+02	  0.043446895	4.290000E-01	  0.043446895	-1.958300E+01
119	  0.043647297	-1.330000E-01	  0.043647297	-1.377010E+02	  0.043647297	4.400000E-01	  0.043647297	-1.934100E+01
120	  0.043847695	-1.400000E-01	  0.043847695	-1.381850E+02	  0.043847695	4.630000E-01	  0.043847695	-1.909800E+01
121	  0.044048097	-1.480000E-01	  0.044048097	-1.386940E+02	  0.044048097	4.870000E-01	  0.044048097	-1.884400E+01
122	  0.044248499	-1.560000E-01	  0.044248499	-1.392210E+02	  0.044248499	5.140000E-01	  0.044248499	-1.858200E+01
123	  0.044448901	-1.610000E-01	  0.044448901	-1.397680E+02	  0.044448901	5.270000E-01	  0.044448901	-1.831100E+01
124	  0.044649299	-1.640000E-01	  0.044649299	-1.403170E+02	  0.044649299	5.360000E-01	  0.044649299	-1.803900E+01
125	  0.044849701	-1.650000E-01	  0.044849701	-1.408620E+02	  0.044849701	5.370000E-01	  0.044849701	-1.777100E+01
126	  0.045050103	-1.670000E-01	  0.045050103	-1.413890E+02	  0.045050103	5.390000E-01	  0.045050103	-1.751300E+01
127	  0.045250501	-1.680000E-01	  0.045250501	-1.419360E+02	  0.045250501	5.410000E-01	  0.045250501	-1.724500E+01
128	  0.045450903	-1.670000E-01	  0.045450903	-1.424880E+02	  0.045450903	5.380000E-01	  0.045450903	-1.697600E+01
129	  0.045651305	-1.670000E-01	  0.045651305	-1.430620E+02	  0.045651305	5.340000E-01	  0.045651305	-1.669700E+01
130	  0.045851704	-1.640000E-01	  0.045851704	-1.436000E+02	  0.045851704	5.230000E-01	  0.045851704	-1.643700E+01
131	  0.046052106	-1.630000E-01	  0.046052106	-1.441540E+02	  0.046052106	5.200000E-01	  0.046052106	-1.616900E+01
132	  0.046252504	-1.630000E-01	  0.046252504	-1.446610E+02	  0.046252504	5.170000E-01	  0.046252504	-1.592600E+01
133	  0.046452906	-1.680000E-01	  0.046452906	-1.451370E+02	  0.046452906	5.310000E-01	  0.046452906	-1.569700E+01
134	  0.046653304	-1.740000E-01	  0.046653304	-1.456420E+02	  0.046653304	5.510000E-01	  0.046653304	-1.545500E+01
135	  0.046853706	-1.810000E-01	  0.046853706	-1.461550E+02	  0.046853706	5.700000E-01	  0.046853706	-1.521000E+01
136	  0.047054108	-1.830000E-01	  0.047054108	-1.467040E+02	  0.047054108	5.740000E-01	  0.047054108	-1.494900E+01
137	  0.047254506	-1.800000E-01	  0.047254506	-1.472520E+02	  0.047254506	5.650000E-01	  0.047254506	-1.468900E+01
138	  0.047454908	-1.690000E-01	  0.047454908	-1.477540E+02	  0.047454908	5.280000E-01	  0.047454908	-1.445100E+01
139	  0.047655310	-1.600000E-01	  0.047655310	-1.482400E+02	  0.047655310	4.980000E-01	  0.047655310	-1.422200E+01
140	  0.047855709	-1.550000E-01	  0.047855709	-1.486820E+02	  0.047855709	4.830000E-01	  0.047855709	-1.401400E+01
141	  0.048056111	-1.510000E-01	  0.048056111	-1.491190E+02	  0.048056111	4.680000E-01	  0.048056111	-1.380800E+01
142	  0.048256513	-1.510000E-01	  0.048256513	-1.495750E+02	  0.048256513	4.670000E-01	  0.048256513	-1.359500E+01
143	  0.048456915	-1.480000E-01	  0.048456915	-1.500140E+02	  0.048456915	4.580000E-01	  0.048456915	-1.338900E+01
144	  0.048657313	-1.490000E-01	  0.048657313	-1.504490E+02	  0.048657313	4.600000E-01	  0.048657313	-1.318600E+01
145	  0.048857715	-1.530000E-01	  0.048857715	-1.508690E+02	  0.048857715	4.700000E-01	  0.048857715	-1.299000E+01
146	  0.049058117	-1.590000E-01	  0.049058117	-1.513160E+02	  0.049058117	4.870000E-01	  0.049058117	-1.278200E+01
147	  0.049258515	-1.640000E-01	  0.049258515	-1.517950E+02	  0.049258515	5.020000E-01	  0.049258515	-1.256000E+01
148	  0.049458917	-1.700000E-01	  0.049458917	-1.522790E+02	  0.049458917	5.210000E-01	  0.049458917	-1.233500E+01
149	  0.049659319	-1.730000E-01	  0.049659319	-1.527650E+02	  0.049659319	5.270000E-01	  0.049659319	-1.211100E+01
150	  0.049859721	-1.740000E-01	  0.049859721	-1.532580E+02	  0.049859721	5.300000E-01	  0.049859721	-1.188300E+01
151	  0.050060119	-1.770000E-01	  0.050060119	-1.537380E+02	  0.050060119	5.380000E-01	  0.050060119	-1.166200E+01
152	  0.050260521	-1.800000E-01	  0.050260521	-1.542120E+02	  0.050260521	5.470000E-01	  0.050260521	-1.144400E+01
153	  0.050460923	-1.840000E-01	  0.050460923	-1.547230E+02	  0.050460923	5.580000E-01	  0.050460923	-1.121000E+01
154	  0.050661322	-1.870000E-01	  0.050661322	-1.552370E+02	  0.050661322	5.650000E-01	  0.050661322	-1.097400E+01
155	  0.050861724	-1.890000E-01	  0.050861724	-1.557840E+02	  0.050861724	5.690000E-01	  0.050861724	-1.072400E+01
156	  0.051062126	-1.870000E-01	  0.051062126	-1.562910E+02	  0.051062126	5.640000E-01	  0.051062126	-1.049300E+01
157	  0.051262524	-1.840000E-01	  0.051262524	-1.568060E+02	  0.051262524	5.540000E-01	  0.051262524	-1.025900E+01
158	  0.051462926	-1.860000E-01	  0.051462926	-1.573030E+02	  0.051462926	5.580000E-01	  0.051462926	-1.003300E+01
159	  0.051663328	-1.900000E-01	  0.051663328	-1.577840E+02	  0.051663328	5.680000E-01	  0.051663328	-9.815000E+00
160	  0.051863730	-1.950000E-01	  0.051863730	-1.582670E+02	  0.051863730	5.820000E-01	  0.051863730	-9.596000E+00
161	  0.052064128	-1.990000E-01	  0.052064128	-1.587650E+02	  0.052064128	5.940000E-01	  0.052064128	-9.371000E+00
162	  0.052264530	-2.030000E-01	  0.052264530	-1.592740E+02	  0.052264530	6.040000E-01	  0.052264530	-9.141000E+00
163	  0.052464932	-1.990000E-01	  0.052464932	-1.597980E+02	  0.052464932	5.920000E-01	  0.052464932	-8.905000E+00
164	  0.052665330	-1.980000E-01	  0.052665330	-1.602930E+02	  0.052665330	5.870000E-01	  0.052665330	-8.683000E+00
165	  0.052865732	-1.940000E-01	  0.052865732	-1.607690E+02	  0.052865732	5.770000E-01	  0.052865732	-8.469000E+00
166	  0.053066134	-1.920000E-01	  0.053066134	-1.612380E+02	  0.053066134	5.700000E-01	  0.053066134	-8.258000E+00
167	  0.053266536	-1.880000E-01	  0.053266536	-1.617000E+02	  0.053266536	5.570000E-01	  0.053266536	-8.052000E+00
168	  0.053466935	-1.900000E-01	  0.053466935	-1.621690E+02	  0.053466935	5.600000E-01	  0.053466935	-7.842000E+00
169	  0.053667337	-1.860000E-01	  0.053667337	-1.626190E+02	  0.053667337	5.480000E-01	  0.053667337	-7.641000E+00
170	  0.053867739	-1.870000E-01	  0.053867739	-1.630670E+02	  0.053867739	5.510000E-01	  0.053867739	-7.441000E+00
171	  0.054068137	-1.900000E-01	  0.054068137	-1.635120E+02	  0.054068137	5.600000E-01	  0.054068137	-7.243000E+00
172	  0.054268539	-1.950000E-01	  0.054268539	-1.639670E+02	  0.054268539	5.730000E-01	  0.054268539	-7.040000E+00
173	  0.054468941	-1.990000E-01	  0.054468941	-1.644270E+02	  0.054468941	5.840000E-01	  0.054468941	-6.836000E+00
174	  0.054669339	-2.020000E-01	  0.054669339	-1.649200E+02	  0.054669339	5.920000E-01	  0.054669339	-6.616000E+00
175	  0.054869737	-2.040000E-01	  0.054869737	-1.654090E+02	  0.054869737	5.980000E-01	  0.054869737	-6.400000E+00
176	  0.055070139	-2.050000E-01	  0.055070139	-1.658660E+02	  0.055070139	6.010000E-01	  0.055070139	-6.197000E+00
177	  0.055270538	-2.070000E-01	  0.055270538	-1.663430E+02	  0.055270538	6.040000E-01	  0.055270538	-5.986000E+00
178	  0.055470940	-2.090000E-01	  0.055470940	-1.668110E+02	  0.055470940	6.110000E-01	  0.055470940	-5.779000E+00
179	  0.055671342	-2.120000E-01	  0.055671342	-1.672890E+02	  0.055671342	6.180000E-01	  0.055671342	-5.568000E+00
180	  0.055871744	-2.140000E-01	  0.055871744	-1.677910E+02	  0.055871744	6.230000E-01	  0.055871744	-5.346000E+00
181	  0.056072142	-2.140000E-01	  0.056072142	-1.682920E+02	  0.056072142	6.220000E-01	  0.056072142	-5.125000E+00
182	  0.056272544	-2.130000E-01	  0.056272544	-1.687760E+02	  0.056272544	6.200000E-01	  0.056272544	-4.912000E+00
183	  0.056472946	-2.110000E-01	  0.056472946	-1.692700E+02	  0.056472946	6.150000E-01	  0.056472946	-4.694000E+00
184	  0.056673344	-2.110000E-01	  0.056673344	-1.697340E+02	  0.056673344	6.140000E-01	  0.056673344	-4.490000E+00
185	  0.056873746	-2.120000E-01	  0.056873746	-1.702060E+02	  0.056873746	6.160000E-01	  0.056873746	-4.282000E+00
186	  0.057074148	-2.110000E-01	  0.057074148	-1.706560E+02	  0.057074148	6.130000E-01	  0.057074148	-4.085000E+00
187	  0.057274550	-2.130000E-01	  0.057274550	-1.711060E+02	  0.057274550	6.170000E-01	  0.057274550	-3.887000E+00
188	  0.057474948	-2.120000E-01	  0.057474948	-1.715440E+02	  0.057474948	6.130000E-01	  0.057474948	-3.695000E+00
189	  0.057675350	-2.130000E-01	  0.057675350	-1.719940E+02	  0.057675350	6.160000E-01	  0.057675350	-3.498000E+00
190	  0.057875752	-2.130000E-01	  0.057875752	-1.724400E+02	  0.057875752	6.160000E-01	  0.057875752	-3.302000E+00
191	  0.058076151	-2.100000E-01	  0.058076151	-1.728650E+02	  0.058076151	6.070000E-01	  0.058076151	-3.116000E+00
192	  0.058276553	-2.070000E-01	  0.058276553	-1.733060E+02	  0.058276553	5.990000E-01	  0.058276553	-2.923000E+00
193	  0.058476955	-2.060000E-01	  0.058476955	-1.737250E+02	  0.058476955	5.950000E-01	  0.058476955	-2.740000E+00
194	  0.058677353	-2.060000E-01	  0.058677353	-1.741390E+02	  0.058677353	5.970000E-01	  0.058677353	-2.559000E+00
195	  0.058877755	-2.060000E-01	  0.058877755	-1.745530E+02	  0.058877755	5.960000E-01	  0.058877755	-2.377000E+00
196	  0.059078157	-2.080000E-01	  0.059078157	-1.749640E+02	  0.059078157	6.010000E-01	  0.059078157	-2.198000E+00
197	  0.059278559	-2.120000E-01	  0.059278559	-1.753740E+02	  0.059278559	6.130000E-01	  0.059278559	-2.018000E+00
198	  0.059478957	-2.150000E-01	  0.059478957	-1.758000E+02	  0.059478957	6.190000E-01	  0.059478957	-1.832000E+00
199	  0.059679359	-2.190000E-01	  0.059679359	-1.762370E+02	  0.059679359	6.310000E-01	  0.059679359	-1.642000E+00
200	  0.059879761	-2.220000E-01	  0.059879761	-1.766730E+02	  0.059879761	6.390000E-01	  0.059879761	-1.451000E+00
201	  0.060080159	-2.240000E-01	  0.060080159	-1.771140E+02	  0.060080159	6.450000E-01	  0.060080159	-1.259000E+00
202	  0.060280561	-2.260000E-01	  0.060280561	-1.775530E+02	  0.060280561	6.510000E-01	  0.060280561	-1.067000E+00
203	  0.060480963	-2.280000E-01	  0.060480963	-1.780100E+02	  0.060480963	6.590000E-01	  0.060480963	-8.680000E-01
204	  0.060681365	-2.320000E-01	  0.060681365	-1.784710E+02	  0.060681365	6.690000E-01	  0.060681365	-6.660000E-01
205	  0.060881764	-2.370000E-01	  0.060881764	-1.789460E+02	  0.060881764	6.830000E-01	  0.060881764	-4.590000E-01
206	  0.061082166	-2.380000E-01	  0.061082166	-1.794130E+02	  0.061082166	6.870000E-01	  0.061082166	-2.550000E-01
207	  0.061282568	-2.400000E-01	  0.061282568	-1.798990E+02	  0.061282568	6.930000E-01	  0.061282568	-4.400000E-02
208	  0.061482966	-2.420000E-01	  0.061482966	1.796090E+02	  0.061482966	6.980000E-01	  0.061482966	1.700000E-01
209	  0.061683368	-2.420000E-01	  0.061683368	1.791230E+02	  0.061683368	6.980000E-01	  0.061683368	3.820000E-01
210	  0.061883770	-2.430000E-01	  0.061883770	1.786370E+02	  0.061883770	6.990000E-01	  0.061883770	5.940000E-01
211	  0.062084168	-2.440000E-01	  0.062084168	1.781580E+02	  0.062084168	7.020000E-01	  0.062084168	8.030000E-01
212	  0.062284570	-2.430000E-01	  0.062284570	1.776730E+02	  0.062284570	7.000000E-01	  0.062284570	1.015000E+00
213	  0.062484972	-2.450000E-01	  0.062484972	1.772230E+02	  0.062484972	7.070000E-01	  0.062484972	1.211000E+00
214	  0.062685370	-2.420000E-01	  0.062685370	1.767820E+02	  0.062685370	6.980000E-01	  0.062685370	1.403000E+00
215	  0.062885776	-2.410000E-01	  0.062885776	1.763280E+02	  0.062885776	6.950000E-01	  0.062885776	1.602000E+00
216	  0.063086174	-2.420000E-01	  0.063086174	1.758710E+02	  0.063086174	6.980000E-01	  0.063086174	1.801000E+00
217	  0.063286573	-2.400000E-01	  0.063286573	1.754280E+02	  0.063286573	6.920000E-01	  0.063286573	1.995000E+00
218	  0.063486971	-2.360000E-01	  0.063486971	1.750060E+02	  0.063486971	6.800000E-01	  0.063486971	2.180000E+00
219	  0.063687377	-2.370000E-01	  0.063687377	1.745940E+02	  0.063687377	6.840000E-01	  0.063687377	2.359000E+00
220	  0.063887775	-2.330000E-01	  0.063887775	1.741870E+02	  0.063887775	6.730000E-01	  0.063887775	2.538000E+00
221	  0.064088173	-2.330000E-01	  0.064088173	1.737870E+02	  0.064088173	6.750000E-01	  0.064088173	2.712000E+00
222	  0.064288579	-2.330000E-01	  0.064288579	1.733610E+02	  0.064288579	6.750000E-01	  0.064288579	2.899000E+00
223	  0.064488977	-2.380000E-01	  0.064488977	1.729540E+02	  0.064488977	6.880000E-01	  0.064488977	3.077000E+00
224	  0.064689375	-2.380000E-01	  0.064689375	1.725510E+02	  0.064689375	6.880000E-01	  0.064689375	3.254000E+00
225	  0.064889781	-2.360000E-01	  0.064889781	1.721440E+02	  0.064889781	6.820000E-01	  0.064889781	3.432000E+00
226	  0.065090179	-2.380000E-01	  0.065090179	1.717720E+02	  0.065090179	6.890000E-01	  0.065090179	3.595000E+00
227	  0.065290578	-2.410000E-01	  0.065290578	1.713660E+02	  0.065290578	7.000000E-01	  0.065290578	3.773000E+00
228	  0.065490983	-2.430000E-01	  0.065490983	1.709940E+02	  0.065490983	7.060000E-01	  0.065490983	3.936000E+00
229	  0.065691382	-2.440000E-01	  0.065691382	1.705810E+02	  0.065691382	7.080000E-01	  0.065691382	4.118000E+00
230	  0.065891780	-2.470000E-01	  0.065891780	1.701790E+02	  0.065891780	7.180000E-01	  0.065891780	4.294000E+00
231	  0.066092186	-2.460000E-01	  0.066092186	1.697700E+02	  0.066092186	7.150000E-01	  0.066092186	4.474000E+00
232	  0.066292584	-2.470000E-01	  0.066292584	1.693670E+02	  0.066292584	7.180000E-01	  0.066292584	4.651000E+00
233	  0.066492982	-2.460000E-01	  0.066492982	1.689550E+02	  0.066492982	7.150000E-01	  0.066492982	4.832000E+00
234	  0.066693388	-2.460000E-01	  0.066693388	1.685490E+02	  0.066693388	7.170000E-01	  0.066693388	5.011000E+00
235	  0.066893786	-2.510000E-01	  0.066893786	1.681420E+02	  0.066893786	7.300000E-01	  0.066893786	5.191000E+00
236	  0.067094192	-2.510000E-01	  0.067094192	1.677210E+02	  0.067094192	7.300000E-01	  0.067094192	5.377000E+00
237	  0.067294590	-2.530000E-01	  0.067294590	1.673060E+02	  0.067294590	7.380000E-01	  0.067294590	5.560000E+00
238	  0.067494988	-2.560000E-01	  0.067494988	1.668990E+02	  0.067494988	7.470000E-01	  0.067494988	5.739000E+00
239	  0.067695394	-2.540000E-01	  0.067695394	1.664820E+02	  0.067695394	7.440000E-01	  0.067695394	5.924000E+00
240	  0.067895792	-2.570000E-01	  0.067895792	1.660980E+02	  0.067895792	7.510000E-01	  0.067895792	6.094000E+00
241	  0.068096191	-2.570000E-01	  0.068096191	1.656890E+02	  0.068096191	7.540000E-01	  0.068096191	6.275000E+00
242	  0.068296596	-2.560000E-01	  0.068296596	1.652580E+02	  0.068296596	7.490000E-01	  0.068296596	6.466000E+00
243	  0.068496995	-2.560000E-01	  0.068496995	1.648650E+02	  0.068496995	7.490000E-01	  0.068496995	6.640000E+00
244	  0.068697393	-2.550000E-01	  0.068697393	1.644610E+02	  0.068697393	7.500000E-01	  0.068697393	6.820000E+00
245	  0.068897791	-2.540000E-01	  0.068897791	1.640710E+02	  0.068897791	7.470000E-01	  0.068897791	6.993000E+00
246	  0.069098189	-2.570000E-01	  0.069098189	1.636600E+02	  0.069098189	7.560000E-01	  0.069098189	7.176000E+00
247	  0.069298595	-2.600000E-01	  0.069298595	1.632720E+02	  0.069298595	7.640000E-01	  0.069298595	7.349000E+00
248	  0.069498993	-2.630000E-01	  0.069498993	1.628450E+02	  0.069498993	7.760000E-01	  0.069498993	7.539000E+00
249	  0.069699399	-2.660000E-01	  0.069699399	1.624150E+02	  0.069699399	7.850000E-01	  0.069699399	7.731000E+00
250	  0.069899797	-2.690000E-01	  0.069899797	1.619980E+02	  0.069899797	7.960000E-01	  0.069899797	7.917000E+00
251	  0.070100196	-2.690000E-01	  0.070100196	1.615510E+02	  0.070100196	7.960000E-01	  0.070100196	8.118000E+00
252	  0.070300601	-2.710000E-01	  0.070300601	1.611510E+02	  0.070300601	8.030000E-01	  0.070300601	8.297000E+00
253	  0.070501000	-2.760000E-01	  0.070501000	1.607650E+02	  0.070501000	8.180000E-01	  0.070501000	8.470000E+00
254	  0.070701398	-2.720000E-01	  0.070701398	1.603380E+02	  0.070701398	8.080000E-01	  0.070701398	8.662000E+00
255	  0.070901804	-2.740000E-01	  0.070901804	1.599270E+02	  0.070901804	8.150000E-01	  0.070901804	8.846000E+00
256	  0.071102202	-2.740000E-01	  0.071102202	1.595160E+02	  0.071102202	8.160000E-01	  0.071102202	9.031000E+00
257	  0.071302600	-2.740000E-01	  0.071302600	1.590990E+02	  0.071302600	8.170000E-01	  0.071302600	9.219000E+00
258	  0.071503006	-2.720000E-01	  0.071503006	1.586850E+02	  0.071503006	8.110000E-01	  0.071503006	9.406000E+00
259	  0.071703404	-2.700000E-01	  0.071703404	1.582850E+02	  0.071703404	8.070000E-01	  0.071703404	9.587000E+00
260	  0.071903802	-2.740000E-01	  0.071903802	1.578660E+02	  0.071903802	8.180000E-01	  0.071903802	9.776000E+00
261	  0.072104208	-2.690000E-01	  0.072104208	1.574820E+02	  0.072104208	8.070000E-01	  0.072104208	9.951000E+00
262	  0.072304606	-2.700000E-01	  0.072304606	1.570680E+02	  0.072304606	8.090000E-01	  0.072304606	1.013800E+01
263	  0.072505005	-2.720000E-01	  0.072505005	1.567050E+02	  0.072505005	8.160000E-01	  0.072505005	1.030300E+01
264	  0.072705410	-2.730000E-01	  0.072705410	1.563300E+02	  0.072705410	8.220000E-01	  0.072705410	1.047400E+01
265	  0.072905809	-2.770000E-01	  0.072905809	1.559370E+02	  0.072905809	8.330000E-01	  0.072905809	1.065300E+01
266	  0.073106214	-2.730000E-01	  0.073106214	1.555340E+02	  0.073106214	8.220000E-01	  0.073106214	1.083700E+01
267	  0.073306613	-2.770000E-01	  0.073306613	1.551440E+02	  0.073306613	8.360000E-01	  0.073306613	1.101500E+01
268	  0.073507011	-2.750000E-01	  0.073507011	1.547220E+02	  0.073507011	8.320000E-01	  0.073507011	1.120800E+01
269	  0.073707417	-2.740000E-01	  0.073707417	1.543510E+02	  0.073707417	8.300000E-01	  0.073707417	1.137900E+01
270	  0.073907815	-2.730000E-01	  0.073907815	1.539850E+02	  0.073907815	8.270000E-01	  0.073907815	1.154700E+01
271	  0.074108213	-2.760000E-01	  0.074108213	1.536080E+02	  0.074108213	8.380000E-01	  0.074108213	1.172000E+01
272	  0.074308619	-2.750000E-01	  0.074308619	1.532330E+02	  0.074308619	8.370000E-01	  0.074308619	1.189300E+01
273	  0.074509017	-2.770000E-01	  0.074509017	1.528470E+02	  0.074509017	8.450000E-01	  0.074509017	1.207000E+01
274	  0.074709415	-2.840000E-01	  0.074709415	1.524240E+02	  0.074709415	8.670000E-01	  0.074709415	1.226600E+01
275	  0.074909821	-2.900000E-01	  0.074909821	1.520080E+02	  0.074909821	8.880000E-01	  0.074909821	1.245800E+01
276	  0.075110219	-2.920000E-01	  0.075110219	1.515890E+02	  0.075110219	8.960000E-01	  0.075110219	1.265200E+01
277	  0.075310618	-2.950000E-01	  0.075310618	1.511850E+02	  0.075310618	9.070000E-01	  0.075310618	1.284000E+01
278	  0.075511023	-2.950000E-01	  0.075511023	1.507580E+02	  0.075511023	9.090000E-01	  0.075511023	1.303900E+01
279	  0.075711422	-3.000000E-01	  0.075711422	1.503560E+02	  0.075711422	9.260000E-01	  0.075711422	1.322600E+01
280	  0.075911827	-3.010000E-01	  0.075911827	1.499360E+02	  0.075911827	9.290000E-01	  0.075911827	1.342200E+01
281	  0.076112226	-2.990000E-01	  0.076112226	1.495250E+02	  0.076112226	9.250000E-01	  0.076112226	1.361500E+01
282	  0.076312624	-2.960000E-01	  0.076312624	1.490940E+02	  0.076312624	9.170000E-01	  0.076312624	1.381700E+01
283	  0.076513030	-2.950000E-01	  0.076513030	1.486570E+02	  0.076513030	9.160000E-01	  0.076513030	1.402200E+01
284	  0.076713428	-2.930000E-01	  0.076713428	1.482690E+02	  0.076713428	9.110000E-01	  0.076713428	1.420500E+01
285	  0.076913826	-2.920000E-01	  0.076913826	1.478580E+02	  0.076913826	9.110000E-01	  0.076913826	1.439900E+01
286	  0.077114232	-2.850000E-01	  0.077114232	1.474910E+02	  0.077114232	8.920000E-01	  0.077114232	1.457300E+01
287	  0.077314630	-2.810000E-01	  0.077314630	1.471170E+02	  0.077314630	8.810000E-01	  0.077314630	1.475000E+01
288	  0.077515028	-2.800000E-01	  0.077515028	1.467550E+02	  0.077515028	8.780000E-01	  0.077515028	1.492200E+01
289	  0.077715434	-2.760000E-01	  0.077715434	1.464080E+02	  0.077715434	8.690000E-01	  0.077715434	1.508700E+01
290	  0.077915832	-2.780000E-01	  0.077915832	1.460930E+02	  0.077915832	8.770000E-01	  0.077915832	1.523700E+01
291	  0.078116231	-2.810000E-01	  0.078116231	1.457510E+02	  0.078116231	8.870000E-01	  0.078116231	1.540000E+01
292	  0.078316636	-2.790000E-01	  0.078316636	1.453900E+02	  0.078316636	8.830000E-01	  0.078316636	1.557300E+01
293	  0.078517035	-2.820000E-01	  0.078517035	1.450460E+02	  0.078517035	8.920000E-01	  0.078517035	1.573700E+01
294	  0.078717433	-2.800000E-01	  0.078717433	1.447030E+02	  0.078717433	8.900000E-01	  0.078717433	1.590200E+01
295	  0.078917839	-2.790000E-01	  0.078917839	1.443430E+02	  0.078917839	8.860000E-01	  0.078917839	1.607500E+01
296	  0.079118237	-2.790000E-01	  0.079118237	1.440350E+02	  0.079118237	8.870000E-01	  0.079118237	1.622400E+01
297	  0.079318643	-2.810000E-01	  0.079318643	1.437090E+02	  0.079318643	8.980000E-01	  0.079318643	1.638100E+01
298	  0.079519041	-2.850000E-01	  0.079519041	1.433870E+02	  0.079519041	9.110000E-01	  0.079519041	1.653600E+01
299	  0.079719439	-2.910000E-01	  0.079719439	1.430120E+02	  0.079719439	9.340000E-01	  0.079719439	1.671800E+01
300	  0.079919845	-2.950000E-01	  0.079919845	1.426350E+02	  0.079919845	9.460000E-01	  0.079919845	1.690100E+01
301	  0.080120243	-3.050000E-01	  0.080120243	1.422410E+02	  0.080120243	9.820000E-01	  0.080120243	1.709200E+01
302	  0.080320641	-3.100000E-01	  0.080320641	1.418350E+02	  0.080320641	1.000000E+00	  0.080320641	1.729000E+01
303	  0.080521047	-3.160000E-01	  0.080521047	1.414290E+02	  0.080521047	1.023000E+00	  0.080521047	1.748800E+01
304	  0.080721445	-3.220000E-01	  0.080721445	1.410050E+02	  0.080721445	1.044000E+00	  0.080721445	1.769600E+01
305	  0.080921844	-3.300000E-01	  0.080921844	1.405570E+02	  0.080921844	1.073000E+00	  0.080921844	1.791600E+01
306	  0.081122249	-3.310000E-01	  0.081122249	1.401320E+02	  0.081122249	1.077000E+00	  0.081122249	1.812500E+01
307	  0.081322648	-3.320000E-01	  0.081322648	1.396880E+02	  0.081322648	1.086000E+00	  0.081322648	1.834400E+01
308	  0.081523046	-3.330000E-01	  0.081523046	1.392380E+02	  0.081523046	1.093000E+00	  0.081523046	1.856700E+01
309	  0.081723452	-3.310000E-01	  0.081723452	1.387800E+02	  0.081723452	1.090000E+00	  0.081723452	1.879500E+01
310	  0.081923850	-3.300000E-01	  0.081923850	1.383260E+02	  0.081923850	1.089000E+00	  0.081923850	1.902200E+01
311	  0.082124248	-3.270000E-01	  0.082124248	1.378720E+02	  0.082124248	1.082000E+00	  0.082124248	1.924900E+01
312	  0.082324654	-3.260000E-01	  0.082324654	1.374700E+02	  0.082324654	1.081000E+00	  0.082324654	1.945000E+01
313	  0.082525052	-3.180000E-01	  0.082525052	1.370450E+02	  0.082525052	1.057000E+00	  0.082525052	1.966400E+01
314	  0.082725458	-3.130000E-01	  0.082725458	1.366440E+02	  0.082725458	1.043000E+00	  0.082725458	1.986700E+01
315	  0.082925856	-3.060000E-01	  0.082925856	1.362790E+02	  0.082925856	1.024000E+00	  0.082925856	2.005200E+01
316	  0.083126254	-3.070000E-01	  0.083126254	1.359400E+02	  0.083126254	1.028000E+00	  0.083126254	2.022400E+01
317	  0.083326660	-3.090000E-01	  0.083326660	1.355800E+02	  0.083326660	1.038000E+00	  0.083326660	2.040700E+01
318	  0.083527058	-3.050000E-01	  0.083527058	1.352180E+02	  0.083527058	1.027000E+00	  0.083527058	2.059100E+01
319	  0.083727457	-3.070000E-01	  0.083727457	1.348610E+02	  0.083727457	1.038000E+00	  0.083727457	2.077300E+01
320	  0.083927862	-3.020000E-01	  0.083927862	1.345170E+02	  0.083927862	1.021000E+00	  0.083927862	2.095000E+01
321	  0.084128261	-2.990000E-01	  0.084128261	1.341860E+02	  0.084128261	1.016000E+00	  0.084128261	2.112000E+01
322	  0.084328659	-2.980000E-01	  0.084328659	1.338740E+02	  0.084328659	1.013000E+00	  0.084328659	2.128000E+01
323	  0.084529065	-2.950000E-01	  0.084529065	1.335750E+02	  0.084529065	1.005000E+00	  0.084529065	2.143500E+01
324	  0.084729463	-2.950000E-01	  0.084729463	1.332780E+02	  0.084729463	1.008000E+00	  0.084729463	2.158900E+01
325	  0.084929861	-2.990000E-01	  0.084929861	1.329570E+02	  0.084929861	1.024000E+00	  0.084929861	2.175500E+01
326	  0.085130267	-3.010000E-01	  0.085130267	1.326250E+02	  0.085130267	1.034000E+00	  0.085130267	2.192700E+01
327	  0.085330658	-3.060000E-01	  0.085330658	1.323120E+02	  0.085330658	1.055000E+00	  0.085330658	2.208900E+01
328	  0.085531056	-3.090000E-01	  0.085531056	1.319770E+02	  0.085531056	1.068000E+00	  0.085531056	2.226400E+01
329	  0.085731462	-3.170000E-01	  0.085731462	1.316560E+02	  0.085731462	1.097000E+00	  0.085731462	2.243200E+01
330	  0.085931860	-3.240000E-01	  0.085931860	1.312950E+02	  0.085931860	1.124000E+00	  0.085931860	2.262100E+01
331	  0.086132258	-3.310000E-01	  0.086132258	1.309250E+02	  0.086132258	1.154000E+00	  0.086132258	2.281500E+01
332	  0.086332664	-3.330000E-01	  0.086332664	1.305470E+02	  0.086332664	1.162000E+00	  0.086332664	2.301400E+01
333	  0.086533062	-3.330000E-01	  0.086533062	1.301530E+02	  0.086533062	1.166000E+00	  0.086533062	2.322300E+01
334	  0.086733460	-3.340000E-01	  0.086733460	1.297580E+02	  0.086733460	1.174000E+00	  0.086733460	2.343300E+01
335	  0.086933866	-3.320000E-01	  0.086933866	1.293580E+02	  0.086933866	1.170000E+00	  0.086933866	2.364600E+01
336	  0.087134264	-3.360000E-01	  0.087134264	1.289480E+02	  0.087134264	1.189000E+00	  0.087134264	2.386500E+01
337	  0.087334670	-3.360000E-01	  0.087334670	1.285260E+02	  0.087334670	1.194000E+00	  0.087334670	2.409100E+01
338	  0.087535068	-3.320000E-01	  0.087535068	1.281490E+02	  0.087535068	1.181000E+00	  0.087535068	2.429500E+01
339	  0.087735467	-3.260000E-01	  0.087735467	1.277520E+02	  0.087735467	1.166000E+00	  0.087735467	2.450900E+01
340	  0.087935872	-3.190000E-01	  0.087935872	1.273630E+02	  0.087935872	1.144000E+00	  0.087935872	2.472100E+01
341	  0.088136271	-3.170000E-01	  0.088136271	1.270060E+02	  0.088136271	1.142000E+00	  0.088136271	2.491500E+01
342	  0.088336669	-3.140000E-01	  0.088336669	1.266480E+02	  0.088336669	1.132000E+00	  0.088336669	2.511000E+01
343	  0.088537075	-3.170000E-01	  0.088537075	1.263030E+02	  0.088537075	1.147000E+00	  0.088537075	2.529800E+01
344	  0.088737473	-3.160000E-01	  0.088737473	1.259530E+02	  0.088737473	1.147000E+00	  0.088737473	2.549100E+01
345	  0.088937871	-3.190000E-01	  0.088937871	1.255910E+02	  0.088937871	1.160000E+00	  0.088937871	2.569000E+01
346	  0.089138277	-3.150000E-01	  0.089138277	1.252340E+02	  0.089138277	1.152000E+00	  0.089138277	2.588700E+01
347	  0.089338675	-3.130000E-01	  0.089338675	1.248640E+02	  0.089338675	1.147000E+00	  0.089338675	2.609200E+01
348	  0.089539073	-3.110000E-01	  0.089539073	1.245570E+02	  0.089539073	1.144000E+00	  0.089539073	2.626300E+01
349	  0.089739479	-3.080000E-01	  0.089739479	1.242140E+02	  0.089739479	1.135000E+00	  0.089739479	2.645400E+01
350	  0.089939877	-3.130000E-01	  0.089939877	1.239030E+02	  0.089939877	1.157000E+00	  0.089939877	2.662800E+01
351	  0.090140276	-3.110000E-01	  0.090140276	1.235790E+02	  0.090140276	1.152000E+00	  0.090140276	2.681000E+01
352	  0.090340681	-3.120000E-01	  0.090340681	1.232400E+02	  0.090340681	1.161000E+00	  0.090340681	2.700000E+01
353	  0.090541080	-3.150000E-01	  0.090541080	1.229130E+02	  0.090541080	1.176000E+00	  0.090541080	2.718500E+01
354	  0.090741485	-3.160000E-01	  0.090741485	1.225780E+02	  0.090741485	1.182000E+00	  0.090741485	2.737400E+01
355	  0.090941884	-3.220000E-01	  0.090941884	1.222510E+02	  0.090941884	1.211000E+00	  0.090941884	2.755900E+01
356	  0.091142282	-3.270000E-01	  0.091142282	1.219240E+02	  0.091142282	1.232000E+00	  0.091142282	2.774500E+01
357	  0.091342688	-3.340000E-01	  0.091342688	1.215580E+02	  0.091342688	1.264000E+00	  0.091342688	2.795400E+01
358	  0.091543086	-3.380000E-01	  0.091543086	1.212190E+02	  0.091543086	1.281000E+00	  0.091543086	2.814800E+01
359	  0.091743484	-3.390000E-01	  0.091743484	1.208320E+02	  0.091743484	1.291000E+00	  0.091743484	2.837000E+01
360	  0.091943890	-3.400000E-01	  0.091943890	1.204680E+02	  0.091943890	1.301000E+00	  0.091943890	2.858100E+01
361	  0.092144288	-3.420000E-01	  0.092144288	1.200980E+02	  0.092144288	1.310000E+00	  0.092144288	2.879500E+01
362	  0.092344686	-3.450000E-01	  0.092344686	1.197070E+02	  0.092344686	1.330000E+00	  0.092344686	2.902200E+01
363	  0.092545092	-3.440000E-01	  0.092545092	1.193430E+02	  0.092545092	1.328000E+00	  0.092545092	2.923500E+01
364	  0.092745490	-3.450000E-01	  0.092745490	1.189750E+02	  0.092745490	1.339000E+00	  0.092745490	2.945100E+01
365	  0.092945889	-3.370000E-01	  0.092945889	1.185890E+02	  0.092945889	1.312000E+00	  0.092945889	2.967800E+01
366	  0.093146294	-3.400000E-01	  0.093146294	1.182500E+02	  0.093146294	1.328000E+00	  0.093146294	2.987900E+01
367	  0.093346693	-3.310000E-01	  0.093346693	1.178780E+02	  0.093346693	1.300000E+00	  0.093346693	3.010000E+01
368	  0.093547091	-3.380000E-01	  0.093547091	1.175420E+02	  0.093547091	1.330000E+00	  0.093547091	3.029900E+01
369	  0.093747497	-3.320000E-01	  0.093747497	1.172020E+02	  0.093747497	1.313000E+00	  0.093747497	3.050300E+01
370	  0.093947895	-3.360000E-01	  0.093947895	1.168590E+02	  0.093947895	1.335000E+00	  0.093947895	3.070800E+01
371	  0.094148301	-3.340000E-01	  0.094148301	1.164910E+02	  0.094148301	1.333000E+00	  0.094148301	3.093000E+01
372	  0.094348699	-3.380000E-01	  0.094348699	1.161370E+02	  0.094348699	1.350000E+00	  0.094348699	3.114300E+01
373	  0.094549097	-3.340000E-01	  0.094549097	1.157930E+02	  0.094549097	1.339000E+00	  0.094549097	3.135200E+01
374	  0.094749503	-3.360000E-01	  0.094749503	1.154330E+02	  0.094749503	1.356000E+00	  0.094749503	3.157100E+01
375	  0.094949901	-3.360000E-01	  0.094949901	1.150950E+02	  0.094949901	1.358000E+00	  0.094949901	3.177800E+01
376	  0.095150299	-3.340000E-01	  0.095150299	1.147420E+02	  0.095150299	1.357000E+00	  0.095150299	3.199400E+01
377	  0.095350705	-3.330000E-01	  0.095350705	1.143820E+02	  0.095350705	1.359000E+00	  0.095350705	3.221600E+01
378	  0.095551103	-3.310000E-01	  0.095551103	1.140400E+02	  0.095551103	1.353000E+00	  0.095551103	3.242800E+01
379	  0.095751502	-3.290000E-01	  0.095751502	1.136910E+02	  0.095751502	1.350000E+00	  0.095751502	3.264500E+01
380	  0.095951907	-3.300000E-01	  0.095951907	1.133430E+02	  0.095951907	1.363000E+00	  0.095951907	3.286200E+01
381	  0.096152306	-3.340000E-01	  0.096152306	1.130040E+02	  0.096152306	1.384000E+00	  0.096152306	3.307400E+01
382	  0.096352704	-3.350000E-01	  0.096352704	1.126550E+02	  0.096352704	1.394000E+00	  0.096352704	3.329200E+01
383	  0.096553110	-3.360000E-01	  0.096553110	1.123210E+02	  0.096553110	1.402000E+00	  0.096553110	3.350300E+01
384	  0.096753508	-3.370000E-01	  0.096753508	1.119570E+02	  0.096753508	1.411000E+00	  0.096753508	3.373300E+01
385	  0.096953906	-3.370000E-01	  0.096953906	1.116270E+02	  0.096953906	1.417000E+00	  0.096953906	3.394300E+01
386	  0.097154312	-3.360000E-01	  0.097154312	1.112750E+02	  0.097154312	1.419000E+00	  0.097154312	3.416800E+01
387	  0.097354710	-3.340000E-01	  0.097354710	1.109290E+02	  0.097354710	1.417000E+00	  0.097354710	3.439000E+01
388	  0.097555116	-3.350000E-01	  0.097555116	1.105770E+02	  0.097555116	1.429000E+00	  0.097555116	3.461600E+01
389	  0.097755514	-3.320000E-01	  0.097755514	1.102490E+02	  0.097755514	1.422000E+00	  0.097755514	3.482900E+01
390	  0.097955912	-3.300000E-01	  0.097955912	1.099120E+02	  0.097955912	1.420000E+00	  0.097955912	3.504800E+01
391	  0.098156318	-3.250000E-01	  0.098156318	1.096070E+02	  0.098156318	1.404000E+00	  0.098156318	3.524700E+01
392	  0.098356716	-3.210000E-01	  0.098356716	1.093010E+02	  0.098356716	1.391000E+00	  0.098356716	3.544800E+01
393	  0.098557115	-3.190000E-01	  0.098557115	1.090070E+02	  0.098557115	1.387000E+00	  0.098557115	3.564100E+01
394	  0.098757520	-3.200000E-01	  0.098757520	1.087360E+02	  0.098757520	1.396000E+00	  0.098757520	3.581900E+01
395	  0.098957919	-3.170000E-01	  0.098957919	1.084380E+02	  0.098957919	1.388000E+00	  0.098957919	3.601700E+01
396	  0.099158317	-3.210000E-01	  0.099158317	1.081420E+02	  0.099158317	1.410000E+00	  0.099158317	3.621300E+01
397	  0.099358723	-3.200000E-01	  0.099358723	1.078550E+02	  0.099358723	1.412000E+00	  0.099358723	3.640400E+01
398	  0.099559121	-3.220000E-01	  0.099559121	1.075630E+02	  0.099559121	1.425000E+00	  0.099559121	3.659900E+01
399	  0.099759519	-3.240000E-01	  0.099759519	1.072720E+02	  0.099759519	1.439000E+00	  0.099759519	3.679400E+01
400	  0.099959925	-3.360000E-01	  0.099959925	1.069540E+02	  0.099959925	1.499000E+00	  0.099959925	3.700700E+01
401	  0.100160323	-3.350000E-01	  0.100160323	1.066330E+02	  0.100160323	1.501000E+00	  0.100160323	3.722400E+01
402	  0.100360721	-3.480000E-01	  0.100360721	1.062940E+02	  0.100360721	1.564000E+00	  0.100360721	3.745300E+01
403	  0.100561127	-3.460000E-01	  0.100561127	1.059690E+02	  0.100561127	1.562000E+00	  0.100561127	3.767500E+01
404	  0.100761525	-3.510000E-01	  0.100761525	1.056290E+02	  0.100761525	1.592000E+00	  0.100761525	3.790700E+01
405	  0.100961931	-3.490000E-01	  0.100961931	1.052510E+02	  0.100961931	1.592000E+00	  0.100961931	3.816700E+01
406	  0.101162329	-3.530000E-01	  0.101162329	1.048930E+02	  0.101162329	1.618000E+00	  0.101162329	3.841400E+01
407	  0.101362728	-3.570000E-01	  0.101362728	1.045540E+02	  0.101362728	1.641000E+00	  0.101362728	3.864900E+01
408	  0.101563133	-3.610000E-01	  0.101563133	1.041540E+02	  0.101563133	1.672000E+00	  0.101563133	3.892800E+01
409	  0.101763532	-3.680000E-01	  0.101763532	1.037940E+02	  0.101763532	1.713000E+00	  0.101763532	3.918000E+01
410	  0.101963930	-3.740000E-01	  0.101963930	1.034390E+02	  0.101963930	1.746000E+00	  0.101963930	3.942900E+01
411	  0.102164336	-3.690000E-01	  0.102164336	1.029990E+02	  0.102164336	1.733000E+00	  0.102164336	3.974200E+01
412	  0.102364734	-3.750000E-01	  0.102364734	1.026040E+02	  0.102364734	1.771000E+00	  0.102364734	4.002300E+01
413	  0.102565132	-3.710000E-01	  0.102565132	1.022330E+02	  0.102565132	1.763000E+00	  0.102565132	4.029000E+01
414	  0.102765530	-3.680000E-01	  0.102765530	1.017930E+02	  0.102765530	1.762000E+00	  0.102765530	4.060800E+01
415	  0.102965929	-3.670000E-01	  0.102965929	1.014630E+02	  0.102965929	1.764000E+00	  0.102965929	4.084700E+01
416	  0.103166327	-3.660000E-01	  0.103166327	1.010520E+02	  0.103166327	1.769000E+00	  0.103166327	4.114700E+01
417	  0.103366733	-3.670000E-01	  0.103366733	1.007050E+02	  0.103366733	1.781000E+00	  0.103366733	4.140100E+01
418	  0.103567131	-3.590000E-01	  0.103567131	1.003270E+02	  0.103567131	1.754000E+00	  0.103567131	4.168100E+01
419	  0.103767529	-3.530000E-01	  0.103767529	1.000370E+02	  0.103767529	1.731000E+00	  0.103767529	4.189700E+01
420	  0.103967935	-3.520000E-01	  0.103967935	9.968200E+01	  0.103967935	1.738000E+00	  0.103967935	4.216100E+01
421	  0.104168333	-3.490000E-01	  0.104168333	9.936200E+01	  0.104168333	1.727000E+00	  0.104168333	4.240100E+01
422	  0.104368731	-3.480000E-01	  0.104368731	9.908000E+01	  0.104368731	1.729000E+00	  0.104368731	4.261300E+01
423	  0.104569137	-3.410000E-01	  0.104569137	9.879200E+01	  0.104569137	1.702000E+00	  0.104569137	4.283200E+01
424	  0.104769535	-3.370000E-01	  0.104769535	9.849600E+01	  0.104769535	1.693000E+00	  0.104769535	4.305600E+01
425	  0.104969934	-3.370000E-01	  0.104969934	9.819400E+01	  0.104969934	1.700000E+00	  0.104969934	4.328600E+01
426	  0.105170339	-3.390000E-01	  0.105170339	9.792200E+01	  0.105170339	1.719000E+00	  0.105170339	4.349400E+01
427	  0.105370738	-3.440000E-01	  0.105370738	9.762800E+01	  0.105370738	1.747000E+00	  0.105370738	4.371900E+01
428	  0.105571143	-3.430000E-01	  0.105571143	9.734100E+01	  0.105571143	1.751000E+00	  0.105571143	4.394000E+01
429	  0.105771542	-3.440000E-01	  0.105771542	9.705500E+01	  0.105771542	1.764000E+00	  0.105771542	4.416100E+01
430	  0.105971940	-3.440000E-01	  0.105971940	9.675500E+01	  0.105971940	1.771000E+00	  0.105971940	4.439500E+01
431	  0.106172346	-3.410000E-01	  0.106172346	9.643200E+01	  0.106172346	1.769000E+00	  0.106172346	4.464800E+01
432	  0.106372744	-3.510000E-01	  0.106372744	9.614600E+01	  0.106372744	1.826000E+00	  0.106372744	4.487100E+01
433	  0.106573142	-3.490000E-01	  0.106573142	9.583000E+01	  0.106573142	1.824000E+00	  0.106573142	4.512100E+01
434	  0.106773548	-3.530000E-01	  0.106773548	9.554100E+01	  0.106773548	1.852000E+00	  0.106773548	4.534900E+01
435	  0.106973946	-3.520000E-01	  0.106973946	9.525100E+01	  0.106973946	1.855000E+00	  0.106973946	4.558000E+01
436	  0.107174344	-3.540000E-01	  0.107174344	9.491500E+01	  0.107174344	1.878000E+00	  0.107174344	4.584900E+01
437	  0.107374750	-3.530000E-01	  0.107374750	9.457500E+01	  0.107374750	1.885000E+00	  0.107374750	4.612300E+01
438	  0.107575148	-3.530000E-01	  0.107575148	9.424000E+01	  0.107575148	1.894000E+00	  0.107575148	4.639400E+01
439	  0.107775547	-3.550000E-01	  0.107775547	9.392000E+01	  0.107775547	1.913000E+00	  0.107775547	4.665400E+01
440	  0.107975952	-3.530000E-01	  0.107975952	9.358700E+01	  0.107975952	1.913000E+00	  0.107975952	4.692600E+01
441	  0.108176351	-3.550000E-01	  0.108176351	9.323000E+01	  0.108176351	1.936000E+00	  0.108176351	4.722000E+01
442	  0.108376749	-3.540000E-01	  0.108376749	9.287900E+01	  0.108376749	1.944000E+00	  0.108376749	4.751000E+01
443	  0.108577155	-3.520000E-01	  0.108577155	9.253100E+01	  0.108577155	1.943000E+00	  0.108577155	4.780000E+01
444	  0.108777553	-3.470000E-01	  0.108777553	9.222800E+01	  0.108777553	1.923000E+00	  0.108777553	4.805500E+01
445	  0.108977959	-3.470000E-01	  0.108977959	9.188400E+01	  0.108977959	1.934000E+00	  0.108977959	4.834400E+01
446	  0.109178357	-3.500000E-01	  0.109178357	9.154800E+01	  0.109178357	1.961000E+00	  0.109178357	4.862700E+01
447	  0.109378755	-3.450000E-01	  0.109378755	9.124800E+01	  0.109378755	1.945000E+00	  0.109378755	4.888400E+01
448	  0.109579161	-3.460000E-01	  0.109579161	9.090900E+01	  0.109579161	1.961000E+00	  0.109579161	4.917400E+01
449	  0.109779559	-3.330000E-01	  0.109779559	9.060200E+01	  0.109779559	1.898000E+00	  0.109779559	4.944100E+01
450	  0.109979957	-3.360000E-01	  0.109979957	9.027200E+01	  0.109979957	1.927000E+00	  0.109979957	4.972500E+01
451	  0.110180363	-3.400000E-01	  0.110180363	8.997900E+01	  0.110180363	1.960000E+00	  0.110180363	4.997900E+01
452	  0.110380761	-3.490000E-01	  0.110380761	8.962700E+01	  0.110380761	2.025000E+00	  0.110380761	5.028500E+01
453	  0.110581160	-3.460000E-01	  0.110581160	8.933100E+01	  0.110581160	2.015000E+00	  0.110581160	5.054500E+01
454	  0.110781565	-3.500000E-01	  0.110781565	8.900900E+01	  0.110781565	2.050000E+00	  0.110781565	5.082900E+01
455	  0.110981964	-3.530000E-01	  0.110981964	8.868900E+01	  0.110981964	2.082000E+00	  0.110981964	5.111300E+01
456	  0.111182362	-3.500000E-01	  0.111182362	8.835600E+01	  0.111182362	2.076000E+00	  0.111182362	5.141200E+01
457	  0.111382768	-3.560000E-01	  0.111382768	8.799000E+01	  0.111382768	2.125000E+00	  0.111382768	5.174000E+01
458	  0.111583166	-3.520000E-01	  0.111583166	8.765600E+01	  0.111583166	2.115000E+00	  0.111583166	5.204200E+01
459	  0.111783572	-3.580000E-01	  0.111783572	8.734300E+01	  0.111783572	2.163000E+00	  0.111783572	5.232700E+01
460	  0.111983970	-3.600000E-01	  0.111983970	8.697900E+01	  0.111983970	2.191000E+00	  0.111983970	5.266000E+01
461	  0.112184368	-3.620000E-01	  0.112184368	8.669500E+01	  0.112184368	2.211000E+00	  0.112184368	5.292100E+01
462	  0.112384774	-3.630000E-01	  0.112384774	8.634800E+01	  0.112384774	2.233000E+00	  0.112384774	5.324200E+01
463	  0.112585172	-3.580000E-01	  0.112585172	8.600400E+01	  0.112585172	2.217000E+00	  0.112585172	5.356500E+01
464	  0.112785570	-3.610000E-01	  0.112785570	8.568600E+01	  0.112785570	2.248000E+00	  0.112785570	5.386300E+01
465	  0.112985976	-3.560000E-01	  0.112985976	8.534800E+01	  0.112985976	2.233000E+00	  0.112985976	5.418300E+01
466	  0.113186374	-3.560000E-01	  0.113186374	8.503200E+01	  0.113186374	2.244000E+00	  0.113186374	5.448400E+01
467	  0.113386773	-3.530000E-01	  0.113386773	8.473800E+01	  0.113386773	2.238000E+00	  0.113386773	5.476500E+01
468	  0.113587178	-3.540000E-01	  0.113587178	8.440200E+01	  0.113587178	2.261000E+00	  0.113587178	5.508900E+01
469	  0.113787577	-3.500000E-01	  0.113787577	8.410200E+01	  0.113787577	2.248000E+00	  0.113787577	5.538000E+01
470	  0.113987975	-3.450000E-01	  0.113987975	8.380500E+01	  0.113987975	2.228000E+00	  0.113987975	5.567100E+01
471	  0.114188381	-3.450000E-01	  0.114188381	8.350200E+01	  0.114188381	2.239000E+00	  0.114188381	5.596800E+01
472	  0.114388779	-3.420000E-01	  0.114388779	8.321100E+01	  0.114388779	2.236000E+00	  0.114388779	5.625400E+01
473	  0.114589177	-3.440000E-01	  0.114589177	8.292900E+01	  0.114589177	2.258000E+00	  0.114589177	5.653400E+01
474	  0.114789583	-3.450000E-01	  0.114789583	8.264500E+01	  0.114789583	2.276000E+00	  0.114789583	5.681700E+01
475	  0.114989981	-3.370000E-01	  0.114989981	8.235700E+01	  0.114989981	2.241000E+00	  0.114989981	5.710700E+01
476	  0.115190387	-3.400000E-01	  0.115190387	8.205000E+01	  0.115190387	2.276000E+00	  0.115190387	5.741600E+01
477	  0.115390785	-3.440000E-01	  0.115390785	8.175100E+01	  0.115390785	2.311000E+00	  0.115390785	5.771800E+01
478	  0.115591183	-3.430000E-01	  0.115591183	8.147800E+01	  0.115591183	2.316000E+00	  0.115591183	5.799600E+01
479	  0.115791589	-3.450000E-01	  0.115791589	8.116100E+01	  0.115791589	2.349000E+00	  0.115791589	5.832100E+01
480	  0.115991987	-3.490000E-01	  0.115991987	8.086000E+01	  0.115991987	2.388000E+00	  0.115991987	5.863100E+01
481	  0.116192386	-3.480000E-01	  0.116192386	8.053600E+01	  0.116192386	2.397000E+00	  0.116192386	5.896700E+01
482	  0.116392791	-3.550000E-01	  0.116392791	8.021800E+01	  0.116392791	2.466000E+00	  0.116392791	5.929700E+01
483	  0.116593190	-3.520000E-01	  0.116593190	7.991400E+01	  0.116593190	2.458000E+00	  0.116593190	5.961800E+01
484	  0.116793588	-3.550000E-01	  0.116793588	7.955800E+01	  0.116793588	2.494000E+00	  0.116793588	5.999400E+01
485	  0.116993994	-3.540000E-01	  0.116993994	7.922300E+01	  0.116993994	2.509000E+00	  0.116993994	6.035200E+01
486	  0.117194392	-3.600000E-01	  0.117194392	7.890600E+01	  0.117194392	2.567000E+00	  0.117194392	6.069100E+01
487	  0.117394790	-3.600000E-01	  0.117394790	7.856900E+01	  0.117394790	2.586000E+00	  0.117394790	6.105500E+01
488	  0.117595196	-3.600000E-01	  0.117595196	7.823100E+01	  0.117595196	2.606000E+00	  0.117595196	6.142400E+01
489	  0.117795594	-3.530000E-01	  0.117795594	7.791300E+01	  0.117795594	2.573000E+00	  0.117795594	6.177500E+01
490	  0.117995992	-3.530000E-01	  0.117995992	7.756900E+01	  0.117995992	2.588000E+00	  0.117995992	6.215600E+01
491	  0.118196398	-3.520000E-01	  0.118196398	7.726300E+01	  0.118196398	2.601000E+00	  0.118196398	6.249700E+01
492	  0.118396796	-3.420000E-01	  0.118396796	7.694600E+01	  0.118396796	2.543000E+00	  0.118396796	6.285600E+01
493	  0.118597202	-3.390000E-01	  0.118597202	7.666200E+01	  0.118597202	2.541000E+00	  0.118597202	6.317700E+01
494	  0.118797600	-3.420000E-01	  0.118797600	7.636100E+01	  0.118797600	2.578000E+00	  0.118797600	6.351700E+01
495	  0.118997999	-3.330000E-01	  0.118997999	7.608500E+01	  0.118997999	2.522000E+00	  0.118997999	6.383700E+01
496	  0.119198404	-3.330000E-01	  0.119198404	7.582200E+01	  0.119198404	2.540000E+00	  0.119198404	6.413900E+01
497	  0.119398803	-3.310000E-01	  0.119398803	7.552200E+01	  0.119398803	2.543000E+00	  0.119398803	6.448700E+01
498	  0.119599201	-3.330000E-01	  0.119599201	7.526700E+01	  0.119599201	2.572000E+00	  0.119599201	6.478200E+01
499	  0.119799607	-3.270000E-01	  0.119799607	7.499900E+01	  0.119799607	2.538000E+00	  0.119799607	6.509900E+01
500	  0.120000005	-3.300000E-01	  0.120000005	7.474300E+01	  0.120000005	2.578000E+00	  0.120000005	6.540000E+01
