! Anritsu VNA Master:             	Model: MS2036C/10/77
! SN:             	1601066
! /card0/usr/18may27.balun/252b.66.3.txt
! Existing Calibration Information:
! TYPE:             	Current Settings	Active Cal Settings
! TIME:             	05/27/2018 12:58:31 PM	05/27/2018 12:49:51 PM
! INTERNAL TEMP:    	52.3 C	52.5 C
! # POINTS:         	500	500
! START FREQ:       	20.000 MHz	20.000 MHz
! STOP FREQ:        	120.000 MHz	120.000 MHz
! SOURCE POWER:     	High	High
! IFBW:             	50 Hz	50 Hz
! AVG FACTOR:       	  1 	  1 
! REF PLANE 1:      	0 mm	0 mm
! REF PLANE 2:      	0 mm	0 mm
! CAL TYPE:         	Full S11	Full S11
! CAL METHOD:       	SOLT	SOLT
! CAL LINE TYPE:    	Coax	Coax
! DUT PORT 1:       	K-Conn(M)	K-Conn(M)
! DUT PORT 2:       	K-Conn(M)	K-Conn(M)
! CAL STATUS:       	OK: Accuracy High	--
! PROP-V:       	0.700
! CABLE LOSS:       	0.000 dB/m
! REF IMPEDANCE:       	50.0
! Trace Specific Parameters:	TR1	TR2	TR3	TR4
! TRACE.#.Y (GRAPH TYPE)	LOG MAG	PHASE	REAL IMPEDANCE	IMAGINARY IMPEDANCE
! TRACE.#.X 	FREQ.GHZ	FREQ.GHZ	FREQ.GHZ	FREQ.GHZ
! S-PARAMETER	S11	S11	S11	S11
! SMOOTH/APERTURE %	0	0	0	0
! WINDOW	NSL	NSL	NSL	NSL
! GATING	OFF	OFF	OFF	OFF
! FGTD	OFF	OFF	OFF	OFF
Marker Information per Trace:	TR1	TR2	TR3	TR4
!MK1	--	--	--	"MK1 TR4:  70.100 200 MHz,Z:(0.852 ohm, 7.312 ohm)"
!MK2	--	--	--	--
!MK3	--	--	--	--
!MK4	--	--	--	--
!MK5	--	--	--	--
!MK6	--	--	--	--
!MK7	--	--	--	--
!MK8	--	--	--	--
PNT	TR1.FREQ.GHZ	TR1.LOG MAG.dB	TR2.FREQ.GHZ	TR2.PHASE.deg	TR3.FREQ.GHZ	TR3.REAL IMPEDANCE.ohm	TR4.FREQ.GHZ	TR4.IMAGINARY IMPEDANCE.ohm
1	  0.020000000	-3.900000E-02	  0.020000000	-6.824300E+01	  0.020000000	3.650000E-01	  0.020000000	-7.378800E+01
2	  0.020200402	-3.600000E-02	  0.020200402	-6.890800E+01	  0.020200402	3.300000E-01	  0.020200402	-7.287300E+01
3	  0.020400802	-3.600000E-02	  0.020400802	-6.956200E+01	  0.020400802	3.180000E-01	  0.020400802	-7.199000E+01
4	  0.020601204	-3.500000E-02	  0.020601204	-7.020100E+01	  0.020601204	3.060000E-01	  0.020601204	-7.113900E+01
5	  0.020801604	-3.200000E-02	  0.020801604	-7.084900E+01	  0.020801604	2.770000E-01	  0.020801604	-7.029100E+01
6	  0.021002004	-3.300000E-02	  0.021002004	-7.151500E+01	  0.021002004	2.860000E-01	  0.021002004	-6.943300E+01
7	  0.021202406	-3.700000E-02	  0.021202406	-7.215700E+01	  0.021202406	3.100000E-01	  0.021202406	-6.862000E+01
8	  0.021402806	-4.000000E-02	  0.021402806	-7.280700E+01	  0.021402806	3.320000E-01	  0.021402806	-6.780800E+01
9	  0.021603208	-4.400000E-02	  0.021603208	-7.342800E+01	  0.021603208	3.590000E-01	  0.021603208	-6.704400E+01
10	  0.021803608	-4.700000E-02	  0.021803608	-7.406300E+01	  0.021803608	3.750000E-01	  0.021803608	-6.627400E+01
11	  0.022004008	-5.000000E-02	  0.022004008	-7.465900E+01	  0.022004008	3.980000E-01	  0.022004008	-6.556100E+01
12	  0.022204408	-5.500000E-02	  0.022204408	-7.531500E+01	  0.022204408	4.260000E-01	  0.022204408	-6.478900E+01
13	  0.022404809	-5.600000E-02	  0.022404809	-7.596300E+01	  0.022404809	4.300000E-01	  0.022404809	-6.403700E+01
14	  0.022605211	-5.500000E-02	  0.022605211	-7.659000E+01	  0.022605211	4.180000E-01	  0.022605211	-6.331900E+01
15	  0.022805611	-5.200000E-02	  0.022805611	-7.723400E+01	  0.022805611	3.860000E-01	  0.022805611	-6.259300E+01
16	  0.023006011	-4.500000E-02	  0.023006011	-7.788400E+01	  0.023006011	3.340000E-01	  0.023006011	-6.187100E+01
17	  0.023206413	-3.800000E-02	  0.023206413	-7.851300E+01	  0.023206413	2.730000E-01	  0.023206413	-6.118100E+01
18	  0.023406813	-3.300000E-02	  0.023406813	-7.915100E+01	  0.023406813	2.350000E-01	  0.023406813	-6.049100E+01
19	  0.023607215	-2.900000E-02	  0.023607215	-7.977000E+01	  0.023607215	2.090000E-01	  0.023607215	-5.983000E+01
20	  0.023807615	-3.300000E-02	  0.023807615	-8.036500E+01	  0.023807615	2.320000E-01	  0.023807615	-5.920200E+01
21	  0.024008015	-3.800000E-02	  0.024008015	-8.092600E+01	  0.024008015	2.630000E-01	  0.024008015	-5.861800E+01
22	  0.024208417	-4.400000E-02	  0.024208417	-8.151000E+01	  0.024208417	3.020000E-01	  0.024208417	-5.801500E+01
23	  0.024408817	-5.000000E-02	  0.024408817	-8.207800E+01	  0.024408817	3.360000E-01	  0.024408817	-5.743800E+01
24	  0.024609219	-5.600000E-02	  0.024609219	-8.267400E+01	  0.024609219	3.710000E-01	  0.024609219	-5.683700E+01
25	  0.024809619	-5.800000E-02	  0.024809619	-8.328700E+01	  0.024809619	3.780000E-01	  0.024809619	-5.622800E+01
26	  0.025010020	-6.400000E-02	  0.025010020	-8.394600E+01	  0.025010020	4.130000E-01	  0.025010020	-5.558100E+01
27	  0.025210422	-6.600000E-02	  0.025210422	-8.460300E+01	  0.025210422	4.240000E-01	  0.025210422	-5.494400E+01
28	  0.025410822	-6.800000E-02	  0.025410822	-8.527000E+01	  0.025410822	4.320000E-01	  0.025410822	-5.430500E+01
29	  0.025611224	-6.700000E-02	  0.025611224	-8.592300E+01	  0.025611224	4.200000E-01	  0.025611224	-5.368800E+01
30	  0.025811624	-6.600000E-02	  0.025811624	-8.658900E+01	  0.025811624	4.080000E-01	  0.025811624	-5.306600E+01
31	  0.026012026	-6.000000E-02	  0.026012026	-8.720400E+01	  0.026012026	3.640000E-01	  0.026012026	-5.249900E+01
32	  0.026212426	-5.600000E-02	  0.026212426	-8.781500E+01	  0.026212426	3.400000E-01	  0.026212426	-5.194200E+01
33	  0.026412826	-6.100000E-02	  0.026412826	-8.841400E+01	  0.026412826	3.640000E-01	  0.026412826	-5.140100E+01
34	  0.026613226	-6.600000E-02	  0.026613226	-8.901400E+01	  0.026613226	3.900000E-01	  0.026613226	-5.086500E+01
35	  0.026813626	-7.100000E-02	  0.026813626	-8.959200E+01	  0.026813626	4.120000E-01	  0.026813626	-5.035500E+01
36	  0.027014028	-7.800000E-02	  0.027014028	-9.014200E+01	  0.027014028	4.490000E-01	  0.027014028	-4.987300E+01
37	  0.027214428	-8.900000E-02	  0.027214428	-9.073400E+01	  0.027214428	5.110000E-01	  0.027214428	-4.936000E+01
38	  0.027414829	-9.900000E-02	  0.027414829	-9.135200E+01	  0.027414829	5.570000E-01	  0.027414829	-4.883000E+01
39	  0.027615231	-1.060000E-01	  0.027615231	-9.202300E+01	  0.027615231	5.890000E-01	  0.027615231	-4.826100E+01
40	  0.027815631	-1.050000E-01	  0.027815631	-9.271500E+01	  0.027815631	5.790000E-01	  0.027815631	-4.768100E+01
41	  0.028016033	-1.020000E-01	  0.028016033	-9.338600E+01	  0.028016033	5.590000E-01	  0.028016033	-4.712500E+01
42	  0.028216433	-9.200000E-02	  0.028216433	-9.406500E+01	  0.028216433	4.950000E-01	  0.028216433	-4.657000E+01
43	  0.028416833	-8.300000E-02	  0.028416833	-9.472100E+01	  0.028416833	4.450000E-01	  0.028416833	-4.603800E+01
44	  0.028617235	-7.400000E-02	  0.028617235	-9.535300E+01	  0.028617235	3.910000E-01	  0.028617235	-4.553100E+01
45	  0.028817635	-6.700000E-02	  0.028817635	-9.593800E+01	  0.028817635	3.510000E-01	  0.028817635	-4.506700E+01
46	  0.029018037	-6.000000E-02	  0.029018037	-9.649300E+01	  0.029018037	3.130000E-01	  0.029018037	-4.463000E+01
47	  0.029218437	-5.400000E-02	  0.029218437	-9.701300E+01	  0.029218437	2.800000E-01	  0.029218437	-4.422500E+01
48	  0.029418837	-5.000000E-02	  0.029418837	-9.752500E+01	  0.029418837	2.570000E-01	  0.029418837	-4.382800E+01
49	  0.029619239	-4.800000E-02	  0.029619239	-9.800500E+01	  0.029619239	2.420000E-01	  0.029619239	-4.345900E+01
50	  0.029819639	-5.100000E-02	  0.029819639	-9.852400E+01	  0.029819639	2.600000E-01	  0.029819639	-4.306300E+01
51	  0.030020041	-5.900000E-02	  0.030020041	-9.907900E+01	  0.030020041	2.950000E-01	  0.030020041	-4.264300E+01
52	  0.030220442	-6.700000E-02	  0.030220442	-9.966100E+01	  0.030220442	3.300000E-01	  0.030220442	-4.220500E+01
53	  0.030420844	-7.900000E-02	  0.030420844	-1.002640E+02	  0.030420844	3.890000E-01	  0.030420844	-4.175700E+01
54	  0.030621244	-8.800000E-02	  0.030621244	-1.009270E+02	  0.030621244	4.290000E-01	  0.030621244	-4.126800E+01
55	  0.030821644	-8.800000E-02	  0.030821644	-1.015710E+02	  0.030821644	4.250000E-01	  0.030821644	-4.079800E+01
56	  0.031022044	-8.700000E-02	  0.031022044	-1.021750E+02	  0.031022044	4.130000E-01	  0.031022044	-4.036000E+01
57	  0.031222444	-8.100000E-02	  0.031222444	-1.027920E+02	  0.031222444	3.820000E-01	  0.031222444	-3.991800E+01
58	  0.031422846	-7.800000E-02	  0.031422846	-1.033890E+02	  0.031422846	3.680000E-01	  0.031422846	-3.949400E+01
59	  0.031623244	-8.000000E-02	  0.031623244	-1.039490E+02	  0.031623244	3.730000E-01	  0.031623244	-3.909800E+01
60	  0.031823646	-8.000000E-02	  0.031823646	-1.044780E+02	  0.031823646	3.720000E-01	  0.031823646	-3.872700E+01
61	  0.032024048	-8.200000E-02	  0.032024048	-1.049870E+02	  0.032024048	3.770000E-01	  0.032024048	-3.837300E+01
62	  0.032224450	-9.000000E-02	  0.032224450	-1.055060E+02	  0.032224450	4.110000E-01	  0.032224450	-3.801500E+01
63	  0.032424849	-1.030000E-01	  0.032424849	-1.060370E+02	  0.032424849	4.650000E-01	  0.032424849	-3.764900E+01
64	  0.032625251	-1.120000E-01	  0.032625251	-1.066010E+02	  0.032625251	5.050000E-01	  0.032625251	-3.726500E+01
65	  0.032825653	-1.240000E-01	  0.032825653	-1.072190E+02	  0.032825653	5.510000E-01	  0.032825653	-3.684700E+01
66	  0.033026051	-1.280000E-01	  0.033026051	-1.078190E+02	  0.033026051	5.650000E-01	  0.033026051	-3.644400E+01
67	  0.033226453	-1.310000E-01	  0.033226453	-1.084370E+02	  0.033226453	5.760000E-01	  0.033226453	-3.603300E+01
68	  0.033426855	-1.320000E-01	  0.033426855	-1.090660E+02	  0.033426855	5.760000E-01	  0.033426855	-3.561800E+01
69	  0.033627257	-1.350000E-01	  0.033627257	-1.096980E+02	  0.033627257	5.830000E-01	  0.033627257	-3.520300E+01
70	  0.033827655	-1.350000E-01	  0.033827655	-1.103490E+02	  0.033827655	5.780000E-01	  0.033827655	-3.478000E+01
71	  0.034028057	-1.320000E-01	  0.034028057	-1.109660E+02	  0.034028057	5.600000E-01	  0.034028057	-3.438200E+01
72	  0.034228459	-1.230000E-01	  0.034228459	-1.115430E+02	  0.034228459	5.200000E-01	  0.034228459	-3.401300E+01
73	  0.034428857	-1.170000E-01	  0.034428857	-1.121230E+02	  0.034428857	4.910000E-01	  0.034428857	-3.364400E+01
74	  0.034629259	-1.050000E-01	  0.034629259	-1.126710E+02	  0.034629259	4.400000E-01	  0.034629259	-3.329800E+01
75	  0.034829661	-9.700000E-02	  0.034829661	-1.131900E+02	  0.034829661	4.030000E-01	  0.034829661	-3.297300E+01
76	  0.035030060	-9.400000E-02	  0.035030060	-1.136960E+02	  0.035030060	3.870000E-01	  0.035030060	-3.265700E+01
77	  0.035230462	-9.400000E-02	  0.035230462	-1.141890E+02	  0.035230462	3.840000E-01	  0.035230462	-3.235100E+01
78	  0.035430863	-9.300000E-02	  0.035430863	-1.146880E+02	  0.035430863	3.780000E-01	  0.035430863	-3.204300E+01
79	  0.035631265	-1.000000E-01	  0.035631265	-1.152200E+02	  0.035631265	4.050000E-01	  0.035631265	-3.171700E+01
80	  0.035831664	-1.070000E-01	  0.035831664	-1.157690E+02	  0.035831664	4.320000E-01	  0.035831664	-3.138100E+01
81	  0.036032066	-1.180000E-01	  0.036032066	-1.163540E+02	  0.036032066	4.710000E-01	  0.036032066	-3.102600E+01
82	  0.036232468	-1.260000E-01	  0.036232468	-1.169530E+02	  0.036232468	4.990000E-01	  0.036232468	-3.066500E+01
83	  0.036432866	-1.310000E-01	  0.036432866	-1.176000E+02	  0.036432866	5.160000E-01	  0.036432866	-3.027800E+01
84	  0.036633268	-1.300000E-01	  0.036633268	-1.182270E+02	  0.036633268	5.080000E-01	  0.036633268	-2.990500E+01
85	  0.036833670	-1.270000E-01	  0.036833670	-1.188310E+02	  0.036833670	4.940000E-01	  0.036833670	-2.954900E+01
86	  0.037034072	-1.150000E-01	  0.037034072	-1.193730E+02	  0.037034072	4.460000E-01	  0.037034072	-2.923100E+01
87	  0.037234470	-1.060000E-01	  0.037234470	-1.198770E+02	  0.037234470	4.080000E-01	  0.037234470	-2.893700E+01
88	  0.037434869	-1.030000E-01	  0.037434869	-1.203440E+02	  0.037434869	3.950000E-01	  0.037434869	-2.866600E+01
89	  0.037635271	-1.030000E-01	  0.037635271	-1.208330E+02	  0.037635271	3.920000E-01	  0.037635271	-2.838300E+01
90	  0.037835669	-1.100000E-01	  0.037835669	-1.213140E+02	  0.037835669	4.180000E-01	  0.037835669	-2.810600E+01
91	  0.038036071	-1.200000E-01	  0.038036071	-1.218580E+02	  0.038036071	4.530000E-01	  0.038036071	-2.779400E+01
92	  0.038236473	-1.270000E-01	  0.038236473	-1.224070E+02	  0.038236473	4.780000E-01	  0.038236473	-2.748100E+01
93	  0.038436871	-1.320000E-01	  0.038436871	-1.229460E+02	  0.038436871	4.940000E-01	  0.038436871	-2.717600E+01
94	  0.038637273	-1.390000E-01	  0.038637273	-1.234910E+02	  0.038637273	5.170000E-01	  0.038637273	-2.686800E+01
95	  0.038837675	-1.470000E-01	  0.038837675	-1.240500E+02	  0.038837675	5.420000E-01	  0.038837675	-2.655500E+01
96	  0.039038073	-1.540000E-01	  0.039038073	-1.246380E+02	  0.039038073	5.650000E-01	  0.039038073	-2.622600E+01
97	  0.039238475	-1.580000E-01	  0.039238475	-1.252080E+02	  0.039238475	5.780000E-01	  0.039238475	-2.591000E+01
98	  0.039438877	-1.570000E-01	  0.039438877	-1.257840E+02	  0.039438877	5.720000E-01	  0.039438877	-2.559200E+01
99	  0.039639279	-1.530000E-01	  0.039639279	-1.263550E+02	  0.039639279	5.540000E-01	  0.039639279	-2.527800E+01
100	  0.039839678	-1.480000E-01	  0.039839678	-1.268750E+02	  0.039839678	5.330000E-01	  0.039839678	-2.499400E+01
101	  0.040040080	-1.450000E-01	  0.040040080	-1.273940E+02	  0.040040080	5.190000E-01	  0.040040080	-2.471200E+01
102	  0.040240481	-1.400000E-01	  0.040240481	-1.279010E+02	  0.040240481	4.990000E-01	  0.040240481	-2.443800E+01
103	  0.040440880	-1.380000E-01	  0.040440880	-1.284230E+02	  0.040440880	4.910000E-01	  0.040440880	-2.415600E+01
104	  0.040641282	-1.370000E-01	  0.040641282	-1.289490E+02	  0.040641282	4.850000E-01	  0.040641282	-2.387400E+01
105	  0.040841684	-1.370000E-01	  0.040841684	-1.294550E+02	  0.040841684	4.840000E-01	  0.040841684	-2.360300E+01
106	  0.041042086	-1.410000E-01	  0.041042086	-1.299460E+02	  0.041042086	4.950000E-01	  0.041042086	-2.334100E+01
107	  0.041242484	-1.480000E-01	  0.041242484	-1.304420E+02	  0.041242484	5.160000E-01	  0.041242484	-2.307800E+01
108	  0.041442886	-1.620000E-01	  0.041442886	-1.309780E+02	  0.041442886	5.640000E-01	  0.041442886	-2.279500E+01
109	  0.041643288	-1.710000E-01	  0.041643288	-1.315480E+02	  0.041643288	5.920000E-01	  0.041643288	-2.249500E+01
110	  0.041843686	-1.750000E-01	  0.041843686	-1.321320E+02	  0.041843686	6.050000E-01	  0.041843686	-2.218900E+01
111	  0.042044088	-1.720000E-01	  0.042044088	-1.327240E+02	  0.042044088	5.900000E-01	  0.042044088	-2.188100E+01
112	  0.042244490	-1.600000E-01	  0.042244490	-1.332850E+02	  0.042244490	5.460000E-01	  0.042244490	-2.159000E+01
113	  0.042444889	-1.490000E-01	  0.042444889	-1.337920E+02	  0.042444889	5.080000E-01	  0.042444889	-2.132800E+01
114	  0.042645290	-1.420000E-01	  0.042645290	-1.342640E+02	  0.042645290	4.810000E-01	  0.042645290	-2.108600E+01
115	  0.042845692	-1.420000E-01	  0.042845692	-1.347460E+02	  0.042845692	4.810000E-01	  0.042845692	-2.083800E+01
116	  0.043046094	-1.450000E-01	  0.043046094	-1.352300E+02	  0.043046094	4.900000E-01	  0.043046094	-2.059100E+01
117	  0.043246493	-1.490000E-01	  0.043246493	-1.357280E+02	  0.043246493	5.020000E-01	  0.043246493	-2.033700E+01
118	  0.043446895	-1.540000E-01	  0.043446895	-1.362260E+02	  0.043446895	5.160000E-01	  0.043446895	-2.008400E+01
119	  0.043647297	-1.570000E-01	  0.043647297	-1.367140E+02	  0.043647297	5.240000E-01	  0.043647297	-1.983700E+01
120	  0.043847695	-1.610000E-01	  0.043847695	-1.372090E+02	  0.043847695	5.350000E-01	  0.043847695	-1.958800E+01
121	  0.044048097	-1.690000E-01	  0.044048097	-1.377210E+02	  0.044048097	5.590000E-01	  0.044048097	-1.933000E+01
122	  0.044248499	-1.740000E-01	  0.044248499	-1.382680E+02	  0.044248499	5.740000E-01	  0.044248499	-1.905600E+01
123	  0.044448901	-1.750000E-01	  0.044448901	-1.387840E+02	  0.044448901	5.760000E-01	  0.044448901	-1.879900E+01
124	  0.044649299	-1.740000E-01	  0.044649299	-1.393080E+02	  0.044649299	5.700000E-01	  0.044649299	-1.853900E+01
125	  0.044849701	-1.740000E-01	  0.044849701	-1.398130E+02	  0.044849701	5.690000E-01	  0.044849701	-1.828800E+01
126	  0.045050103	-1.730000E-01	  0.045050103	-1.403110E+02	  0.045050103	5.650000E-01	  0.045050103	-1.804200E+01
127	  0.045250501	-1.740000E-01	  0.045250501	-1.408130E+02	  0.045250501	5.650000E-01	  0.045250501	-1.779500E+01
128	  0.045450903	-1.750000E-01	  0.045450903	-1.413170E+02	  0.045450903	5.670000E-01	  0.045450903	-1.754800E+01
129	  0.045651305	-1.750000E-01	  0.045651305	-1.418510E+02	  0.045651305	5.660000E-01	  0.045651305	-1.728600E+01
130	  0.045851704	-1.720000E-01	  0.045851704	-1.423580E+02	  0.045851704	5.530000E-01	  0.045851704	-1.703900E+01
131	  0.046052106	-1.690000E-01	  0.046052106	-1.428610E+02	  0.046052106	5.430000E-01	  0.046052106	-1.679500E+01
132	  0.046252504	-1.710000E-01	  0.046252504	-1.433360E+02	  0.046252504	5.460000E-01	  0.046252504	-1.656400E+01
133	  0.046452906	-1.760000E-01	  0.046452906	-1.438170E+02	  0.046452906	5.610000E-01	  0.046452906	-1.633200E+01
134	  0.046653304	-1.860000E-01	  0.046653304	-1.442950E+02	  0.046653304	5.930000E-01	  0.046653304	-1.610100E+01
135	  0.046853706	-1.960000E-01	  0.046853706	-1.448280E+02	  0.046853706	6.210000E-01	  0.046853706	-1.584400E+01
136	  0.047054108	-1.990000E-01	  0.047054108	-1.453740E+02	  0.047054108	6.310000E-01	  0.047054108	-1.558300E+01
137	  0.047254506	-1.990000E-01	  0.047254506	-1.459300E+02	  0.047254506	6.280000E-01	  0.047254506	-1.531700E+01
138	  0.047454908	-1.940000E-01	  0.047454908	-1.464760E+02	  0.047454908	6.090000E-01	  0.047454908	-1.505700E+01
139	  0.047655310	-1.880000E-01	  0.047655310	-1.469560E+02	  0.047655310	5.910000E-01	  0.047655310	-1.482900E+01
140	  0.047855709	-1.840000E-01	  0.047855709	-1.474530E+02	  0.047855709	5.770000E-01	  0.047855709	-1.459300E+01
141	  0.048056111	-1.820000E-01	  0.048056111	-1.479270E+02	  0.048056111	5.700000E-01	  0.048056111	-1.436900E+01
142	  0.048256513	-1.840000E-01	  0.048256513	-1.484090E+02	  0.048256513	5.720000E-01	  0.048256513	-1.414200E+01
143	  0.048456915	-1.860000E-01	  0.048456915	-1.488940E+02	  0.048456915	5.760000E-01	  0.048456915	-1.391400E+01
144	  0.048657313	-1.850000E-01	  0.048657313	-1.493610E+02	  0.048657313	5.740000E-01	  0.048657313	-1.369400E+01
145	  0.048857715	-1.870000E-01	  0.048857715	-1.498180E+02	  0.048857715	5.790000E-01	  0.048857715	-1.348000E+01
146	  0.049058117	-1.940000E-01	  0.049058117	-1.502780E+02	  0.049058117	5.990000E-01	  0.049058117	-1.326500E+01
147	  0.049258515	-1.990000E-01	  0.049258515	-1.507680E+02	  0.049258515	6.130000E-01	  0.049258515	-1.303600E+01
148	  0.049458917	-2.010000E-01	  0.049458917	-1.512710E+02	  0.049458917	6.170000E-01	  0.049458917	-1.280200E+01
149	  0.049659319	-2.030000E-01	  0.049659319	-1.517670E+02	  0.049659319	6.230000E-01	  0.049659319	-1.257200E+01
150	  0.049859721	-2.020000E-01	  0.049859721	-1.522380E+02	  0.049859721	6.180000E-01	  0.049859721	-1.235400E+01
151	  0.050060119	-2.010000E-01	  0.050060119	-1.527030E+02	  0.050060119	6.150000E-01	  0.050060119	-1.213900E+01
152	  0.050260521	-2.040000E-01	  0.050260521	-1.531630E+02	  0.050260521	6.230000E-01	  0.050260521	-1.192600E+01
153	  0.050460923	-2.060000E-01	  0.050460923	-1.536390E+02	  0.050460923	6.260000E-01	  0.050460923	-1.170700E+01
154	  0.050661322	-2.050000E-01	  0.050661322	-1.541260E+02	  0.050661322	6.230000E-01	  0.050661322	-1.148300E+01
155	  0.050861724	-2.050000E-01	  0.050861724	-1.546200E+02	  0.050861724	6.210000E-01	  0.050861724	-1.125600E+01
156	  0.051062126	-2.020000E-01	  0.051062126	-1.550920E+02	  0.051062126	6.100000E-01	  0.051062126	-1.104000E+01
157	  0.051262524	-2.000000E-01	  0.051262524	-1.555690E+02	  0.051262524	6.030000E-01	  0.051262524	-1.082200E+01
158	  0.051462926	-2.020000E-01	  0.051462926	-1.560160E+02	  0.051462926	6.080000E-01	  0.051462926	-1.061800E+01
159	  0.051663328	-2.060000E-01	  0.051663328	-1.564630E+02	  0.051663328	6.190000E-01	  0.051663328	-1.041500E+01
160	  0.051863730	-2.110000E-01	  0.051863730	-1.569170E+02	  0.051863730	6.340000E-01	  0.051863730	-1.020800E+01
161	  0.052064128	-2.170000E-01	  0.052064128	-1.574040E+02	  0.052064128	6.500000E-01	  0.052064128	-9.987000E+00
162	  0.052264530	-2.220000E-01	  0.052264530	-1.578970E+02	  0.052264530	6.650000E-01	  0.052264530	-9.763000E+00
163	  0.052464932	-2.200000E-01	  0.052464932	-1.584080E+02	  0.052464932	6.570000E-01	  0.052464932	-9.532000E+00
164	  0.052665330	-2.190000E-01	  0.052665330	-1.588920E+02	  0.052665330	6.540000E-01	  0.052665330	-9.313000E+00
165	  0.052865732	-2.170000E-01	  0.052865732	-1.593780E+02	  0.052865732	6.450000E-01	  0.052865732	-9.094000E+00
166	  0.053066134	-2.160000E-01	  0.053066134	-1.598460E+02	  0.053066134	6.430000E-01	  0.053066134	-8.884000E+00
167	  0.053266536	-2.160000E-01	  0.053266536	-1.603200E+02	  0.053266536	6.410000E-01	  0.053266536	-8.670000E+00
168	  0.053466935	-2.150000E-01	  0.053466935	-1.607980E+02	  0.053466935	6.380000E-01	  0.053466935	-8.456000E+00
169	  0.053667337	-2.150000E-01	  0.053667337	-1.612560E+02	  0.053667337	6.350000E-01	  0.053667337	-8.250000E+00
170	  0.053867739	-2.110000E-01	  0.053867739	-1.617110E+02	  0.053867739	6.250000E-01	  0.053867739	-8.047000E+00
171	  0.054068137	-2.190000E-01	  0.054068137	-1.621610E+02	  0.054068137	6.470000E-01	  0.054068137	-7.845000E+00
172	  0.054268539	-2.220000E-01	  0.054268539	-1.626280E+02	  0.054268539	6.540000E-01	  0.054268539	-7.636000E+00
173	  0.054468941	-2.260000E-01	  0.054468941	-1.630870E+02	  0.054468941	6.650000E-01	  0.054468941	-7.432000E+00
174	  0.054669339	-2.260000E-01	  0.054669339	-1.635660E+02	  0.054669339	6.650000E-01	  0.054669339	-7.218000E+00
175	  0.054869737	-2.270000E-01	  0.054869737	-1.640320E+02	  0.054869737	6.670000E-01	  0.054869737	-7.011000E+00
176	  0.055070139	-2.260000E-01	  0.055070139	-1.644840E+02	  0.055070139	6.650000E-01	  0.055070139	-6.810000E+00
177	  0.055270538	-2.270000E-01	  0.055270538	-1.649240E+02	  0.055270538	6.650000E-01	  0.055270538	-6.614000E+00
178	  0.055470940	-2.290000E-01	  0.055470940	-1.653710E+02	  0.055470940	6.700000E-01	  0.055470940	-6.416000E+00
179	  0.055671342	-2.290000E-01	  0.055671342	-1.658260E+02	  0.055671342	6.710000E-01	  0.055671342	-6.214000E+00
180	  0.055871744	-2.320000E-01	  0.055871744	-1.662800E+02	  0.055871744	6.770000E-01	  0.055871744	-6.013000E+00
181	  0.056072142	-2.320000E-01	  0.056072142	-1.667630E+02	  0.056072142	6.780000E-01	  0.056072142	-5.800000E+00
182	  0.056272544	-2.310000E-01	  0.056272544	-1.672020E+02	  0.056272544	6.740000E-01	  0.056272544	-5.606000E+00
183	  0.056472946	-2.290000E-01	  0.056472946	-1.676690E+02	  0.056472946	6.660000E-01	  0.056472946	-5.400000E+00
184	  0.056673344	-2.300000E-01	  0.056673344	-1.681160E+02	  0.056673344	6.700000E-01	  0.056673344	-5.202000E+00
185	  0.056873746	-2.300000E-01	  0.056873746	-1.685600E+02	  0.056873746	6.700000E-01	  0.056873746	-5.007000E+00
186	  0.057074148	-2.320000E-01	  0.057074148	-1.689940E+02	  0.057074148	6.750000E-01	  0.057074148	-4.816000E+00
187	  0.057274550	-2.360000E-01	  0.057274550	-1.694390E+02	  0.057274550	6.870000E-01	  0.057274550	-4.620000E+00
188	  0.057474948	-2.370000E-01	  0.057474948	-1.698800E+02	  0.057474948	6.890000E-01	  0.057474948	-4.426000E+00
189	  0.057675350	-2.410000E-01	  0.057675350	-1.703350E+02	  0.057675350	6.990000E-01	  0.057675350	-4.226000E+00
190	  0.057875752	-2.410000E-01	  0.057875752	-1.707950E+02	  0.057875752	6.990000E-01	  0.057875752	-4.024000E+00
191	  0.058076151	-2.420000E-01	  0.058076151	-1.712510E+02	  0.058076151	7.030000E-01	  0.058076151	-3.823000E+00
192	  0.058276553	-2.400000E-01	  0.058276553	-1.717020E+02	  0.058276553	6.950000E-01	  0.058276553	-3.625000E+00
193	  0.058476955	-2.390000E-01	  0.058476955	-1.721490E+02	  0.058476955	6.930000E-01	  0.058476955	-3.430000E+00
194	  0.058677353	-2.400000E-01	  0.058677353	-1.725950E+02	  0.058677353	6.940000E-01	  0.058677353	-3.234000E+00
195	  0.058877755	-2.390000E-01	  0.058877755	-1.730410E+02	  0.058877755	6.920000E-01	  0.058877755	-3.039000E+00
196	  0.059078157	-2.410000E-01	  0.059078157	-1.734720E+02	  0.059078157	6.980000E-01	  0.059078157	-2.850000E+00
197	  0.059278559	-2.430000E-01	  0.059278559	-1.739100E+02	  0.059278559	7.030000E-01	  0.059278559	-2.658000E+00
198	  0.059478957	-2.480000E-01	  0.059478957	-1.743560E+02	  0.059478957	7.160000E-01	  0.059478957	-2.464000E+00
199	  0.059679359	-2.480000E-01	  0.059679359	-1.748080E+02	  0.059679359	7.170000E-01	  0.059679359	-2.266000E+00
200	  0.059879761	-2.500000E-01	  0.059879761	-1.752400E+02	  0.059879761	7.220000E-01	  0.059879761	-2.077000E+00
201	  0.060080159	-2.510000E-01	  0.060080159	-1.756790E+02	  0.060080159	7.230000E-01	  0.060080159	-1.885000E+00
202	  0.060280561	-2.480000E-01	  0.060280561	-1.761070E+02	  0.060280561	7.170000E-01	  0.060280561	-1.698000E+00
203	  0.060480963	-2.490000E-01	  0.060480963	-1.765390E+02	  0.060480963	7.200000E-01	  0.060480963	-1.510000E+00
204	  0.060681365	-2.520000E-01	  0.060681365	-1.769670E+02	  0.060681365	7.280000E-01	  0.060681365	-1.323000E+00
205	  0.060881764	-2.530000E-01	  0.060881764	-1.774090E+02	  0.060881764	7.290000E-01	  0.060881764	-1.130000E+00
206	  0.061082166	-2.530000E-01	  0.061082166	-1.778360E+02	  0.061082166	7.280000E-01	  0.061082166	-9.440000E-01
207	  0.061282568	-2.540000E-01	  0.061282568	-1.782730E+02	  0.061282568	7.320000E-01	  0.061282568	-7.530000E-01
208	  0.061482966	-2.540000E-01	  0.061482966	-1.787150E+02	  0.061482966	7.330000E-01	  0.061482966	-5.600000E-01
209	  0.061683368	-2.530000E-01	  0.061683368	-1.791490E+02	  0.061683368	7.280000E-01	  0.061683368	-3.710000E-01
210	  0.061883770	-2.550000E-01	  0.061883770	-1.795790E+02	  0.061883770	7.350000E-01	  0.061883770	-1.830000E-01
211	  0.062084168	-2.560000E-01	  0.062084168	1.799900E+02	  0.062084168	7.370000E-01	  0.062084168	4.000000E-03
212	  0.062284570	-2.570000E-01	  0.062284570	1.795660E+02	  0.062284570	7.410000E-01	  0.062284570	1.890000E-01
213	  0.062484972	-2.590000E-01	  0.062484972	1.791790E+02	  0.062484972	7.450000E-01	  0.062484972	3.570000E-01
214	  0.062685370	-2.570000E-01	  0.062685370	1.787600E+02	  0.062685370	7.410000E-01	  0.062685370	5.400000E-01
215	  0.062885776	-2.620000E-01	  0.062885776	1.783300E+02	  0.062885776	7.550000E-01	  0.062885776	7.280000E-01
216	  0.063086174	-2.620000E-01	  0.063086174	1.778880E+02	  0.063086174	7.550000E-01	  0.063086174	9.210000E-01
217	  0.063286573	-2.590000E-01	  0.063286573	1.774600E+02	  0.063286573	7.460000E-01	  0.063286573	1.107000E+00
218	  0.063486971	-2.610000E-01	  0.063486971	1.770180E+02	  0.063486971	7.530000E-01	  0.063486971	1.300000E+00
219	  0.063687377	-2.600000E-01	  0.063687377	1.766140E+02	  0.063687377	7.510000E-01	  0.063687377	1.477000E+00
220	  0.063887775	-2.610000E-01	  0.063887775	1.761860E+02	  0.063887775	7.520000E-01	  0.063887775	1.664000E+00
221	  0.064088173	-2.620000E-01	  0.064088173	1.757740E+02	  0.064088173	7.570000E-01	  0.064088173	1.844000E+00
222	  0.064288579	-2.660000E-01	  0.064288579	1.753410E+02	  0.064288579	7.670000E-01	  0.064288579	2.033000E+00
223	  0.064488977	-2.680000E-01	  0.064488977	1.748970E+02	  0.064488977	7.730000E-01	  0.064488977	2.227000E+00
224	  0.064689375	-2.680000E-01	  0.064689375	1.744690E+02	  0.064689375	7.740000E-01	  0.064689375	2.414000E+00
225	  0.064889781	-2.690000E-01	  0.064889781	1.740440E+02	  0.064889781	7.760000E-01	  0.064889781	2.600000E+00
226	  0.065090179	-2.700000E-01	  0.065090179	1.736220E+02	  0.065090179	7.790000E-01	  0.065090179	2.784000E+00
227	  0.065290578	-2.730000E-01	  0.065290578	1.731970E+02	  0.065290578	7.880000E-01	  0.065290578	2.971000E+00
228	  0.065490983	-2.720000E-01	  0.065490983	1.728040E+02	  0.065490983	7.880000E-01	  0.065490983	3.143000E+00
229	  0.065691382	-2.720000E-01	  0.065691382	1.723770E+02	  0.065691382	7.880000E-01	  0.065691382	3.329000E+00
230	  0.065891780	-2.750000E-01	  0.065891780	1.719680E+02	  0.065891780	7.980000E-01	  0.065891780	3.509000E+00
231	  0.066092186	-2.750000E-01	  0.066092186	1.715420E+02	  0.066092186	7.960000E-01	  0.066092186	3.696000E+00
232	  0.066292584	-2.740000E-01	  0.066292584	1.711150E+02	  0.066292584	7.940000E-01	  0.066292584	3.883000E+00
233	  0.066492982	-2.740000E-01	  0.066492982	1.706820E+02	  0.066492982	7.940000E-01	  0.066492982	4.073000E+00
234	  0.066693388	-2.730000E-01	  0.066693388	1.702860E+02	  0.066693388	7.910000E-01	  0.066693388	4.247000E+00
235	  0.066893786	-2.720000E-01	  0.066893786	1.698720E+02	  0.066893786	7.900000E-01	  0.066893786	4.429000E+00
236	  0.067094192	-2.730000E-01	  0.067094192	1.694270E+02	  0.067094192	7.940000E-01	  0.067094192	4.624000E+00
237	  0.067294590	-2.760000E-01	  0.067294590	1.690260E+02	  0.067294590	8.010000E-01	  0.067294590	4.801000E+00
238	  0.067494988	-2.790000E-01	  0.067494988	1.686320E+02	  0.067494988	8.110000E-01	  0.067494988	4.975000E+00
239	  0.067695394	-2.790000E-01	  0.067695394	1.682220E+02	  0.067695394	8.130000E-01	  0.067695394	5.155000E+00
240	  0.067895792	-2.780000E-01	  0.067895792	1.678250E+02	  0.067895792	8.110000E-01	  0.067895792	5.330000E+00
241	  0.068096191	-2.800000E-01	  0.068096191	1.673890E+02	  0.068096191	8.160000E-01	  0.068096191	5.523000E+00
242	  0.068296596	-2.800000E-01	  0.068296596	1.669850E+02	  0.068296596	8.180000E-01	  0.068296596	5.701000E+00
243	  0.068496995	-2.780000E-01	  0.068496995	1.665790E+02	  0.068496995	8.120000E-01	  0.068496995	5.881000E+00
244	  0.068697393	-2.770000E-01	  0.068697393	1.661810E+02	  0.068697393	8.110000E-01	  0.068697393	6.057000E+00
245	  0.068897791	-2.770000E-01	  0.068897791	1.658090E+02	  0.068897791	8.100000E-01	  0.068897791	6.222000E+00
246	  0.069098189	-2.790000E-01	  0.069098189	1.653970E+02	  0.069098189	8.160000E-01	  0.069098189	6.404000E+00
247	  0.069298595	-2.810000E-01	  0.069298595	1.650160E+02	  0.069298595	8.250000E-01	  0.069298595	6.573000E+00
248	  0.069498993	-2.820000E-01	  0.069498993	1.645870E+02	  0.069498993	8.290000E-01	  0.069498993	6.764000E+00
249	  0.069699399	-2.870000E-01	  0.069699399	1.641700E+02	  0.069699399	8.430000E-01	  0.069699399	6.949000E+00
250	  0.069899797	-2.880000E-01	  0.069899797	1.637570E+02	  0.069899797	8.460000E-01	  0.069899797	7.132000E+00
251	  0.070100196	-2.890000E-01	  0.070100196	1.633540E+02	  0.070100196	8.510000E-01	  0.070100196	7.312000E+00
252	  0.070300601	-2.920000E-01	  0.070300601	1.629730E+02	  0.070300601	8.590000E-01	  0.070300601	7.482000E+00
253	  0.070501000	-2.930000E-01	  0.070501000	1.625590E+02	  0.070501000	8.650000E-01	  0.070501000	7.666000E+00
254	  0.070701398	-2.930000E-01	  0.070701398	1.621690E+02	  0.070701398	8.640000E-01	  0.070701398	7.840000E+00
255	  0.070901804	-2.930000E-01	  0.070901804	1.617770E+02	  0.070901804	8.660000E-01	  0.070901804	8.016000E+00
256	  0.071102202	-2.930000E-01	  0.071102202	1.613610E+02	  0.071102202	8.660000E-01	  0.071102202	8.202000E+00
257	  0.071302600	-2.920000E-01	  0.071302600	1.609650E+02	  0.071302600	8.650000E-01	  0.071302600	8.380000E+00
258	  0.071503006	-2.910000E-01	  0.071503006	1.605670E+02	  0.071503006	8.620000E-01	  0.071503006	8.558000E+00
259	  0.071703404	-2.920000E-01	  0.071703404	1.601650E+02	  0.071703404	8.680000E-01	  0.071703404	8.739000E+00
260	  0.071903802	-2.910000E-01	  0.071903802	1.597640E+02	  0.071903802	8.640000E-01	  0.071903802	8.919000E+00
261	  0.072104208	-2.900000E-01	  0.072104208	1.593720E+02	  0.072104208	8.630000E-01	  0.072104208	9.096000E+00
262	  0.072304606	-2.920000E-01	  0.072304606	1.589820E+02	  0.072304606	8.710000E-01	  0.072304606	9.272000E+00
263	  0.072505005	-2.930000E-01	  0.072505005	1.585900E+02	  0.072505005	8.740000E-01	  0.072505005	9.449000E+00
264	  0.072705410	-2.950000E-01	  0.072705410	1.582330E+02	  0.072705410	8.810000E-01	  0.072705410	9.610000E+00
265	  0.072905809	-2.960000E-01	  0.072905809	1.578370E+02	  0.072905809	8.870000E-01	  0.072905809	9.789000E+00
266	  0.073106214	-2.970000E-01	  0.073106214	1.574390E+02	  0.073106214	8.910000E-01	  0.073106214	9.970000E+00
267	  0.073306613	-2.950000E-01	  0.073306613	1.570370E+02	  0.073306613	8.860000E-01	  0.073306613	1.015200E+01
268	  0.073507011	-2.970000E-01	  0.073507011	1.566400E+02	  0.073507011	8.930000E-01	  0.073507011	1.033200E+01
269	  0.073707417	-2.970000E-01	  0.073707417	1.562410E+02	  0.073707417	8.920000E-01	  0.073707417	1.051400E+01
270	  0.073907815	-2.940000E-01	  0.073907815	1.558780E+02	  0.073907815	8.850000E-01	  0.073907815	1.068000E+01
271	  0.074108213	-2.950000E-01	  0.074108213	1.555010E+02	  0.074108213	8.890000E-01	  0.074108213	1.085200E+01
272	  0.074308619	-2.940000E-01	  0.074308619	1.551420E+02	  0.074308619	8.890000E-01	  0.074308619	1.101500E+01
273	  0.074509017	-2.990000E-01	  0.074509017	1.547470E+02	  0.074509017	9.060000E-01	  0.074509017	1.119600E+01
274	  0.074709415	-3.010000E-01	  0.074709415	1.543420E+02	  0.074709415	9.120000E-01	  0.074709415	1.138200E+01
275	  0.074909821	-3.060000E-01	  0.074909821	1.539370E+02	  0.074909821	9.280000E-01	  0.074909821	1.156800E+01
276	  0.075110219	-3.070000E-01	  0.075110219	1.535330E+02	  0.075110219	9.320000E-01	  0.075110219	1.175300E+01
277	  0.075310618	-3.120000E-01	  0.075310618	1.531530E+02	  0.075310618	9.490000E-01	  0.075310618	1.192800E+01
278	  0.075511023	-3.130000E-01	  0.075511023	1.527560E+02	  0.075511023	9.540000E-01	  0.075511023	1.211200E+01
279	  0.075711422	-3.110000E-01	  0.075711422	1.523750E+02	  0.075711422	9.510000E-01	  0.075711422	1.228800E+01
280	  0.075911827	-3.170000E-01	  0.075911827	1.519730E+02	  0.075911827	9.720000E-01	  0.075911827	1.247400E+01
281	  0.076112226	-3.140000E-01	  0.076112226	1.515690E+02	  0.076112226	9.630000E-01	  0.076112226	1.266100E+01
282	  0.076312624	-3.140000E-01	  0.076312624	1.511780E+02	  0.076312624	9.650000E-01	  0.076312624	1.284300E+01
283	  0.076513030	-3.110000E-01	  0.076513030	1.507850E+02	  0.076513030	9.550000E-01	  0.076513030	1.302600E+01
284	  0.076713428	-3.130000E-01	  0.076713428	1.503940E+02	  0.076713428	9.640000E-01	  0.076713428	1.320800E+01
285	  0.076913826	-3.110000E-01	  0.076913826	1.499920E+02	  0.076913826	9.610000E-01	  0.076913826	1.339600E+01
286	  0.077114232	-3.090000E-01	  0.077114232	1.495950E+02	  0.077114232	9.570000E-01	  0.077114232	1.358200E+01
287	  0.077314630	-3.060000E-01	  0.077314630	1.492170E+02	  0.077314630	9.480000E-01	  0.077314630	1.375900E+01
288	  0.077515028	-3.070000E-01	  0.077515028	1.488420E+02	  0.077515028	9.530000E-01	  0.077515028	1.393500E+01
289	  0.077715434	-3.080000E-01	  0.077715434	1.484940E+02	  0.077715434	9.590000E-01	  0.077715434	1.409900E+01
290	  0.077915832	-3.090000E-01	  0.077915832	1.481390E+02	  0.077915832	9.620000E-01	  0.077915832	1.426600E+01
291	  0.078116231	-3.130000E-01	  0.078116231	1.477500E+02	  0.078116231	9.770000E-01	  0.078116231	1.444900E+01
292	  0.078316636	-3.150000E-01	  0.078316636	1.473770E+02	  0.078316636	9.850000E-01	  0.078316636	1.462600E+01
293	  0.078517035	-3.140000E-01	  0.078517035	1.469670E+02	  0.078517035	9.850000E-01	  0.078517035	1.482000E+01
294	  0.078717433	-3.110000E-01	  0.078717433	1.465870E+02	  0.078717433	9.770000E-01	  0.078717433	1.500100E+01
295	  0.078917839	-3.100000E-01	  0.078917839	1.462250E+02	  0.078917839	9.750000E-01	  0.078917839	1.517300E+01
296	  0.079118237	-3.080000E-01	  0.079118237	1.458660E+02	  0.079118237	9.720000E-01	  0.079118237	1.534400E+01
297	  0.079318643	-3.070000E-01	  0.079318643	1.455010E+02	  0.079318643	9.710000E-01	  0.079318643	1.551900E+01
298	  0.079519041	-3.050000E-01	  0.079519041	1.451530E+02	  0.079519041	9.650000E-01	  0.079519041	1.568500E+01
299	  0.079719439	-3.080000E-01	  0.079719439	1.447910E+02	  0.079719439	9.760000E-01	  0.079719439	1.585900E+01
300	  0.079919845	-3.110000E-01	  0.079919845	1.444210E+02	  0.079919845	9.900000E-01	  0.079919845	1.603700E+01
301	  0.080120243	-3.170000E-01	  0.080120243	1.440250E+02	  0.080120243	1.010000E+00	  0.080120243	1.622700E+01
302	  0.080320641	-3.170000E-01	  0.080320641	1.436530E+02	  0.080320641	1.010000E+00	  0.080320641	1.640700E+01
303	  0.080521047	-3.200000E-01	  0.080521047	1.433000E+02	  0.080521047	1.024000E+00	  0.080521047	1.657700E+01
304	  0.080721445	-3.240000E-01	  0.080721445	1.429250E+02	  0.080721445	1.039000E+00	  0.080721445	1.675900E+01
305	  0.080921844	-3.260000E-01	  0.080921844	1.425430E+02	  0.080921844	1.047000E+00	  0.080921844	1.694500E+01
306	  0.081122249	-3.240000E-01	  0.081122249	1.421690E+02	  0.081122249	1.044000E+00	  0.081122249	1.712600E+01
307	  0.081322648	-3.230000E-01	  0.081322648	1.417840E+02	  0.081322648	1.044000E+00	  0.081322648	1.731400E+01
308	  0.081523046	-3.210000E-01	  0.081523046	1.414050E+02	  0.081523046	1.037000E+00	  0.081523046	1.750000E+01
309	  0.081723452	-3.230000E-01	  0.081723452	1.410280E+02	  0.081723452	1.046000E+00	  0.081723452	1.768400E+01
310	  0.081923850	-3.240000E-01	  0.081923850	1.406390E+02	  0.081923850	1.052000E+00	  0.081923850	1.787600E+01
311	  0.082124248	-3.200000E-01	  0.082124248	1.402680E+02	  0.082124248	1.042000E+00	  0.082124248	1.805900E+01
312	  0.082324654	-3.200000E-01	  0.082324654	1.398860E+02	  0.082324654	1.044000E+00	  0.082324654	1.824700E+01
313	  0.082525052	-3.180000E-01	  0.082525052	1.395320E+02	  0.082525052	1.042000E+00	  0.082525052	1.842200E+01
314	  0.082725458	-3.150000E-01	  0.082725458	1.391730E+02	  0.082725458	1.034000E+00	  0.082725458	1.860000E+01
315	  0.082925856	-3.160000E-01	  0.082925856	1.388220E+02	  0.082925856	1.038000E+00	  0.082925856	1.877500E+01
316	  0.083126254	-3.200000E-01	  0.083126254	1.385080E+02	  0.083126254	1.055000E+00	  0.083126254	1.893100E+01
317	  0.083326660	-3.230000E-01	  0.083326660	1.381480E+02	  0.083326660	1.068000E+00	  0.083326660	1.911100E+01
318	  0.083527058	-3.280000E-01	  0.083527058	1.377700E+02	  0.083527058	1.087000E+00	  0.083527058	1.930000E+01
319	  0.083727457	-3.280000E-01	  0.083727457	1.373980E+02	  0.083727457	1.088000E+00	  0.083727457	1.948700E+01
320	  0.083927862	-3.250000E-01	  0.083927862	1.370000E+02	  0.083927862	1.081000E+00	  0.083927862	1.968700E+01
321	  0.084128261	-3.260000E-01	  0.084128261	1.366500E+02	  0.084128261	1.086000E+00	  0.084128261	1.986300E+01
322	  0.084328659	-3.250000E-01	  0.084328659	1.362830E+02	  0.084328659	1.087000E+00	  0.084328659	2.004900E+01
323	  0.084529065	-3.240000E-01	  0.084529065	1.359330E+02	  0.084529065	1.086000E+00	  0.084529065	2.022600E+01
324	  0.084729463	-3.230000E-01	  0.084729463	1.355980E+02	  0.084729463	1.085000E+00	  0.084729463	2.039700E+01
325	  0.084929861	-3.270000E-01	  0.084929861	1.352400E+02	  0.084929861	1.101000E+00	  0.084929861	2.057900E+01
326	  0.085130267	-3.280000E-01	  0.085130267	1.348820E+02	  0.085130267	1.108000E+00	  0.085130267	2.076200E+01
327	  0.085330658	-3.300000E-01	  0.085330658	1.345020E+02	  0.085330658	1.117000E+00	  0.085330658	2.095600E+01
328	  0.085531056	-3.320000E-01	  0.085531056	1.341390E+02	  0.085531056	1.127000E+00	  0.085531056	2.114200E+01
329	  0.085731462	-3.350000E-01	  0.085731462	1.337720E+02	  0.085731462	1.141000E+00	  0.085731462	2.133100E+01
330	  0.085931860	-3.390000E-01	  0.085931860	1.334150E+02	  0.085931860	1.159000E+00	  0.085931860	2.151500E+01
331	  0.086132258	-3.400000E-01	  0.086132258	1.330180E+02	  0.086132258	1.165000E+00	  0.086132258	2.172100E+01
332	  0.086332664	-3.410000E-01	  0.086332664	1.326590E+02	  0.086332664	1.171000E+00	  0.086332664	2.190700E+01
333	  0.086533062	-3.410000E-01	  0.086533062	1.322840E+02	  0.086533062	1.174000E+00	  0.086533062	2.210200E+01
334	  0.086733460	-3.360000E-01	  0.086733460	1.319180E+02	  0.086733460	1.160000E+00	  0.086733460	2.229400E+01
335	  0.086933866	-3.400000E-01	  0.086933866	1.315450E+02	  0.086933866	1.178000E+00	  0.086933866	2.248900E+01
336	  0.087134264	-3.370000E-01	  0.087134264	1.311800E+02	  0.087134264	1.170000E+00	  0.087134264	2.268100E+01
337	  0.087334670	-3.350000E-01	  0.087334670	1.308040E+02	  0.087334670	1.168000E+00	  0.087334670	2.287900E+01
338	  0.087535068	-3.330000E-01	  0.087535068	1.304240E+02	  0.087535068	1.163000E+00	  0.087535068	2.307900E+01
339	  0.087735467	-3.270000E-01	  0.087735467	1.300810E+02	  0.087735467	1.146000E+00	  0.087735467	2.326100E+01
340	  0.087935872	-3.240000E-01	  0.087935872	1.297530E+02	  0.087935872	1.138000E+00	  0.087935872	2.343600E+01
341	  0.088136271	-3.240000E-01	  0.088136271	1.294210E+02	  0.088136271	1.143000E+00	  0.088136271	2.361300E+01
342	  0.088336669	-3.270000E-01	  0.088336669	1.291060E+02	  0.088336669	1.155000E+00	  0.088336669	2.378100E+01
343	  0.088537075	-3.280000E-01	  0.088537075	1.287570E+02	  0.088537075	1.163000E+00	  0.088537075	2.396800E+01
344	  0.088737473	-3.310000E-01	  0.088737473	1.284210E+02	  0.088737473	1.177000E+00	  0.088737473	2.414800E+01
345	  0.088937871	-3.340000E-01	  0.088937871	1.280590E+02	  0.088937871	1.192000E+00	  0.088937871	2.434300E+01
346	  0.089138277	-3.340000E-01	  0.089138277	1.276980E+02	  0.089138277	1.194000E+00	  0.089138277	2.453800E+01
347	  0.089338675	-3.320000E-01	  0.089338675	1.273490E+02	  0.089338675	1.190000E+00	  0.089338675	2.472700E+01
348	  0.089539073	-3.310000E-01	  0.089539073	1.270040E+02	  0.089539073	1.191000E+00	  0.089539073	2.491500E+01
349	  0.089739479	-3.320000E-01	  0.089739479	1.266590E+02	  0.089739479	1.197000E+00	  0.089739479	2.510300E+01
350	  0.089939877	-3.360000E-01	  0.089939877	1.262950E+02	  0.089939877	1.216000E+00	  0.089939877	2.530200E+01
351	  0.090140276	-3.350000E-01	  0.090140276	1.259590E+02	  0.090140276	1.218000E+00	  0.090140276	2.548600E+01
352	  0.090340681	-3.340000E-01	  0.090340681	1.255940E+02	  0.090340681	1.216000E+00	  0.090340681	2.568700E+01
353	  0.090541080	-3.330000E-01	  0.090541080	1.252610E+02	  0.090541080	1.217000E+00	  0.090541080	2.587100E+01
354	  0.090741485	-3.370000E-01	  0.090741485	1.249120E+02	  0.090741485	1.233000E+00	  0.090741485	2.606400E+01
355	  0.090941884	-3.390000E-01	  0.090941884	1.245710E+02	  0.090941884	1.246000E+00	  0.090941884	2.625300E+01
356	  0.091142282	-3.410000E-01	  0.091142282	1.242200E+02	  0.091142282	1.256000E+00	  0.091142282	2.644900E+01
357	  0.091342688	-3.480000E-01	  0.091342688	1.238690E+02	  0.091342688	1.287000E+00	  0.091342688	2.664400E+01
358	  0.091543086	-3.460000E-01	  0.091543086	1.234930E+02	  0.091543086	1.283000E+00	  0.091543086	2.685600E+01
359	  0.091743484	-3.450000E-01	  0.091743484	1.231360E+02	  0.091743484	1.287000E+00	  0.091743484	2.705600E+01
360	  0.091943890	-3.440000E-01	  0.091943890	1.227700E+02	  0.091943890	1.287000E+00	  0.091943890	2.726300E+01
361	  0.092144288	-3.460000E-01	  0.092144288	1.224180E+02	  0.092144288	1.299000E+00	  0.092144288	2.746200E+01
362	  0.092344686	-3.440000E-01	  0.092344686	1.220590E+02	  0.092344686	1.293000E+00	  0.092344686	2.766700E+01
363	  0.092545092	-3.420000E-01	  0.092545092	1.217050E+02	  0.092545092	1.291000E+00	  0.092545092	2.786900E+01
364	  0.092745490	-3.360000E-01	  0.092745490	1.213620E+02	  0.092745490	1.273000E+00	  0.092745490	2.806600E+01
365	  0.092945889	-3.350000E-01	  0.092945889	1.210210E+02	  0.092945889	1.273000E+00	  0.092945889	2.826200E+01
366	  0.093146294	-3.300000E-01	  0.093146294	1.206840E+02	  0.093146294	1.257000E+00	  0.093146294	2.845600E+01
367	  0.093346693	-3.310000E-01	  0.093346693	1.203820E+02	  0.093346693	1.267000E+00	  0.093346693	2.863100E+01
368	  0.093547091	-3.320000E-01	  0.093547091	1.200460E+02	  0.093547091	1.275000E+00	  0.093547091	2.882600E+01
369	  0.093747497	-3.300000E-01	  0.093747497	1.197370E+02	  0.093747497	1.270000E+00	  0.093747497	2.900600E+01
370	  0.093947895	-3.320000E-01	  0.093947895	1.193950E+02	  0.093947895	1.282000E+00	  0.093947895	2.920600E+01
371	  0.094148301	-3.330000E-01	  0.094148301	1.190560E+02	  0.094148301	1.292000E+00	  0.094148301	2.940400E+01
372	  0.094348699	-3.360000E-01	  0.094348699	1.187220E+02	  0.094348699	1.306000E+00	  0.094348699	2.960000E+01
373	  0.094549097	-3.350000E-01	  0.094549097	1.183860E+02	  0.094549097	1.306000E+00	  0.094549097	2.979900E+01
374	  0.094749503	-3.370000E-01	  0.094749503	1.180470E+02	  0.094749503	1.320000E+00	  0.094749503	2.999900E+01
375	  0.094949901	-3.380000E-01	  0.094949901	1.177270E+02	  0.094949901	1.328000E+00	  0.094949901	3.018900E+01
376	  0.095150299	-3.390000E-01	  0.095150299	1.173660E+02	  0.095150299	1.337000E+00	  0.095150299	3.040400E+01
377	  0.095350705	-3.400000E-01	  0.095350705	1.170290E+02	  0.095350705	1.346000E+00	  0.095350705	3.060600E+01
378	  0.095551103	-3.390000E-01	  0.095551103	1.166660E+02	  0.095551103	1.346000E+00	  0.095551103	3.082400E+01
379	  0.095751502	-3.380000E-01	  0.095751502	1.163050E+02	  0.095751502	1.349000E+00	  0.095751502	3.104200E+01
380	  0.095951907	-3.390000E-01	  0.095951907	1.159970E+02	  0.095951907	1.359000E+00	  0.095951907	3.122800E+01
381	  0.096152306	-3.440000E-01	  0.096152306	1.156710E+02	  0.096152306	1.382000E+00	  0.096152306	3.142500E+01
382	  0.096352704	-3.480000E-01	  0.096352704	1.153220E+02	  0.096352704	1.404000E+00	  0.096352704	3.163800E+01
383	  0.096553110	-3.520000E-01	  0.096553110	1.149830E+02	  0.096553110	1.427000E+00	  0.096553110	3.184500E+01
384	  0.096753508	-3.560000E-01	  0.096753508	1.146330E+02	  0.096753508	1.447000E+00	  0.096753508	3.205900E+01
385	  0.096953906	-3.550000E-01	  0.096953906	1.142710E+02	  0.096953906	1.448000E+00	  0.096953906	3.228300E+01
386	  0.097154312	-3.520000E-01	  0.097154312	1.139390E+02	  0.097154312	1.442000E+00	  0.097154312	3.248900E+01
387	  0.097354710	-3.520000E-01	  0.097354710	1.135780E+02	  0.097354710	1.450000E+00	  0.097354710	3.271300E+01
388	  0.097555116	-3.550000E-01	  0.097555116	1.132210E+02	  0.097555116	1.468000E+00	  0.097555116	3.293500E+01
389	  0.097755514	-3.500000E-01	  0.097755514	1.128860E+02	  0.097755514	1.453000E+00	  0.097755514	3.314600E+01
390	  0.097955912	-3.490000E-01	  0.097955912	1.125270E+02	  0.097955912	1.452000E+00	  0.097955912	3.337100E+01
391	  0.098156318	-3.440000E-01	  0.098156318	1.122010E+02	  0.098156318	1.440000E+00	  0.098156318	3.357800E+01
392	  0.098356716	-3.440000E-01	  0.098356716	1.118550E+02	  0.098356716	1.444000E+00	  0.098356716	3.379800E+01
393	  0.098557115	-3.420000E-01	  0.098557115	1.115470E+02	  0.098557115	1.440000E+00	  0.098557115	3.399400E+01
394	  0.098757520	-3.430000E-01	  0.098757520	1.112160E+02	  0.098757520	1.452000E+00	  0.098757520	3.420500E+01
395	  0.098957919	-3.400000E-01	  0.098957919	1.109140E+02	  0.098957919	1.442000E+00	  0.098957919	3.439900E+01
396	  0.099158317	-3.400000E-01	  0.099158317	1.105830E+02	  0.099158317	1.450000E+00	  0.099158317	3.461200E+01
397	  0.099358723	-3.400000E-01	  0.099358723	1.102690E+02	  0.099358723	1.456000E+00	  0.099358723	3.481500E+01
398	  0.099559121	-3.390000E-01	  0.099559121	1.099630E+02	  0.099559121	1.454000E+00	  0.099559121	3.501300E+01
399	  0.099759519	-3.370000E-01	  0.099759519	1.096400E+02	  0.099759519	1.453000E+00	  0.099759519	3.522400E+01
400	  0.099959925	-3.440000E-01	  0.099959925	1.093070E+02	  0.099959925	1.487000E+00	  0.099959925	3.544100E+01
401	  0.100160323	-3.440000E-01	  0.100160323	1.090500E+02	  0.100160323	1.492000E+00	  0.100160323	3.561000E+01
402	  0.100360721	-3.440000E-01	  0.100360721	1.086790E+02	  0.100360721	1.501000E+00	  0.100360721	3.585400E+01
403	  0.100561127	-3.450000E-01	  0.100561127	1.083310E+02	  0.100561127	1.513000E+00	  0.100561127	3.608400E+01
404	  0.100761525	-3.380000E-01	  0.100761525	1.079870E+02	  0.100761525	1.487000E+00	  0.100761525	3.631400E+01
405	  0.100961931	-3.400000E-01	  0.100961931	1.076800E+02	  0.100961931	1.502000E+00	  0.100961931	3.651800E+01
406	  0.101162329	-3.430000E-01	  0.101162329	1.073510E+02	  0.101162329	1.524000E+00	  0.101162329	3.673800E+01
407	  0.101362728	-3.400000E-01	  0.101362728	1.070330E+02	  0.101362728	1.515000E+00	  0.101362728	3.695300E+01
408	  0.101563133	-3.420000E-01	  0.101563133	1.066940E+02	  0.101563133	1.532000E+00	  0.101563133	3.718200E+01
409	  0.101763532	-3.440000E-01	  0.101763532	1.063560E+02	  0.101763532	1.546000E+00	  0.101763532	3.741100E+01
410	  0.101963930	-3.460000E-01	  0.101963930	1.061150E+02	  0.101963930	1.561000E+00	  0.101963930	3.757500E+01
411	  0.102164336	-3.460000E-01	  0.102164336	1.056970E+02	  0.102164336	1.569000E+00	  0.102164336	3.786100E+01
412	  0.102364734	-3.430000E-01	  0.102364734	1.053730E+02	  0.102364734	1.562000E+00	  0.102364734	3.808400E+01
413	  0.102565132	-3.440000E-01	  0.102565132	1.050620E+02	  0.102565132	1.575000E+00	  0.102565132	3.829900E+01
414	  0.102765530	-3.520000E-01	  0.102765530	1.047310E+02	  0.102765530	1.617000E+00	  0.102765530	3.852700E+01
415	  0.102965929	-3.550000E-01	  0.102965929	1.043640E+02	  0.102965929	1.639000E+00	  0.102965929	3.878200E+01
416	  0.103166327	-3.470000E-01	  0.103166327	1.040630E+02	  0.103166327	1.610000E+00	  0.103166327	3.899400E+01
417	  0.103366733	-3.440000E-01	  0.103366733	1.037120E+02	  0.103366733	1.602000E+00	  0.103366733	3.924100E+01
418	  0.103567131	-3.470000E-01	  0.103567131	1.033790E+02	  0.103567131	1.624000E+00	  0.103567131	3.947600E+01
419	  0.103767529	-3.460000E-01	  0.103767529	1.030660E+02	  0.103767529	1.624000E+00	  0.103767529	3.969800E+01
420	  0.103967935	-3.480000E-01	  0.103967935	1.027390E+02	  0.103967935	1.643000E+00	  0.103967935	3.993100E+01
421	  0.104168333	-3.460000E-01	  0.104168333	1.024190E+02	  0.104168333	1.641000E+00	  0.104168333	4.016000E+01
422	  0.104368731	-3.510000E-01	  0.104368731	1.021380E+02	  0.104368731	1.671000E+00	  0.104368731	4.036200E+01
423	  0.104569137	-3.510000E-01	  0.104569137	1.017990E+02	  0.104569137	1.681000E+00	  0.104569137	4.060600E+01
424	  0.104769535	-3.470000E-01	  0.104769535	1.014730E+02	  0.104769535	1.666000E+00	  0.104769535	4.084400E+01
425	  0.104969934	-3.450000E-01	  0.104969934	1.011430E+02	  0.104969934	1.664000E+00	  0.104969934	4.108400E+01
426	  0.105170339	-3.510000E-01	  0.105170339	1.008260E+02	  0.105170339	1.701000E+00	  0.105170339	4.131500E+01
427	  0.105370738	-3.540000E-01	  0.105370738	1.004920E+02	  0.105370738	1.724000E+00	  0.105370738	4.156100E+01
428	  0.105571143	-3.550000E-01	  0.105571143	1.001830E+02	  0.105571143	1.739000E+00	  0.105571143	4.178900E+01
429	  0.105771542	-3.530000E-01	  0.105771542	9.985200E+01	  0.105771542	1.738000E+00	  0.105771542	4.203400E+01
430	  0.105971940	-3.540000E-01	  0.105971940	9.953100E+01	  0.105971940	1.749000E+00	  0.105971940	4.227400E+01
431	  0.106172346	-3.460000E-01	  0.106172346	9.920400E+01	  0.106172346	1.717000E+00	  0.106172346	4.252000E+01
432	  0.106372744	-3.530000E-01	  0.106372744	9.887900E+01	  0.106372744	1.763000E+00	  0.106372744	4.276400E+01
433	  0.106573142	-3.500000E-01	  0.106573142	9.851900E+01	  0.106573142	1.756000E+00	  0.106573142	4.303700E+01
434	  0.106773548	-3.520000E-01	  0.106773548	9.822600E+01	  0.106773548	1.774000E+00	  0.106773548	4.325900E+01
435	  0.106973946	-3.520000E-01	  0.106973946	9.788500E+01	  0.106973946	1.784000E+00	  0.106973946	4.352000E+01
436	  0.107174344	-3.470000E-01	  0.107174344	9.755700E+01	  0.107174344	1.768000E+00	  0.107174344	4.377300E+01
437	  0.107374750	-3.480000E-01	  0.107374750	9.721000E+01	  0.107374750	1.783000E+00	  0.107374750	4.404100E+01
438	  0.107575148	-3.480000E-01	  0.107575148	9.691000E+01	  0.107575148	1.787000E+00	  0.107575148	4.427400E+01
439	  0.107775547	-3.490000E-01	  0.107775547	9.660800E+01	  0.107775547	1.802000E+00	  0.107775547	4.450900E+01
440	  0.107975952	-3.470000E-01	  0.107975952	9.627700E+01	  0.107975952	1.800000E+00	  0.107975952	4.476800E+01
441	  0.108176351	-3.500000E-01	  0.108176351	9.591800E+01	  0.108176351	1.826000E+00	  0.108176351	4.505100E+01
442	  0.108376749	-3.450000E-01	  0.108376749	9.566400E+01	  0.108376749	1.807000E+00	  0.108376749	4.525300E+01
443	  0.108577155	-3.450000E-01	  0.108577155	9.530500E+01	  0.108577155	1.820000E+00	  0.108577155	4.553900E+01
444	  0.108777553	-3.420000E-01	  0.108777553	9.500200E+01	  0.108777553	1.811000E+00	  0.108777553	4.578100E+01
445	  0.108977959	-3.440000E-01	  0.108977959	9.470700E+01	  0.108977959	1.831000E+00	  0.108977959	4.601800E+01
446	  0.109178357	-3.450000E-01	  0.109178357	9.441500E+01	  0.109178357	1.845000E+00	  0.109178357	4.625400E+01
447	  0.109378755	-3.440000E-01	  0.109378755	9.407000E+01	  0.109378755	1.853000E+00	  0.109378755	4.653400E+01
448	  0.109579161	-3.440000E-01	  0.109579161	9.380600E+01	  0.109579161	1.858000E+00	  0.109579161	4.674900E+01
449	  0.109779559	-3.410000E-01	  0.109779559	9.345300E+01	  0.109779559	1.851000E+00	  0.109779559	4.703900E+01
450	  0.109979957	-3.400000E-01	  0.109979957	9.319000E+01	  0.109979957	1.853000E+00	  0.109979957	4.725500E+01
451	  0.110180363	-3.440000E-01	  0.110180363	9.289400E+01	  0.110180363	1.887000E+00	  0.110180363	4.750000E+01
452	  0.110380761	-3.400000E-01	  0.110380761	9.256700E+01	  0.110380761	1.873000E+00	  0.110380761	4.777300E+01
453	  0.110581160	-3.480000E-01	  0.110581160	9.229200E+01	  0.110581160	1.927000E+00	  0.110581160	4.800100E+01
454	  0.110781565	-3.510000E-01	  0.110781565	9.195600E+01	  0.110781565	1.954000E+00	  0.110781565	4.828200E+01
455	  0.110981964	-3.500000E-01	  0.110981964	9.162000E+01	  0.110981964	1.959000E+00	  0.110981964	4.856600E+01
456	  0.111182362	-3.480000E-01	  0.111182362	9.128800E+01	  0.111182362	1.960000E+00	  0.111182362	4.884900E+01
457	  0.111382768	-3.440000E-01	  0.111382768	9.096900E+01	  0.111382768	1.948000E+00	  0.111382768	4.912200E+01
458	  0.111583166	-3.480000E-01	  0.111583166	9.065000E+01	  0.111583166	1.984000E+00	  0.111583166	4.939500E+01
459	  0.111783572	-3.510000E-01	  0.111783572	9.034200E+01	  0.111783572	2.010000E+00	  0.111783572	4.966100E+01
460	  0.111983970	-3.480000E-01	  0.111983970	9.001900E+01	  0.111983970	2.005000E+00	  0.111983970	4.994200E+01
461	  0.112184368	-3.480000E-01	  0.112184368	8.971100E+01	  0.112184368	2.016000E+00	  0.112184368	5.021100E+01
462	  0.112384774	-3.430000E-01	  0.112384774	8.941900E+01	  0.112384774	1.997000E+00	  0.112384774	5.046900E+01
463	  0.112585172	-3.410000E-01	  0.112585172	8.907300E+01	  0.112585172	1.999000E+00	  0.112585172	5.077500E+01
464	  0.112785570	-3.440000E-01	  0.112785570	8.876800E+01	  0.112785570	2.025000E+00	  0.112785570	5.104500E+01
465	  0.112985976	-3.410000E-01	  0.112985976	8.844900E+01	  0.112985976	2.019000E+00	  0.112985976	5.133100E+01
466	  0.113186374	-3.430000E-01	  0.113186374	8.813300E+01	  0.113186374	2.045000E+00	  0.113186374	5.161300E+01
467	  0.113386773	-3.460000E-01	  0.113386773	8.783800E+01	  0.113386773	2.073000E+00	  0.113386773	5.187900E+01
468	  0.113587178	-3.450000E-01	  0.113587178	8.753600E+01	  0.113587178	2.078000E+00	  0.113587178	5.215400E+01
469	  0.113787577	-3.440000E-01	  0.113787577	8.719800E+01	  0.113787577	2.084000E+00	  0.113787577	5.246300E+01
470	  0.113987975	-3.440000E-01	  0.113987975	8.695500E+01	  0.113987975	2.093000E+00	  0.113987975	5.268500E+01
471	  0.114188381	-3.420000E-01	  0.114188381	8.661100E+01	  0.114188381	2.095000E+00	  0.114188381	5.300400E+01
472	  0.114388779	-3.390000E-01	  0.114388779	8.631600E+01	  0.114388779	2.087000E+00	  0.114388779	5.327800E+01
473	  0.114589177	-3.420000E-01	  0.114589177	8.601300E+01	  0.114589177	2.116000E+00	  0.114589177	5.356100E+01
474	  0.114789583	-3.440000E-01	  0.114789583	8.571400E+01	  0.114789583	2.143000E+00	  0.114789583	5.384000E+01
475	  0.114989981	-3.410000E-01	  0.114989981	8.540800E+01	  0.114989981	2.135000E+00	  0.114989981	5.413100E+01
476	  0.115190387	-3.390000E-01	  0.115190387	8.513700E+01	  0.115190387	2.134000E+00	  0.115190387	5.438800E+01
477	  0.115390785	-3.380000E-01	  0.115390785	8.481700E+01	  0.115390785	2.138000E+00	  0.115390785	5.469400E+01
478	  0.115591183	-3.440000E-01	  0.115591183	8.450500E+01	  0.115591183	2.189000E+00	  0.115591183	5.499300E+01
479	  0.115791589	-3.460000E-01	  0.115791589	8.423000E+01	  0.115791589	2.215000E+00	  0.115791589	5.525700E+01
480	  0.115991987	-3.500000E-01	  0.115991987	8.391900E+01	  0.115991987	2.254000E+00	  0.115991987	5.555800E+01
481	  0.116192386	-3.480000E-01	  0.116192386	8.359900E+01	  0.116192386	2.255000E+00	  0.116192386	5.587100E+01
482	  0.116392791	-3.480000E-01	  0.116392791	8.324200E+01	  0.116392791	2.274000E+00	  0.116392791	5.622200E+01
483	  0.116593190	-3.510000E-01	  0.116593190	8.294300E+01	  0.116593190	2.306000E+00	  0.116593190	5.651800E+01
484	  0.116793588	-3.520000E-01	  0.116793588	8.263700E+01	  0.116793588	2.324000E+00	  0.116793588	5.682300E+01
485	  0.116993994	-3.520000E-01	  0.116993994	8.231500E+01	  0.116993994	2.337000E+00	  0.116993994	5.714500E+01
486	  0.117194392	-3.520000E-01	  0.117194392	8.202000E+01	  0.117194392	2.357000E+00	  0.117194392	5.744200E+01
487	  0.117394790	-3.510000E-01	  0.117394790	8.173200E+01	  0.117394790	2.363000E+00	  0.117394790	5.773400E+01
488	  0.117595196	-3.520000E-01	  0.117595196	8.140400E+01	  0.117595196	2.386000E+00	  0.117595196	5.806900E+01
489	  0.117795594	-3.460000E-01	  0.117795594	8.108500E+01	  0.117795594	2.361000E+00	  0.117795594	5.839800E+01
490	  0.117995992	-3.470000E-01	  0.117995992	8.076900E+01	  0.117995992	2.382000E+00	  0.117995992	5.872500E+01
491	  0.118196398	-3.460000E-01	  0.118196398	8.041500E+01	  0.118196398	2.392000E+00	  0.118196398	5.909400E+01
492	  0.118396796	-3.440000E-01	  0.118396796	8.015800E+01	  0.118396796	2.393000E+00	  0.118396796	5.936300E+01
493	  0.118597202	-3.420000E-01	  0.118597202	7.982800E+01	  0.118597202	2.394000E+00	  0.118597202	5.971200E+01
494	  0.118797600	-3.430000E-01	  0.118797600	7.954700E+01	  0.118797600	2.413000E+00	  0.118797600	6.001000E+01
495	  0.118997999	-3.410000E-01	  0.118997999	7.926000E+01	  0.118997999	2.416000E+00	  0.118997999	6.031700E+01
496	  0.119198404	-3.410000E-01	  0.119198404	7.892500E+01	  0.119198404	2.434000E+00	  0.119198404	6.067700E+01
497	  0.119398803	-3.390000E-01	  0.119398803	7.866200E+01	  0.119398803	2.429000E+00	  0.119398803	6.096200E+01
498	  0.119599201	-3.420000E-01	  0.119599201	7.834900E+01	  0.119599201	2.471000E+00	  0.119599201	6.130100E+01
499	  0.119799607	-3.380000E-01	  0.119799607	7.808600E+01	  0.119799607	2.456000E+00	  0.119799607	6.159000E+01
500	  0.120000005	-3.350000E-01	  0.120000005	7.777700E+01	  0.120000005	2.449000E+00	  0.120000005	6.193100E+01
