! Anritsu VNA Master:             	Model: MS2036C/10/77
! SN:             	1601066
! /card0/usr/18may27.balun/252b.m3.bad.txt
! Existing Calibration Information:
! TYPE:             	Current Settings	Active Cal Settings
! TIME:             	05/27/2018 12:43:11 PM	05/27/2018 12:21:44 PM
! INTERNAL TEMP:    	53.0 C	53.3 C
! # POINTS:         	500	500
! START FREQ:       	20.000 MHz	20.000 MHz
! STOP FREQ:        	120.000 MHz	120.000 MHz
! SOURCE POWER:     	High	High
! IFBW:             	50 Hz	50 Hz
! AVG FACTOR:       	  1 	  1 
! REF PLANE 1:      	0 mm	0 mm
! REF PLANE 2:      	0 mm	0 mm
! CAL TYPE:         	Full S11	Full S11
! CAL METHOD:       	SOLT	SOLT
! CAL LINE TYPE:    	Coax	Coax
! DUT PORT 1:       	K-Conn(M)	K-Conn(M)
! DUT PORT 2:       	K-Conn(M)	K-Conn(M)
! CAL STATUS:       	OK: Accuracy High	--
! PROP-V:       	0.700
! CABLE LOSS:       	0.000 dB/m
! REF IMPEDANCE:       	50.0
! Trace Specific Parameters:	TR1	TR2	TR3	TR4
! TRACE.#.Y (GRAPH TYPE)	LOG MAG	PHASE	REAL IMPEDANCE	IMAGINARY IMPEDANCE
! TRACE.#.X 	FREQ.GHZ	FREQ.GHZ	FREQ.GHZ	FREQ.GHZ
! S-PARAMETER	S11	S11	S11	S11
! SMOOTH/APERTURE %	0	0	0	0
! WINDOW	NSL	NSL	NSL	NSL
! GATING	OFF	OFF	OFF	OFF
! FGTD	OFF	OFF	OFF	OFF
Marker Information per Trace:	TR1	TR2	TR3	TR4
!MK1	--	--	--	"MK1 TR4:  70.100 200 MHz,Z:(16.240 ohm, -0.059 ohm)"
!MK2	--	--	--	--
!MK3	--	--	--	--
!MK4	--	--	--	--
!MK5	--	--	--	--
!MK6	--	--	--	--
!MK7	--	--	--	--
!MK8	--	--	--	--
PNT	TR1.FREQ.GHZ	TR1.LOG MAG.dB	TR2.FREQ.GHZ	TR2.PHASE.deg	TR3.FREQ.GHZ	TR3.REAL IMPEDANCE.ohm	TR4.FREQ.GHZ	TR4.IMAGINARY IMPEDANCE.ohm
1	  0.020000000	-6.270000E-01	  0.020000000	-1.262870E+02	  0.020000000	2.267000E+00	  0.020000000	-2.527700E+01
2	  0.020200402	-6.230000E-01	  0.020200402	-1.277660E+02	  0.020200402	2.225000E+00	  0.020200402	-2.447300E+01
3	  0.020400802	-6.210000E-01	  0.020400802	-1.292390E+02	  0.020400802	2.189000E+00	  0.020400802	-2.368300E+01
4	  0.020601204	-6.190000E-01	  0.020601204	-1.306570E+02	  0.020601204	2.156000E+00	  0.020601204	-2.293100E+01
5	  0.020801604	-6.200000E-01	  0.020801604	-1.321190E+02	  0.020801604	2.137000E+00	  0.020801604	-2.216500E+01
6	  0.021002004	-6.260000E-01	  0.021002004	-1.335910E+02	  0.021002004	2.132000E+00	  0.021002004	-2.140100E+01
7	  0.021202406	-6.320000E-01	  0.021202406	-1.350770E+02	  0.021202406	2.129000E+00	  0.021202406	-2.063900E+01
8	  0.021402806	-6.350000E-01	  0.021402806	-1.365380E+02	  0.021402806	2.117000E+00	  0.021402806	-1.989700E+01
9	  0.021603208	-6.420000E-01	  0.021603208	-1.380220E+02	  0.021603208	2.119000E+00	  0.021603208	-1.915100E+01
10	  0.021803608	-6.470000E-01	  0.021803608	-1.394760E+02	  0.021803608	2.116000E+00	  0.021803608	-1.842800E+01
11	  0.022004008	-6.530000E-01	  0.022004008	-1.409620E+02	  0.022004008	2.116000E+00	  0.022004008	-1.769600E+01
12	  0.022204408	-6.590000E-01	  0.022204408	-1.424910E+02	  0.022204408	2.115000E+00	  0.022204408	-1.694900E+01
13	  0.022404809	-6.650000E-01	  0.022404809	-1.440170E+02	  0.022404809	2.117000E+00	  0.022404809	-1.621100E+01
14	  0.022605211	-6.680000E-01	  0.022605211	-1.455330E+02	  0.022605211	2.107000E+00	  0.022605211	-1.548400E+01
15	  0.022805611	-6.680000E-01	  0.022805611	-1.470780E+02	  0.022805611	2.089000E+00	  0.022805611	-1.474900E+01
16	  0.023006011	-6.740000E-01	  0.023006011	-1.486430E+02	  0.023006011	2.094000E+00	  0.023006011	-1.401000E+01
17	  0.023206413	-6.840000E-01	  0.023206413	-1.502070E+02	  0.023206413	2.107000E+00	  0.023206413	-1.327800E+01
18	  0.023406813	-6.960000E-01	  0.023406813	-1.518110E+02	  0.023406813	2.130000E+00	  0.023406813	-1.253200E+01
19	  0.023607215	-7.080000E-01	  0.023607215	-1.534490E+02	  0.023607215	2.149000E+00	  0.023607215	-1.177600E+01
20	  0.023807615	-7.160000E-01	  0.023807615	-1.550880E+02	  0.023807615	2.160000E+00	  0.023807615	-1.102400E+01
21	  0.024008015	-7.240000E-01	  0.024008015	-1.567350E+02	  0.024008015	2.172000E+00	  0.024008015	-1.027400E+01
22	  0.024208417	-7.340000E-01	  0.024208417	-1.583820E+02	  0.024208417	2.189000E+00	  0.024208417	-9.528000E+00
23	  0.024408817	-7.470000E-01	  0.024408817	-1.600660E+02	  0.024408817	2.215000E+00	  0.024408817	-8.769000E+00
24	  0.024609219	-7.560000E-01	  0.024609219	-1.617550E+02	  0.024609219	2.231000E+00	  0.024609219	-8.012000E+00
25	  0.024809619	-7.630000E-01	  0.024809619	-1.634720E+02	  0.024809619	2.243000E+00	  0.024809619	-7.247000E+00
26	  0.025010020	-7.650000E-01	  0.025010020	-1.651620E+02	  0.025010020	2.238000E+00	  0.025010020	-6.497000E+00
27	  0.025210422	-7.710000E-01	  0.025210422	-1.668470E+02	  0.025210422	2.248000E+00	  0.025210422	-5.752000E+00
28	  0.025410822	-7.790000E-01	  0.025410822	-1.685200E+02	  0.025410822	2.264000E+00	  0.025410822	-5.015000E+00
29	  0.025611224	-7.850000E-01	  0.025611224	-1.701880E+02	  0.025611224	2.275000E+00	  0.025611224	-4.282000E+00
30	  0.025811624	-7.920000E-01	  0.025811624	-1.718710E+02	  0.025811624	2.289000E+00	  0.025811624	-3.545000E+00
31	  0.026012026	-8.010000E-01	  0.026012026	-1.735440E+02	  0.026012026	2.312000E+00	  0.026012026	-2.813000E+00
32	  0.026212426	-8.120000E-01	  0.026212426	-1.752280E+02	  0.026212426	2.339000E+00	  0.026212426	-2.078000E+00
33	  0.026412826	-8.280000E-01	  0.026412826	-1.769030E+02	  0.026412826	2.384000E+00	  0.026412826	-1.348000E+00
34	  0.026613226	-8.450000E-01	  0.026613226	-1.786040E+02	  0.026613226	2.431000E+00	  0.026613226	-6.070000E-01
35	  0.026813626	-8.610000E-01	  0.026813626	1.796850E+02	  0.026813626	2.478000E+00	  0.026813626	1.360000E-01
36	  0.027014028	-8.780000E-01	  0.027014028	1.779800E+02	  0.027014028	2.527000E+00	  0.027014028	8.780000E-01
37	  0.027214428	-8.950000E-01	  0.027214428	1.762640E+02	  0.027214428	2.576000E+00	  0.027214428	1.626000E+00
38	  0.027414829	-9.130000E-01	  0.027414829	1.745280E+02	  0.027414829	2.631000E+00	  0.027414829	2.382000E+00
39	  0.027615231	-9.310000E-01	  0.027615231	1.727640E+02	  0.027615231	2.688000E+00	  0.027615231	3.152000E+00
40	  0.027815631	-9.550000E-01	  0.027815631	1.709750E+02	  0.027815631	2.765000E+00	  0.027815631	3.933000E+00
41	  0.028016033	-9.790000E-01	  0.028016033	1.691410E+02	  0.028016033	2.842000E+00	  0.028016033	4.736000E+00
42	  0.028216433	-1.002000E+00	  0.028216433	1.672900E+02	  0.028216433	2.918000E+00	  0.028216433	5.549000E+00
43	  0.028416833	-1.027000E+00	  0.028416833	1.654160E+02	  0.028416833	3.000000E+00	  0.028416833	6.375000E+00
44	  0.028617235	-1.051000E+00	  0.028617235	1.635450E+02	  0.028617235	3.086000E+00	  0.028617235	7.202000E+00
45	  0.028817635	-1.079000E+00	  0.028817635	1.616460E+02	  0.028817635	3.182000E+00	  0.028817635	8.045000E+00
46	  0.029018037	-1.106000E+00	  0.029018037	1.597140E+02	  0.029018037	3.280000E+00	  0.029018037	8.907000E+00
47	  0.029218437	-1.132000E+00	  0.029218437	1.577790E+02	  0.029218437	3.379000E+00	  0.029218437	9.775000E+00
48	  0.029418837	-1.153000E+00	  0.029418837	1.558470E+02	  0.029418837	3.465000E+00	  0.029418837	1.064800E+01
49	  0.029619239	-1.174000E+00	  0.029619239	1.539500E+02	  0.029619239	3.554000E+00	  0.029619239	1.151000E+01
50	  0.029819639	-1.195000E+00	  0.029819639	1.520730E+02	  0.029819639	3.645000E+00	  0.029819639	1.237000E+01
51	  0.030020041	-1.217000E+00	  0.030020041	1.502060E+02	  0.030020041	3.744000E+00	  0.030020041	1.323100E+01
52	  0.030220442	-1.245000E+00	  0.030220442	1.483640E+02	  0.030220442	3.865000E+00	  0.030220442	1.408700E+01
53	  0.030420844	-1.276000E+00	  0.030420844	1.465160E+02	  0.030420844	3.998000E+00	  0.030420844	1.495200E+01
54	  0.030621244	-1.314000E+00	  0.030621244	1.446380E+02	  0.030621244	4.157000E+00	  0.030621244	1.583800E+01
55	  0.030821644	-1.348000E+00	  0.030821644	1.427350E+02	  0.030821644	4.309000E+00	  0.030821644	1.674500E+01
56	  0.031022044	-1.381000E+00	  0.031022044	1.408220E+02	  0.031022044	4.466000E+00	  0.031022044	1.766600E+01
57	  0.031222444	-1.406000E+00	  0.031222444	1.389040E+02	  0.031222444	4.601000E+00	  0.031222444	1.860200E+01
58	  0.031422846	-1.434000E+00	  0.031422846	1.369870E+02	  0.031422846	4.755000E+00	  0.031422846	1.954700E+01
59	  0.031623244	-1.461000E+00	  0.031623244	1.350910E+02	  0.031623244	4.906000E+00	  0.031623244	2.049300E+01
60	  0.031823646	-1.485000E+00	  0.031823646	1.331980E+02	  0.031823646	5.057000E+00	  0.031823646	2.145000E+01
61	  0.032024048	-1.510000E+00	  0.032024048	1.313050E+02	  0.032024048	5.215000E+00	  0.032024048	2.242000E+01
62	  0.032224450	-1.538000E+00	  0.032224450	1.294270E+02	  0.032224450	5.394000E+00	  0.032224450	2.339500E+01
63	  0.032424849	-1.569000E+00	  0.032424849	1.275220E+02	  0.032424849	5.588000E+00	  0.032424849	2.439600E+01
64	  0.032625251	-1.609000E+00	  0.032625251	1.255900E+02	  0.032625251	5.825000E+00	  0.032625251	2.542500E+01
65	  0.032825653	-1.652000E+00	  0.032825653	1.236360E+02	  0.032825653	6.086000E+00	  0.032825653	2.648000E+01
66	  0.033026051	-1.701000E+00	  0.033026051	1.216480E+02	  0.033026051	6.383000E+00	  0.033026051	2.756800E+01
67	  0.033226453	-1.749000E+00	  0.033226453	1.196290E+02	  0.033226453	6.694000E+00	  0.033226453	2.869200E+01
68	  0.033426855	-1.796000E+00	  0.033426855	1.175560E+02	  0.033426855	7.017000E+00	  0.033426855	2.986800E+01
69	  0.033627257	-1.843000E+00	  0.033627257	1.154410E+02	  0.033627257	7.361000E+00	  0.033627257	3.109100E+01
70	  0.033827655	-1.889000E+00	  0.033827655	1.133080E+02	  0.033827655	7.725000E+00	  0.033827655	3.235000E+01
71	  0.034028057	-1.937000E+00	  0.034028057	1.111660E+02	  0.034028057	8.114000E+00	  0.034028057	3.363900E+01
72	  0.034228459	-1.980000E+00	  0.034228459	1.089800E+02	  0.034228459	8.510000E+00	  0.034228459	3.498800E+01
73	  0.034428857	-2.021000E+00	  0.034428857	1.068350E+02	  0.034428857	8.918000E+00	  0.034428857	3.634200E+01
74	  0.034629259	-2.058000E+00	  0.034629259	1.047100E+02	  0.034629259	9.329000E+00	  0.034629259	3.771800E+01
75	  0.034829661	-2.093000E+00	  0.034829661	1.026110E+02	  0.034829661	9.754000E+00	  0.034829661	3.911200E+01
76	  0.035030060	-2.127000E+00	  0.035030060	1.005380E+02	  0.035030060	1.019500E+01	  0.035030060	4.052300E+01
77	  0.035230462	-2.166000E+00	  0.035230462	9.849500E+01	  0.035230462	1.068600E+01	  0.035230462	4.194300E+01
78	  0.035430863	-2.215000E+00	  0.035430863	9.651900E+01	  0.035430863	1.124500E+01	  0.035430863	4.333800E+01
79	  0.035631265	-2.267000E+00	  0.035631265	9.451000E+01	  0.035631265	1.186400E+01	  0.035631265	4.478700E+01
80	  0.035831664	-2.327000E+00	  0.035831664	9.247000E+01	  0.035831664	1.256200E+01	  0.035831664	4.628700E+01
81	  0.036032066	-2.387000E+00	  0.036032066	9.040000E+01	  0.036032066	1.331700E+01	  0.036032066	4.784500E+01
82	  0.036232468	-2.442000E+00	  0.036232468	8.829800E+01	  0.036232468	1.410500E+01	  0.036232468	4.947700E+01
83	  0.036432866	-2.500000E+00	  0.036432866	8.615800E+01	  0.036432866	1.497200E+01	  0.036432866	5.118000E+01
84	  0.036633268	-2.553000E+00	  0.036633268	8.402100E+01	  0.036633268	1.587400E+01	  0.036633268	5.293700E+01
85	  0.036833670	-2.604000E+00	  0.036833670	8.189800E+01	  0.036833670	1.682800E+01	  0.036833670	5.473400E+01
86	  0.037034072	-2.657000E+00	  0.037034072	7.978000E+01	  0.037034072	1.786200E+01	  0.037034072	5.657600E+01
87	  0.037234470	-2.706000E+00	  0.037234470	7.766800E+01	  0.037234470	1.895200E+01	  0.037234470	5.847300E+01
88	  0.037434869	-2.759000E+00	  0.037434869	7.557500E+01	  0.037434869	2.014400E+01	  0.037434869	6.039600E+01
89	  0.037635271	-2.813000E+00	  0.037635271	7.349100E+01	  0.037635271	2.143900E+01	  0.037635271	6.235700E+01
90	  0.037835669	-2.870000E+00	  0.037835669	7.139500E+01	  0.037835669	2.285800E+01	  0.037835669	6.437900E+01
91	  0.038036071	-2.930000E+00	  0.038036071	6.933500E+01	  0.038036071	2.439900E+01	  0.038036071	6.640000E+01
92	  0.038236473	-2.991000E+00	  0.038236473	6.725000E+01	  0.038236473	2.609000E+01	  0.038236473	6.849400E+01
93	  0.038436871	-3.052000E+00	  0.038436871	6.513400E+01	  0.038436871	2.794200E+01	  0.038436871	7.067200E+01
94	  0.038637273	-3.119000E+00	  0.038637273	6.297600E+01	  0.038637273	3.003500E+01	  0.038637273	7.291600E+01
95	  0.038837675	-3.185000E+00	  0.038837675	6.077800E+01	  0.038837675	3.234200E+01	  0.038837675	7.525600E+01
96	  0.039038073	-3.250000E+00	  0.039038073	5.854100E+01	  0.039038073	3.488400E+01	  0.039038073	7.769500E+01
97	  0.039238475	-3.306000E+00	  0.039238475	5.630500E+01	  0.039238475	3.759900E+01	  0.039238475	8.021800E+01
98	  0.039438877	-3.357000E+00	  0.039438877	5.411200E+01	  0.039438877	4.048100E+01	  0.039438877	8.276100E+01
99	  0.039639279	-3.404000E+00	  0.039639279	5.190500E+01	  0.039639279	4.362000E+01	  0.039639279	8.538900E+01
100	  0.039839678	-3.445000E+00	  0.039839678	4.979000E+01	  0.039839678	4.689600E+01	  0.039839678	8.795300E+01
101	  0.040040080	-3.492000E+00	  0.040040080	4.776100E+01	  0.040040080	5.039800E+01	  0.040040080	9.035400E+01
102	  0.040240481	-3.544000E+00	  0.040240481	4.570400E+01	  0.040240481	5.433200E+01	  0.040240481	9.269400E+01
103	  0.040440880	-3.604000E+00	  0.040440880	4.368100E+01	  0.040440880	5.862300E+01	  0.040440880	9.483400E+01
104	  0.040641282	-3.667000E+00	  0.040641282	4.162100E+01	  0.040641282	6.341000E+01	  0.040641282	9.684200E+01
105	  0.040841684	-3.726000E+00	  0.040841684	3.955200E+01	  0.040841684	6.859000E+01	  0.040841684	9.876100E+01
106	  0.041042086	-3.792000E+00	  0.041042086	3.746000E+01	  0.041042086	7.434100E+01	  0.041042086	1.003440E+02
107	  0.041242484	-3.855000E+00	  0.041242484	3.537300E+01	  0.041242484	8.052600E+01	  0.041242484	1.016530E+02
108	  0.041442886	-3.919000E+00	  0.041442886	3.327500E+01	  0.041442886	8.723100E+01	  0.041442886	1.025570E+02
109	  0.041643288	-3.981000E+00	  0.041643288	3.115200E+01	  0.041643288	9.450000E+01	  0.041643288	1.029970E+02
110	  0.041843686	-4.038000E+00	  0.041843686	2.902300E+01	  0.041843686	1.022530E+02	  0.041843686	1.029610E+02
111	  0.042044088	-4.095000E+00	  0.042044088	2.688600E+01	  0.042044088	1.105070E+02	  0.042044088	1.021660E+02
112	  0.042244490	-4.151000E+00	  0.042244490	2.477100E+01	  0.042244490	1.190730E+02	  0.042244490	1.005110E+02
113	  0.042444889	-4.206000E+00	  0.042444889	2.266500E+01	  0.042444889	1.279030E+02	  0.042444889	9.790300E+01
114	  0.042645290	-4.260000E+00	  0.042645290	2.055400E+01	  0.042645290	1.369210E+02	  0.042645290	9.418800E+01
115	  0.042845692	-4.309000E+00	  0.042845692	1.845700E+01	  0.042845692	1.459140E+02	  0.042845692	8.939000E+01
116	  0.043046094	-4.358000E+00	  0.043046094	1.635100E+01	  0.043046094	1.547610E+02	  0.043046094	8.328800E+01
117	  0.043246493	-4.405000E+00	  0.043246493	1.425600E+01	  0.043246493	1.631460E+02	  0.043246493	7.592300E+01
118	  0.043446895	-4.450000E+00	  0.043446895	1.219900E+01	  0.043446895	1.706850E+02	  0.043446895	6.740200E+01
119	  0.043647297	-4.499000E+00	  0.043647297	1.014100E+01	  0.043647297	1.771610E+02	  0.043647297	5.760200E+01
120	  0.043847695	-4.542000E+00	  0.043847695	8.107000E+00	  0.043847695	1.824990E+02	  0.043847695	4.703300E+01
121	  0.044048097	-4.587000E+00	  0.044048097	6.124000E+00	  0.044048097	1.862550E+02	  0.044048097	3.592500E+01
122	  0.044248499	-4.629000E+00	  0.044248499	4.118000E+00	  0.044248499	1.886750E+02	  0.044248499	2.425800E+01
123	  0.044448901	-4.669000E+00	  0.044448901	2.178000E+00	  0.044448901	1.895630E+02	  0.044448901	1.278100E+01
124	  0.044649299	-4.706000E+00	  0.044649299	2.420000E-01	  0.044649299	1.890500E+02	  0.044649299	1.406000E+00
125	  0.044849701	-4.750000E+00	  0.044849701	-1.657000E+00	  0.044849701	1.868600E+02	  0.044849701	-9.407000E+00
126	  0.045050103	-4.792000E+00	  0.045050103	-3.544000E+00	  0.045050103	1.835690E+02	  0.045050103	-1.955900E+01
127	  0.045250501	-4.835000E+00	  0.045250501	-5.417000E+00	  0.045250501	1.792240E+02	  0.045250501	-2.888200E+01
128	  0.045450903	-4.878000E+00	  0.045450903	-7.286000E+00	  0.045450903	1.740130E+02	  0.045450903	-3.729800E+01
129	  0.045651305	-4.921000E+00	  0.045651305	-9.162000E+00	  0.045651305	1.681680E+02	  0.045651305	-4.482500E+01
130	  0.045851704	-4.967000E+00	  0.045851704	-1.104200E+01	  0.045851704	1.617670E+02	  0.045851704	-5.132800E+01
131	  0.046052106	-5.020000E+00	  0.046052106	-1.293100E+01	  0.046052106	1.549270E+02	  0.046052106	-5.677300E+01
132	  0.046252504	-5.065000E+00	  0.046252504	-1.481900E+01	  0.046252504	1.481420E+02	  0.046252504	-6.143800E+01
133	  0.046452906	-5.112000E+00	  0.046452906	-1.671700E+01	  0.046452906	1.412750E+02	  0.046452906	-6.520600E+01
134	  0.046653304	-5.163000E+00	  0.046653304	-1.862200E+01	  0.046653304	1.344540E+02	  0.046653304	-6.813700E+01
135	  0.046853706	-5.208000E+00	  0.046853706	-2.056500E+01	  0.046853706	1.277710E+02	  0.046853706	-7.054400E+01
136	  0.047054108	-5.254000E+00	  0.047054108	-2.252000E+01	  0.047054108	1.212800E+02	  0.047054108	-7.228800E+01
137	  0.047254506	-5.294000E+00	  0.047254506	-2.449800E+01	  0.047254506	1.150480E+02	  0.047254506	-7.362300E+01
138	  0.047454908	-5.329000E+00	  0.047454908	-2.647600E+01	  0.047454908	1.091290E+02	  0.047454908	-7.453300E+01
139	  0.047655310	-5.362000E+00	  0.047655310	-2.846300E+01	  0.047655310	1.034910E+02	  0.047655310	-7.503100E+01
140	  0.047855709	-5.394000E+00	  0.047855709	-3.046000E+01	  0.047855709	9.813900E+01	  0.047855709	-7.518300E+01
141	  0.048056111	-5.421000E+00	  0.048056111	-3.241400E+01	  0.048056111	9.320400E+01	  0.048056111	-7.508100E+01
142	  0.048256513	-5.439000E+00	  0.048256513	-3.438700E+01	  0.048256513	8.850900E+01	  0.048256513	-7.483700E+01
143	  0.048456915	-5.454000E+00	  0.048456915	-3.634500E+01	  0.048456915	8.411900E+01	  0.048456915	-7.440700E+01
144	  0.048657313	-5.463000E+00	  0.048657313	-3.828300E+01	  0.048657313	8.001600E+01	  0.048657313	-7.384600E+01
145	  0.048857715	-5.469000E+00	  0.048857715	-4.013900E+01	  0.048857715	7.630800E+01	  0.048857715	-7.318000E+01
146	  0.049058117	-5.474000E+00	  0.049058117	-4.197000E+01	  0.049058117	7.285000E+01	  0.049058117	-7.240800E+01
147	  0.049258515	-5.475000E+00	  0.049258515	-4.372000E+01	  0.049258515	6.971700E+01	  0.049258515	-7.159900E+01
148	  0.049458917	-5.486000E+00	  0.049458917	-4.541400E+01	  0.049458917	6.688300E+01	  0.049458917	-7.062000E+01
149	  0.049659319	-5.490000E+00	  0.049659319	-4.708800E+01	  0.049659319	6.421100E+01	  0.049659319	-6.966200E+01
150	  0.049859721	-5.500000E+00	  0.049859721	-4.877100E+01	  0.049859721	6.169200E+01	  0.049859721	-6.859100E+01
151	  0.050060119	-5.515000E+00	  0.050060119	-5.041700E+01	  0.050060119	5.938400E+01	  0.050060119	-6.745700E+01
152	  0.050260521	-5.528000E+00	  0.050260521	-5.203800E+01	  0.050260521	5.723300E+01	  0.050260521	-6.632300E+01
153	  0.050460923	-5.549000E+00	  0.050460923	-5.367800E+01	  0.050460923	5.520800E+01	  0.050460923	-6.509700E+01
154	  0.050661322	-5.563000E+00	  0.050661322	-5.527900E+01	  0.050661322	5.330900E+01	  0.050661322	-6.394900E+01
155	  0.050861724	-5.580000E+00	  0.050861724	-5.691000E+01	  0.050861724	5.149400E+01	  0.050861724	-6.274600E+01
156	  0.051062126	-5.597000E+00	  0.051062126	-5.851300E+01	  0.051062126	4.981000E+01	  0.051062126	-6.155600E+01
157	  0.051262524	-5.613000E+00	  0.051262524	-6.009700E+01	  0.051262524	4.822300E+01	  0.051262524	-6.039700E+01
158	  0.051462926	-5.631000E+00	  0.051462926	-6.169100E+01	  0.051462926	4.672400E+01	  0.051462926	-5.921400E+01
159	  0.051663328	-5.654000E+00	  0.051663328	-6.326600E+01	  0.051663328	4.534200E+01	  0.051663328	-5.802100E+01
160	  0.051863730	-5.678000E+00	  0.051863730	-6.481900E+01	  0.051863730	4.405500E+01	  0.051863730	-5.684900E+01
161	  0.052064128	-5.707000E+00	  0.052064128	-6.642700E+01	  0.052064128	4.281000E+01	  0.052064128	-5.562600E+01
162	  0.052264530	-5.731000E+00	  0.052264530	-6.804500E+01	  0.052264530	4.160400E+01	  0.052264530	-5.443700E+01
163	  0.052464932	-5.751000E+00	  0.052464932	-6.968800E+01	  0.052464932	4.042100E+01	  0.052464932	-5.327200E+01
164	  0.052665330	-5.772000E+00	  0.052665330	-7.135200E+01	  0.052665330	3.929300E+01	  0.052665330	-5.209700E+01
165	  0.052865732	-5.793000E+00	  0.052865732	-7.302700E+01	  0.052865732	3.821200E+01	  0.052865732	-5.093500E+01
166	  0.053066134	-5.816000E+00	  0.053066134	-7.466300E+01	  0.053066134	3.722500E+01	  0.053066134	-4.980000E+01
167	  0.053266536	-5.824000E+00	  0.053266536	-7.633100E+01	  0.053266536	3.620400E+01	  0.053266536	-4.872600E+01
168	  0.053466935	-5.831000E+00	  0.053466935	-7.799300E+01	  0.053466935	3.523500E+01	  0.053466935	-4.766800E+01
169	  0.053667337	-5.832000E+00	  0.053667337	-7.965100E+01	  0.053667337	3.428900E+01	  0.053667337	-4.664800E+01
170	  0.053867739	-5.834000E+00	  0.053867739	-8.123400E+01	  0.053867739	3.343400E+01	  0.053867739	-4.567700E+01
171	  0.054068137	-5.837000E+00	  0.054068137	-8.281000E+01	  0.054068137	3.262400E+01	  0.054068137	-4.471800E+01
172	  0.054268539	-5.841000E+00	  0.054268539	-8.432700E+01	  0.054268539	3.188500E+01	  0.054268539	-4.379800E+01
173	  0.054468941	-5.843000E+00	  0.054468941	-8.581800E+01	  0.054468941	3.117900E+01	  0.054468941	-4.291300E+01
174	  0.054669339	-5.843000E+00	  0.054669339	-8.728200E+01	  0.054669339	3.050900E+01	  0.054669339	-4.205600E+01
175	  0.054869737	-5.845000E+00	  0.054869737	-8.874800E+01	  0.054869737	2.987700E+01	  0.054869737	-4.119800E+01
176	  0.055070139	-5.854000E+00	  0.055070139	-9.018100E+01	  0.055070139	2.930300E+01	  0.055070139	-4.035400E+01
177	  0.055270538	-5.863000E+00	  0.055270538	-9.165200E+01	  0.055270538	2.874500E+01	  0.055270538	-3.949300E+01
178	  0.055470940	-5.870000E+00	  0.055470940	-9.311400E+01	  0.055470940	2.820300E+01	  0.055470940	-3.865400E+01
179	  0.055671342	-5.877000E+00	  0.055671342	-9.455600E+01	  0.055671342	2.769000E+01	  0.055671342	-3.783700E+01
180	  0.055871744	-5.889000E+00	  0.055871744	-9.598500E+01	  0.055871744	2.722000E+01	  0.055871744	-3.702500E+01
181	  0.056072142	-5.892000E+00	  0.056072142	-9.743100E+01	  0.056072142	2.673400E+01	  0.056072142	-3.623100E+01
182	  0.056272544	-5.896000E+00	  0.056272544	-9.889800E+01	  0.056272544	2.626000E+01	  0.056272544	-3.543400E+01
183	  0.056472946	-5.900000E+00	  0.056472946	-1.003260E+02	  0.056472946	2.582100E+01	  0.056472946	-3.466400E+01
184	  0.056673344	-5.905000E+00	  0.056673344	-1.017340E+02	  0.056673344	2.540500E+01	  0.056673344	-3.391300E+01
185	  0.056873746	-5.906000E+00	  0.056873746	-1.031310E+02	  0.056873746	2.499600E+01	  0.056873746	-3.318200E+01
186	  0.057074148	-5.912000E+00	  0.057074148	-1.044990E+02	  0.057074148	2.462800E+01	  0.057074148	-3.246300E+01
187	  0.057274550	-5.916000E+00	  0.057274550	-1.058810E+02	  0.057274550	2.426200E+01	  0.057274550	-3.174900E+01
188	  0.057474948	-5.921000E+00	  0.057474948	-1.072490E+02	  0.057474948	2.391900E+01	  0.057474948	-3.104600E+01
189	  0.057675350	-5.925000E+00	  0.057675350	-1.086660E+02	  0.057675350	2.357100E+01	  0.057675350	-3.032700E+01
190	  0.057875752	-5.928000E+00	  0.057875752	-1.100590E+02	  0.057875752	2.323900E+01	  0.057875752	-2.963000E+01
191	  0.058076151	-5.926000E+00	  0.058076151	-1.114460E+02	  0.058076151	2.290700E+01	  0.058076151	-2.894800E+01
192	  0.058276553	-5.924000E+00	  0.058276553	-1.128210E+02	  0.058276553	2.258800E+01	  0.058276553	-2.827900E+01
193	  0.058476955	-5.917000E+00	  0.058476955	-1.141920E+02	  0.058476955	2.226500E+01	  0.058476955	-2.762500E+01
194	  0.058677353	-5.908000E+00	  0.058677353	-1.155430E+02	  0.058677353	2.195200E+01	  0.058677353	-2.698700E+01
195	  0.058877755	-5.898000E+00	  0.058877755	-1.168380E+02	  0.058877755	2.165800E+01	  0.058877755	-2.638200E+01
196	  0.059078157	-5.889000E+00	  0.059078157	-1.181440E+02	  0.059078157	2.137500E+01	  0.059078157	-2.577400E+01
197	  0.059278559	-5.874000E+00	  0.059278559	-1.193690E+02	  0.059278559	2.109600E+01	  0.059278559	-2.521500E+01
198	  0.059478957	-5.872000E+00	  0.059478957	-1.205570E+02	  0.059478957	2.087200E+01	  0.059478957	-2.466200E+01
199	  0.059679359	-5.867000E+00	  0.059679359	-1.217600E+02	  0.059679359	2.064500E+01	  0.059679359	-2.410800E+01
200	  0.059879761	-5.864000E+00	  0.059879761	-1.229250E+02	  0.059879761	2.043500E+01	  0.059879761	-2.357400E+01
201	  0.060080159	-5.863000E+00	  0.060080159	-1.241030E+02	  0.060080159	2.023800E+01	  0.060080159	-2.303400E+01
202	  0.060280561	-5.864000E+00	  0.060280561	-1.252670E+02	  0.060280561	2.005500E+01	  0.060280561	-2.250300E+01
203	  0.060480963	-5.869000E+00	  0.060480963	-1.264710E+02	  0.060480963	1.988300E+01	  0.060480963	-2.195300E+01
204	  0.060681365	-5.874000E+00	  0.060681365	-1.276530E+02	  0.060681365	1.972200E+01	  0.060681365	-2.141500E+01
205	  0.060881764	-5.885000E+00	  0.060881764	-1.288290E+02	  0.060881764	1.958200E+01	  0.060881764	-2.087900E+01
206	  0.061082166	-5.890000E+00	  0.061082166	-1.300180E+02	  0.061082166	1.943100E+01	  0.061082166	-2.034600E+01
207	  0.061282568	-5.899000E+00	  0.061282568	-1.312240E+02	  0.061282568	1.929400E+01	  0.061282568	-1.980600E+01
208	  0.061482966	-5.904000E+00	  0.061482966	-1.324790E+02	  0.061482966	1.914300E+01	  0.061482966	-1.925200E+01
209	  0.061683368	-5.911000E+00	  0.061683368	-1.336990E+02	  0.061683368	1.900900E+01	  0.061683368	-1.871400E+01
210	  0.061883770	-5.920000E+00	  0.061883770	-1.349300E+02	  0.061883770	1.888500E+01	  0.061883770	-1.817400E+01
211	  0.062084168	-5.927000E+00	  0.062084168	-1.361680E+02	  0.062084168	1.875800E+01	  0.062084168	-1.763600E+01
212	  0.062284570	-5.932000E+00	  0.062284570	-1.374010E+02	  0.062284570	1.863300E+01	  0.062284570	-1.710400E+01
213	  0.062484972	-5.934000E+00	  0.062484972	-1.386190E+02	  0.062484972	1.850700E+01	  0.062484972	-1.658400E+01
214	  0.062685370	-5.935000E+00	  0.062685370	-1.398600E+02	  0.062685370	1.837800E+01	  0.062685370	-1.605800E+01
215	  0.062885776	-5.937000E+00	  0.062885776	-1.411180E+02	  0.062885776	1.825700E+01	  0.062885776	-1.552700E+01
216	  0.063086174	-5.938000E+00	  0.063086174	-1.423720E+02	  0.063086174	1.813800E+01	  0.063086174	-1.500000E+01
217	  0.063286573	-5.941000E+00	  0.063286573	-1.436770E+02	  0.063286573	1.802600E+01	  0.063286573	-1.445400E+01
218	  0.063486971	-5.935000E+00	  0.063486971	-1.449240E+02	  0.063486971	1.789700E+01	  0.063486971	-1.394000E+01
219	  0.063687377	-5.931000E+00	  0.063687377	-1.461860E+02	  0.063687377	1.777900E+01	  0.063687377	-1.342000E+01
220	  0.063887775	-5.916000E+00	  0.063887775	-1.474330E+02	  0.063887775	1.763700E+01	  0.063887775	-1.291500E+01
221	  0.064088173	-5.903000E+00	  0.064088173	-1.486390E+02	  0.064088173	1.750700E+01	  0.064088173	-1.242700E+01
222	  0.064288579	-5.891000E+00	  0.064288579	-1.498160E+02	  0.064288579	1.738800E+01	  0.064288579	-1.195100E+01
223	  0.064488977	-5.882000E+00	  0.064488977	-1.509600E+02	  0.064488977	1.728200E+01	  0.064488977	-1.148900E+01
224	  0.064689375	-5.868000E+00	  0.064689375	-1.520740E+02	  0.064689375	1.716900E+01	  0.064689375	-1.104200E+01
225	  0.064889781	-5.856000E+00	  0.064889781	-1.531770E+02	  0.064889781	1.706600E+01	  0.064889781	-1.059900E+01
226	  0.065090179	-5.846000E+00	  0.065090179	-1.542700E+02	  0.065090179	1.697200E+01	  0.065090179	-1.016100E+01
227	  0.065290578	-5.836000E+00	  0.065290578	-1.553330E+02	  0.065290578	1.688400E+01	  0.065290578	-9.736000E+00
228	  0.065490983	-5.831000E+00	  0.065490983	-1.563880E+02	  0.065490983	1.680900E+01	  0.065490983	-9.313000E+00
229	  0.065691382	-5.824000E+00	  0.065691382	-1.574330E+02	  0.065691382	1.673700E+01	  0.065691382	-8.896000E+00
230	  0.065891780	-5.819000E+00	  0.065891780	-1.584490E+02	  0.065891780	1.667300E+01	  0.065891780	-8.490000E+00
231	  0.066092186	-5.813000E+00	  0.066092186	-1.594660E+02	  0.066092186	1.660700E+01	  0.066092186	-8.085000E+00
232	  0.066292584	-5.813000E+00	  0.066292584	-1.604780E+02	  0.066292584	1.656100E+01	  0.066292584	-7.681000E+00
233	  0.066492982	-5.808000E+00	  0.066492982	-1.615060E+02	  0.066492982	1.650400E+01	  0.066492982	-7.273000E+00
234	  0.066693388	-5.808000E+00	  0.066693388	-1.625000E+02	  0.066693388	1.646200E+01	  0.066693388	-6.878000E+00
235	  0.066893786	-5.812000E+00	  0.066893786	-1.635250E+02	  0.066893786	1.643300E+01	  0.066893786	-6.470000E+00
236	  0.067094192	-5.813000E+00	  0.067094192	-1.645310E+02	  0.067094192	1.640000E+01	  0.067094192	-6.072000E+00
237	  0.067294590	-5.818000E+00	  0.067294590	-1.655510E+02	  0.067294590	1.637900E+01	  0.067294590	-5.667000E+00
238	  0.067494988	-5.826000E+00	  0.067494988	-1.665610E+02	  0.067494988	1.636800E+01	  0.067494988	-5.266000E+00
239	  0.067695394	-5.827000E+00	  0.067695394	-1.675950E+02	  0.067695394	1.634200E+01	  0.067695394	-4.859000E+00
240	  0.067895792	-5.831000E+00	  0.067895792	-1.685590E+02	  0.067895792	1.632500E+01	  0.067895792	-4.479000E+00
241	  0.068096191	-5.837000E+00	  0.068096191	-1.696010E+02	  0.068096191	1.631600E+01	  0.068096191	-4.068000E+00
242	  0.068296596	-5.845000E+00	  0.068296596	-1.706460E+02	  0.068296596	1.631400E+01	  0.068296596	-3.657000E+00
243	  0.068496995	-5.844000E+00	  0.068496995	-1.716520E+02	  0.068496995	1.629100E+01	  0.068496995	-3.263000E+00
244	  0.068697393	-5.855000E+00	  0.068697393	-1.727200E+02	  0.068697393	1.630200E+01	  0.068697393	-2.843000E+00
245	  0.068897791	-5.853000E+00	  0.068897791	-1.737510E+02	  0.068897791	1.627900E+01	  0.068897791	-2.440000E+00
246	  0.069098189	-5.852000E+00	  0.069098189	-1.747860E+02	  0.069098189	1.626500E+01	  0.069098189	-2.035000E+00
247	  0.069298595	-5.855000E+00	  0.069298595	-1.758190E+02	  0.069298595	1.626200E+01	  0.069298595	-1.632000E+00
248	  0.069498993	-5.855000E+00	  0.069498993	-1.768550E+02	  0.069498993	1.625400E+01	  0.069498993	-1.227000E+00
249	  0.069699399	-5.855000E+00	  0.069699399	-1.778630E+02	  0.069699399	1.624800E+01	  0.069699399	-8.330000E-01
250	  0.069899797	-5.857000E+00	  0.069899797	-1.788440E+02	  0.069899797	1.624800E+01	  0.069899797	-4.500000E-01
251	  0.070100196	-5.854000E+00	  0.070100196	-1.798480E+02	  0.070100196	1.624000E+01	  0.070100196	-5.900000E-02
252	  0.070300601	-5.853000E+00	  0.070300601	1.791580E+02	  0.070300601	1.623800E+01	  0.070300601	3.280000E-01
253	  0.070501000	-5.856000E+00	  0.070501000	1.782170E+02	  0.070501000	1.624900E+01	  0.070501000	6.950000E-01
254	  0.070701398	-5.853000E+00	  0.070701398	1.772060E+02	  0.070701398	1.624700E+01	  0.070701398	1.090000E+00
255	  0.070901804	-5.851000E+00	  0.070901804	1.762720E+02	  0.070901804	1.624800E+01	  0.070901804	1.455000E+00
256	  0.071102202	-5.853000E+00	  0.071102202	1.753280E+02	  0.071102202	1.626200E+01	  0.071102202	1.823000E+00
257	  0.071302600	-5.853000E+00	  0.071302600	1.743910E+02	  0.071302600	1.627100E+01	  0.071302600	2.190000E+00
258	  0.071503006	-5.854000E+00	  0.071503006	1.734610E+02	  0.071503006	1.628600E+01	  0.071503006	2.553000E+00
259	  0.071703404	-5.854000E+00	  0.071703404	1.725510E+02	  0.071703404	1.630300E+01	  0.071703404	2.909000E+00
260	  0.071903802	-5.860000E+00	  0.071903802	1.715960E+02	  0.071903802	1.633500E+01	  0.071903802	3.283000E+00
261	  0.072104208	-5.868000E+00	  0.072104208	1.707060E+02	  0.072104208	1.637200E+01	  0.072104208	3.630000E+00
262	  0.072304606	-5.877000E+00	  0.072304606	1.698020E+02	  0.072304606	1.641400E+01	  0.072304606	3.983000E+00
263	  0.072505005	-5.882000E+00	  0.072505005	1.688890E+02	  0.072505005	1.645000E+01	  0.072505005	4.341000E+00
264	  0.072705410	-5.890000E+00	  0.072705410	1.680140E+02	  0.072705410	1.649300E+01	  0.072705410	4.683000E+00
265	  0.072905809	-5.900000E+00	  0.072905809	1.670980E+02	  0.072905809	1.654600E+01	  0.072905809	5.041000E+00
266	  0.073106214	-5.910000E+00	  0.073106214	1.661510E+02	  0.073106214	1.659900E+01	  0.073106214	5.411000E+00
267	  0.073306613	-5.926000E+00	  0.073306613	1.652500E+02	  0.073306613	1.667100E+01	  0.073306613	5.762000E+00
268	  0.073507011	-5.941000E+00	  0.073507011	1.642790E+02	  0.073507011	1.674200E+01	  0.073507011	6.141000E+00
269	  0.073707417	-5.946000E+00	  0.073707417	1.633630E+02	  0.073707417	1.679100E+01	  0.073707417	6.501000E+00
270	  0.073907815	-5.955000E+00	  0.073907815	1.624270E+02	  0.073907815	1.684900E+01	  0.073907815	6.868000E+00
271	  0.074108213	-5.968000E+00	  0.074108213	1.615170E+02	  0.074108213	1.692100E+01	  0.074108213	7.224000E+00
272	  0.074308619	-5.976000E+00	  0.074308619	1.605490E+02	  0.074308619	1.698400E+01	  0.074308619	7.605000E+00
273	  0.074509017	-5.986000E+00	  0.074509017	1.595700E+02	  0.074509017	1.705600E+01	  0.074509017	7.990000E+00
274	  0.074709415	-5.998000E+00	  0.074709415	1.586320E+02	  0.074709415	1.713300E+01	  0.074709415	8.359000E+00
275	  0.074909821	-6.007000E+00	  0.074909821	1.576780E+02	  0.074909821	1.720600E+01	  0.074909821	8.735000E+00
276	  0.075110219	-6.014000E+00	  0.075110219	1.567250E+02	  0.075110219	1.727500E+01	  0.075110219	9.112000E+00
277	  0.075310618	-6.019000E+00	  0.075310618	1.557670E+02	  0.075310618	1.734200E+01	  0.075310618	9.493000E+00
278	  0.075511023	-6.022000E+00	  0.075511023	1.547930E+02	  0.075511023	1.740800E+01	  0.075511023	9.881000E+00
279	  0.075711422	-6.025000E+00	  0.075711422	1.538820E+02	  0.075711422	1.747200E+01	  0.075711422	1.024500E+01
280	  0.075911827	-6.030000E+00	  0.075911827	1.529300E+02	  0.075911827	1.754500E+01	  0.075911827	1.062600E+01
281	  0.076112226	-6.027000E+00	  0.076112226	1.520030E+02	  0.076112226	1.759900E+01	  0.076112226	1.100000E+01
282	  0.076312624	-6.025000E+00	  0.076312624	1.511200E+02	  0.076312624	1.765500E+01	  0.076312624	1.135800E+01
283	  0.076513030	-6.025000E+00	  0.076513030	1.502200E+02	  0.076513030	1.772000E+01	  0.076513030	1.172200E+01
284	  0.076713428	-6.024000E+00	  0.076713428	1.493760E+02	  0.076713428	1.777900E+01	  0.076713428	1.206500E+01
285	  0.076913826	-6.024000E+00	  0.076913826	1.485010E+02	  0.076913826	1.784500E+01	  0.076913826	1.242200E+01
286	  0.077114232	-6.021000E+00	  0.077114232	1.476950E+02	  0.077114232	1.789900E+01	  0.077114232	1.275300E+01
287	  0.077314630	-6.020000E+00	  0.077314630	1.468970E+02	  0.077314630	1.796200E+01	  0.077314630	1.307900E+01
288	  0.077515028	-6.026000E+00	  0.077515028	1.461150E+02	  0.077515028	1.804300E+01	  0.077515028	1.339700E+01
289	  0.077715434	-6.033000E+00	  0.077715434	1.453750E+02	  0.077715434	1.812500E+01	  0.077715434	1.369800E+01
290	  0.077915832	-6.038000E+00	  0.077915832	1.446130E+02	  0.077915832	1.820600E+01	  0.077915832	1.400900E+01
291	  0.078116231	-6.051000E+00	  0.078116231	1.438550E+02	  0.078116231	1.831100E+01	  0.078116231	1.431400E+01
292	  0.078316636	-6.063000E+00	  0.078316636	1.430710E+02	  0.078316636	1.841500E+01	  0.078316636	1.463200E+01
293	  0.078517035	-6.079000E+00	  0.078517035	1.422920E+02	  0.078517035	1.853300E+01	  0.078517035	1.494400E+01
294	  0.078717433	-6.093000E+00	  0.078717433	1.415360E+02	  0.078717433	1.864400E+01	  0.078717433	1.525000E+01
295	  0.078917839	-6.107000E+00	  0.078917839	1.407470E+02	  0.078917839	1.876500E+01	  0.078917839	1.556900E+01
296	  0.079118237	-6.125000E+00	  0.079118237	1.399790E+02	  0.079118237	1.889200E+01	  0.079118237	1.587800E+01
297	  0.079318643	-6.150000E+00	  0.079318643	1.392070E+02	  0.079318643	1.904300E+01	  0.079318643	1.618300E+01
298	  0.079519041	-6.173000E+00	  0.079519041	1.384270E+02	  0.079519041	1.919300E+01	  0.079519041	1.649400E+01
299	  0.079719439	-6.196000E+00	  0.079719439	1.375670E+02	  0.079719439	1.935200E+01	  0.079719439	1.683800E+01
300	  0.079919845	-6.224000E+00	  0.079919845	1.367220E+02	  0.079919845	1.952800E+01	  0.079919845	1.717200E+01
301	  0.080120243	-6.251000E+00	  0.080120243	1.359020E+02	  0.080120243	1.970100E+01	  0.080120243	1.749700E+01
302	  0.080320641	-6.277000E+00	  0.080320641	1.350050E+02	  0.080320641	1.988100E+01	  0.080320641	1.785500E+01
303	  0.080521047	-6.301000E+00	  0.080521047	1.340980E+02	  0.080521047	2.006300E+01	  0.080521047	1.821900E+01
304	  0.080721445	-6.325000E+00	  0.080721445	1.332030E+02	  0.080721445	2.024700E+01	  0.080721445	1.857800E+01
305	  0.080921844	-6.352000E+00	  0.080921844	1.322870E+02	  0.080921844	2.044400E+01	  0.080921844	1.894400E+01
306	  0.081122249	-6.363000E+00	  0.081122249	1.313590E+02	  0.081122249	2.060200E+01	  0.081122249	1.933100E+01
307	  0.081322648	-6.380000E+00	  0.081322648	1.304300E+02	  0.081322648	2.078000E+01	  0.081322648	1.971300E+01
308	  0.081523046	-6.390000E+00	  0.081523046	1.295030E+02	  0.081523046	2.094300E+01	  0.081523046	2.010100E+01
309	  0.081723452	-6.402000E+00	  0.081723452	1.286070E+02	  0.081723452	2.111000E+01	  0.081723452	2.047600E+01
310	  0.081923850	-6.410000E+00	  0.081923850	1.277140E+02	  0.081923850	2.127000E+01	  0.081923850	2.085400E+01
311	  0.082124248	-6.417000E+00	  0.082124248	1.268130E+02	  0.082124248	2.143300E+01	  0.082124248	2.123700E+01
312	  0.082324654	-6.415000E+00	  0.082324654	1.260080E+02	  0.082324654	2.155700E+01	  0.082324654	2.159000E+01
313	  0.082525052	-6.421000E+00	  0.082525052	1.251390E+02	  0.082525052	2.171700E+01	  0.082525052	2.196400E+01
314	  0.082725458	-6.430000E+00	  0.082725458	1.243640E+02	  0.082725458	2.187200E+01	  0.082725458	2.229500E+01
315	  0.082925856	-6.428000E+00	  0.082925856	1.236000E+02	  0.082925856	2.199800E+01	  0.082925856	2.263300E+01
316	  0.083126254	-6.436000E+00	  0.083126254	1.228700E+02	  0.083126254	2.214900E+01	  0.083126254	2.294600E+01
317	  0.083326660	-6.452000E+00	  0.083326660	1.221200E+02	  0.083326660	2.233100E+01	  0.083326660	2.326000E+01
318	  0.083527058	-6.460000E+00	  0.083527058	1.213510E+02	  0.083527058	2.249600E+01	  0.083527058	2.359200E+01
319	  0.083727457	-6.468000E+00	  0.083727457	1.206370E+02	  0.083727457	2.265200E+01	  0.083727457	2.390000E+01
320	  0.083927862	-6.480000E+00	  0.083927862	1.199800E+02	  0.083927862	2.281300E+01	  0.083927862	2.417900E+01
321	  0.084128261	-6.493000E+00	  0.084128261	1.192450E+02	  0.084128261	2.299300E+01	  0.084128261	2.449200E+01
322	  0.084328659	-6.506000E+00	  0.084328659	1.186200E+02	  0.084328659	2.315800E+01	  0.084328659	2.475500E+01
323	  0.084529065	-6.527000E+00	  0.084529065	1.179450E+02	  0.084529065	2.335600E+01	  0.084529065	2.503100E+01
324	  0.084729463	-6.544000E+00	  0.084729463	1.172710E+02	  0.084729463	2.354400E+01	  0.084729463	2.531200E+01
325	  0.084929861	-6.570000E+00	  0.084929861	1.165890E+02	  0.084929861	2.376600E+01	  0.084929861	2.558400E+01
326	  0.085130267	-6.597000E+00	  0.085130267	1.159020E+02	  0.085130267	2.399500E+01	  0.085130267	2.585600E+01
327	  0.085330658	-6.625000E+00	  0.085330658	1.152260E+02	  0.085330658	2.422600E+01	  0.085330658	2.612200E+01
328	  0.085531056	-6.657000E+00	  0.085531056	1.145390E+02	  0.085531056	2.447500E+01	  0.085531056	2.638600E+01
329	  0.085731462	-6.687000E+00	  0.085731462	1.138270E+02	  0.085731462	2.472500E+01	  0.085731462	2.666500E+01
330	  0.085931860	-6.719000E+00	  0.085931860	1.130970E+02	  0.085931860	2.499300E+01	  0.085931860	2.694600E+01
331	  0.086132258	-6.754000E+00	  0.086132258	1.123460E+02	  0.086132258	2.527400E+01	  0.086132258	2.723300E+01
332	  0.086332664	-6.780000E+00	  0.086332664	1.115740E+02	  0.086332664	2.553900E+01	  0.086332664	2.754300E+01
333	  0.086533062	-6.807000E+00	  0.086533062	1.108050E+02	  0.086533062	2.581200E+01	  0.086533062	2.784800E+01
334	  0.086733460	-6.834000E+00	  0.086733460	1.100070E+02	  0.086733460	2.609500E+01	  0.086733460	2.816700E+01
335	  0.086933866	-6.853000E+00	  0.086933866	1.092130E+02	  0.086933866	2.636000E+01	  0.086933866	2.849500E+01
336	  0.087134264	-6.881000E+00	  0.087134264	1.084740E+02	  0.087134264	2.663900E+01	  0.087134264	2.878500E+01
337	  0.087334670	-6.900000E+00	  0.087334670	1.076940E+02	  0.087334670	2.690800E+01	  0.087334670	2.910800E+01
338	  0.087535068	-6.916000E+00	  0.087535068	1.069530E+02	  0.087535068	2.716000E+01	  0.087535068	2.941900E+01
339	  0.087735467	-6.937000E+00	  0.087735467	1.062080E+02	  0.087735467	2.743400E+01	  0.087735467	2.972100E+01
340	  0.087935872	-6.950000E+00	  0.087935872	1.054950E+02	  0.087935872	2.767800E+01	  0.087935872	3.002400E+01
341	  0.088136271	-6.971000E+00	  0.088136271	1.047960E+02	  0.088136271	2.794800E+01	  0.088136271	3.030400E+01
342	  0.088336669	-6.992000E+00	  0.088336669	1.040920E+02	  0.088336669	2.822000E+01	  0.088336669	3.058900E+01
343	  0.088537075	-7.012000E+00	  0.088537075	1.034120E+02	  0.088537075	2.848700E+01	  0.088537075	3.086200E+01
344	  0.088737473	-7.032000E+00	  0.088737473	1.027080E+02	  0.088737473	2.876600E+01	  0.088737473	3.114600E+01
345	  0.088937871	-7.055000E+00	  0.088937871	1.020490E+02	  0.088937871	2.904400E+01	  0.088937871	3.140200E+01
346	  0.089138277	-7.071000E+00	  0.089138277	1.013900E+02	  0.089138277	2.930500E+01	  0.089138277	3.167200E+01
347	  0.089338675	-7.092000E+00	  0.089338675	1.007300E+02	  0.089338675	2.958600E+01	  0.089338675	3.193000E+01
348	  0.089539073	-7.111000E+00	  0.089539073	1.001430E+02	  0.089539073	2.983900E+01	  0.089539073	3.215900E+01
349	  0.089739479	-7.132000E+00	  0.089739479	9.951000E+01	  0.089739479	3.011700E+01	  0.089739479	3.240400E+01
350	  0.089939877	-7.158000E+00	  0.089939877	9.891200E+01	  0.089939877	3.040000E+01	  0.089939877	3.262200E+01
351	  0.090140276	-7.178000E+00	  0.090140276	9.834100E+01	  0.090140276	3.066200E+01	  0.090140276	3.283800E+01
352	  0.090340681	-7.205000E+00	  0.090340681	9.774700E+01	  0.090340681	3.095300E+01	  0.090340681	3.304900E+01
353	  0.090541080	-7.239000E+00	  0.090541080	9.717800E+01	  0.090541080	3.126100E+01	  0.090541080	3.322900E+01
354	  0.090741485	-7.270000E+00	  0.090741485	9.662200E+01	  0.090741485	3.155700E+01	  0.090741485	3.341000E+01
355	  0.090941884	-7.305000E+00	  0.090941884	9.605400E+01	  0.090941884	3.187300E+01	  0.090941884	3.358400E+01
356	  0.091142282	-7.338000E+00	  0.091142282	9.548400E+01	  0.091142282	3.218600E+01	  0.091142282	3.376100E+01
357	  0.091342688	-7.376000E+00	  0.091342688	9.486200E+01	  0.091342688	3.253800E+01	  0.091342688	3.394800E+01
358	  0.091543086	-7.411000E+00	  0.091543086	9.429500E+01	  0.091543086	3.286400E+01	  0.091543086	3.411300E+01
359	  0.091743484	-7.448000E+00	  0.091743484	9.368600E+01	  0.091743484	3.321400E+01	  0.091743484	3.429000E+01
360	  0.091943890	-7.485000E+00	  0.091943890	9.309500E+01	  0.091943890	3.356000E+01	  0.091943890	3.445700E+01
361	  0.092144288	-7.518000E+00	  0.092144288	9.250100E+01	  0.092144288	3.389700E+01	  0.092144288	3.463500E+01
362	  0.092344686	-7.558000E+00	  0.092344686	9.189600E+01	  0.092344686	3.426400E+01	  0.092344686	3.479500E+01
363	  0.092545092	-7.588000E+00	  0.092545092	9.131100E+01	  0.092545092	3.459700E+01	  0.092545092	3.497000E+01
364	  0.092745490	-7.625000E+00	  0.092745490	9.071600E+01	  0.092745490	3.495800E+01	  0.092745490	3.512700E+01
365	  0.092945889	-7.653000E+00	  0.092945889	9.008700E+01	  0.092945889	3.531000E+01	  0.092945889	3.532300E+01
366	  0.093146294	-7.698000E+00	  0.093146294	8.952500E+01	  0.093146294	3.568600E+01	  0.093146294	3.543700E+01
367	  0.093346693	-7.727000E+00	  0.093346693	8.891400E+01	  0.093346693	3.604100E+01	  0.093346693	3.561500E+01
368	  0.093547091	-7.769000E+00	  0.093547091	8.835200E+01	  0.093547091	3.641400E+01	  0.093547091	3.573100E+01
369	  0.093747497	-7.797000E+00	  0.093747497	8.774500E+01	  0.093747497	3.677100E+01	  0.093747497	3.590500E+01
370	  0.093947895	-7.838000E+00	  0.093947895	8.713800E+01	  0.093947895	3.716500E+01	  0.093947895	3.603900E+01
371	  0.094148301	-7.866000E+00	  0.094148301	8.650900E+01	  0.094148301	3.753900E+01	  0.094148301	3.621700E+01
372	  0.094348699	-7.902000E+00	  0.094348699	8.588100E+01	  0.094348699	3.794000E+01	  0.094348699	3.636400E+01
373	  0.094549097	-7.927000E+00	  0.094549097	8.529900E+01	  0.094549097	3.829000E+01	  0.094549097	3.652600E+01
374	  0.094749503	-7.953000E+00	  0.094749503	8.466600E+01	  0.094749503	3.867300E+01	  0.094749503	3.670200E+01
375	  0.094949901	-7.978000E+00	  0.094949901	8.407800E+01	  0.094949901	3.903300E+01	  0.094949901	3.686000E+01
376	  0.095150299	-7.995000E+00	  0.095150299	8.351600E+01	  0.095150299	3.936400E+01	  0.095150299	3.703100E+01
377	  0.095350705	-8.013000E+00	  0.095350705	8.293200E+01	  0.095350705	3.971000E+01	  0.095350705	3.720700E+01
378	  0.095551103	-8.031000E+00	  0.095551103	8.239300E+01	  0.095551103	4.003700E+01	  0.095551103	3.736200E+01
379	  0.095751502	-8.042000E+00	  0.095751502	8.186800E+01	  0.095751502	4.034300E+01	  0.095751502	3.753200E+01
380	  0.095951907	-8.059000E+00	  0.095951907	8.136400E+01	  0.095951907	4.065300E+01	  0.095951907	3.767500E+01
381	  0.096152306	-8.078000E+00	  0.096152306	8.088000E+01	  0.096152306	4.096300E+01	  0.096152306	3.779800E+01
382	  0.096352704	-8.084000E+00	  0.096352704	8.044100E+01	  0.096352704	4.121700E+01	  0.096352704	3.794900E+01
383	  0.096553110	-8.095000E+00	  0.096553110	8.001200E+01	  0.096553110	4.148000E+01	  0.096553110	3.807700E+01
384	  0.096753508	-8.107000E+00	  0.096753508	7.955800E+01	  0.096753508	4.176400E+01	  0.096753508	3.820600E+01
385	  0.096953906	-8.117000E+00	  0.096953906	7.919100E+01	  0.096953906	4.199500E+01	  0.096953906	3.831200E+01
386	  0.097154312	-8.127000E+00	  0.097154312	7.883200E+01	  0.097154312	4.222300E+01	  0.097154312	3.841300E+01
387	  0.097354710	-8.135000E+00	  0.097354710	7.852100E+01	  0.097354710	4.241900E+01	  0.097354710	3.850200E+01
388	  0.097555116	-8.149000E+00	  0.097555116	7.818400E+01	  0.097555116	4.264700E+01	  0.097555116	3.857700E+01
389	  0.097755514	-8.162000E+00	  0.097755514	7.788000E+01	  0.097755514	4.285500E+01	  0.097755514	3.864200E+01
390	  0.097955912	-8.174000E+00	  0.097955912	7.760700E+01	  0.097955912	4.304300E+01	  0.097955912	3.869800E+01
391	  0.098156318	-8.198000E+00	  0.098156318	7.732400E+01	  0.098156318	4.326600E+01	  0.098156318	3.871200E+01
392	  0.098356716	-8.215000E+00	  0.098356716	7.711100E+01	  0.098356716	4.343200E+01	  0.098356716	3.872600E+01
393	  0.098557115	-8.243000E+00	  0.098557115	7.684300E+01	  0.098557115	4.365700E+01	  0.098557115	3.871600E+01
394	  0.098757520	-8.272000E+00	  0.098757520	7.662800E+01	  0.098757520	4.385400E+01	  0.098757520	3.868000E+01
395	  0.098957919	-8.295000E+00	  0.098957919	7.634000E+01	  0.098957919	4.408200E+01	  0.098957919	3.869100E+01
396	  0.099158317	-8.336000E+00	  0.099158317	7.601500E+01	  0.099158317	4.437100E+01	  0.099158317	3.864800E+01
397	  0.099358723	-8.367000E+00	  0.099358723	7.573300E+01	  0.099358723	4.461200E+01	  0.099358723	3.862400E+01
398	  0.099559121	-8.407000E+00	  0.099559121	7.537000E+01	  0.099559121	4.492200E+01	  0.099559121	3.859200E+01
399	  0.099759519	-8.444000E+00	  0.099759519	7.499400E+01	  0.099759519	4.523400E+01	  0.099759519	3.857000E+01
400	  0.099959925	-8.483000E+00	  0.099959925	7.456800E+01	  0.099959925	4.558100E+01	  0.099959925	3.855600E+01
401	  0.100160323	-8.509000E+00	  0.100160323	7.416900E+01	  0.100160323	4.588300E+01	  0.100160323	3.858300E+01
402	  0.100360721	-8.550000E+00	  0.100360721	7.364300E+01	  0.100360721	4.629700E+01	  0.100360721	3.858800E+01
403	  0.100561127	-8.575000E+00	  0.100561127	7.316600E+01	  0.100561127	4.665000E+01	  0.100561127	3.863500E+01
404	  0.100761525	-8.593000E+00	  0.100761525	7.263300E+01	  0.100761525	4.702400E+01	  0.100761525	3.872800E+01
405	  0.100961931	-8.616000E+00	  0.100961931	7.213500E+01	  0.100961931	4.738900E+01	  0.100961931	3.878600E+01
406	  0.101162329	-8.628000E+00	  0.101162329	7.157700E+01	  0.101162329	4.777300E+01	  0.101162329	3.890400E+01
407	  0.101362728	-8.640000E+00	  0.101362728	7.105900E+01	  0.101362728	4.813500E+01	  0.101362728	3.900600E+01
408	  0.101563133	-8.645000E+00	  0.101563133	7.047600E+01	  0.101563133	4.852800E+01	  0.101563133	3.916000E+01
409	  0.101763532	-8.648000E+00	  0.101763532	6.988300E+01	  0.101763532	4.893100E+01	  0.101763532	3.931600E+01
410	  0.101963930	-8.652000E+00	  0.101963930	6.937800E+01	  0.101963930	4.927900E+01	  0.101963930	3.944400E+01
411	  0.102164336	-8.638000E+00	  0.102164336	6.875400E+01	  0.102164336	4.967900E+01	  0.102164336	3.968200E+01
412	  0.102364734	-8.630000E+00	  0.102364734	6.825100E+01	  0.102364734	5.001300E+01	  0.102364734	3.985800E+01
413	  0.102565132	-8.614000E+00	  0.102565132	6.784700E+01	  0.102565132	5.026500E+01	  0.102565132	4.004700E+01
414	  0.102765530	-8.593000E+00	  0.102765530	6.725000E+01	  0.102765530	5.065000E+01	  0.102765530	4.030900E+01
415	  0.102965929	-8.570000E+00	  0.102965929	6.684200E+01	  0.102965929	5.090200E+01	  0.102965929	4.052500E+01
416	  0.103166327	-8.547000E+00	  0.103166327	6.636900E+01	  0.103166327	5.120200E+01	  0.103166327	4.076500E+01
417	  0.103366733	-8.525000E+00	  0.103366733	6.596000E+01	  0.103366733	5.146400E+01	  0.103366733	4.098000E+01
418	  0.103567131	-8.495000E+00	  0.103567131	6.556400E+01	  0.103567131	5.170400E+01	  0.103567131	4.123300E+01
419	  0.103767529	-8.476000E+00	  0.103767529	6.526600E+01	  0.103767529	5.189400E+01	  0.103767529	4.140300E+01
420	  0.103967935	-8.458000E+00	  0.103967935	6.488600E+01	  0.103967935	5.214800E+01	  0.103967935	4.159600E+01
421	  0.104168333	-8.451000E+00	  0.104168333	6.451600E+01	  0.104168333	5.241800E+01	  0.104168333	4.172600E+01
422	  0.104368731	-8.428000E+00	  0.104368731	6.419900E+01	  0.104368731	5.262100E+01	  0.104368731	4.192500E+01
423	  0.104569137	-8.417000E+00	  0.104569137	6.384400E+01	  0.104569137	5.287600E+01	  0.104569137	4.207600E+01
424	  0.104769535	-8.409000E+00	  0.104769535	6.347800E+01	  0.104769535	5.314900E+01	  0.104769535	4.220700E+01
425	  0.104969934	-8.407000E+00	  0.104969934	6.307500E+01	  0.104969934	5.346300E+01	  0.104969934	4.231800E+01
426	  0.105170339	-8.402000E+00	  0.105170339	6.270600E+01	  0.105170339	5.374600E+01	  0.105170339	4.244000E+01
427	  0.105370738	-8.411000E+00	  0.105370738	6.229200E+01	  0.105370738	5.409200E+01	  0.105370738	4.249400E+01
428	  0.105571143	-8.406000E+00	  0.105571143	6.184800E+01	  0.105571143	5.444100E+01	  0.105571143	4.262600E+01
429	  0.105771542	-8.409000E+00	  0.105771542	6.148200E+01	  0.105771542	5.474400E+01	  0.105771542	4.269400E+01
430	  0.105971940	-8.416000E+00	  0.105971940	6.099200E+01	  0.105971940	5.515600E+01	  0.105971940	4.276800E+01
431	  0.106172346	-8.404000E+00	  0.106172346	6.049500E+01	  0.106172346	5.555100E+01	  0.106172346	4.294100E+01
432	  0.106372744	-8.415000E+00	  0.106372744	6.001800E+01	  0.106372744	5.596500E+01	  0.106372744	4.298700E+01
433	  0.106573142	-8.404000E+00	  0.106573142	5.951300E+01	  0.106573142	5.637600E+01	  0.106573142	4.315500E+01
434	  0.106773548	-8.408000E+00	  0.106773548	5.896800E+01	  0.106773548	5.684700E+01	  0.106773548	4.324000E+01
435	  0.106973946	-8.396000E+00	  0.106973946	5.844200E+01	  0.106973946	5.728500E+01	  0.106973946	4.341400E+01
436	  0.107174344	-8.392000E+00	  0.107174344	5.788000E+01	  0.107174344	5.777100E+01	  0.107174344	4.353900E+01
437	  0.107374750	-8.379000E+00	  0.107374750	5.729300E+01	  0.107374750	5.827400E+01	  0.107374750	4.372400E+01
438	  0.107575148	-8.377000E+00	  0.107575148	5.673000E+01	  0.107575148	5.877600E+01	  0.107575148	4.383400E+01
439	  0.107775547	-8.365000E+00	  0.107775547	5.623300E+01	  0.107775547	5.921200E+01	  0.107775547	4.398500E+01
440	  0.107975952	-8.348000E+00	  0.107975952	5.563100E+01	  0.107975952	5.974500E+01	  0.107975952	4.418300E+01
441	  0.108176351	-8.348000E+00	  0.108176351	5.507600E+01	  0.108176351	6.025900E+01	  0.108176351	4.426900E+01
442	  0.108376749	-8.327000E+00	  0.108376749	5.450500E+01	  0.108376749	6.077500E+01	  0.108376749	4.447600E+01
443	  0.108577155	-8.315000E+00	  0.108577155	5.396000E+01	  0.108577155	6.128200E+01	  0.108577155	4.462600E+01
444	  0.108777553	-8.299000E+00	  0.108777553	5.346800E+01	  0.108777553	6.174000E+01	  0.108777553	4.479000E+01
445	  0.108977959	-8.280000E+00	  0.108977959	5.291700E+01	  0.108977959	6.226100E+01	  0.108977959	4.497600E+01
446	  0.109178357	-8.278000E+00	  0.109178357	5.238500E+01	  0.109178357	6.278300E+01	  0.109178357	4.504400E+01
447	  0.109378755	-8.258000E+00	  0.109378755	5.185100E+01	  0.109378755	6.330000E+01	  0.109378755	4.522500E+01
448	  0.109579161	-8.252000E+00	  0.109579161	5.131100E+01	  0.109579161	6.383900E+01	  0.109579161	4.531300E+01
449	  0.109779559	-8.234000E+00	  0.109779559	5.079600E+01	  0.109779559	6.435300E+01	  0.109779559	4.547400E+01
450	  0.109979957	-8.229000E+00	  0.109979957	5.024700E+01	  0.109979957	6.491400E+01	  0.109979957	4.554800E+01
451	  0.110180363	-8.226000E+00	  0.110180363	4.963300E+01	  0.110180363	6.555000E+01	  0.110180363	4.560300E+01
452	  0.110380761	-8.227000E+00	  0.110380761	4.901500E+01	  0.110380761	6.619900E+01	  0.110380761	4.562100E+01
453	  0.110581160	-8.217000E+00	  0.110581160	4.845300E+01	  0.110581160	6.679200E+01	  0.110581160	4.571000E+01
454	  0.110781565	-8.215000E+00	  0.110781565	4.779200E+01	  0.110781565	6.750000E+01	  0.110781565	4.573100E+01
455	  0.110981964	-8.213000E+00	  0.110981964	4.712300E+01	  0.110981964	6.822600E+01	  0.110981964	4.574200E+01
456	  0.111182362	-8.201000E+00	  0.111182362	4.652700E+01	  0.111182362	6.888000E+01	  0.111182362	4.582200E+01
457	  0.111382768	-8.196000E+00	  0.111382768	4.578600E+01	  0.111382768	6.970200E+01	  0.111382768	4.583300E+01
458	  0.111583166	-8.179000E+00	  0.111583166	4.514300E+01	  0.111583166	7.043000E+01	  0.111583166	4.592500E+01
459	  0.111783572	-8.177000E+00	  0.111783572	4.440400E+01	  0.111783572	7.127000E+01	  0.111783572	4.588600E+01
460	  0.111983970	-8.165000E+00	  0.111983970	4.364100E+01	  0.111983970	7.215400E+01	  0.111983970	4.590100E+01
461	  0.112184368	-8.159000E+00	  0.112184368	4.293700E+01	  0.112184368	7.297700E+01	  0.112184368	4.587200E+01
462	  0.112384774	-8.140000E+00	  0.112384774	4.221500E+01	  0.112384774	7.384200E+01	  0.112384774	4.591800E+01
463	  0.112585172	-8.127000E+00	  0.112585172	4.150600E+01	  0.112585172	7.470000E+01	  0.112585172	4.590600E+01
464	  0.112785570	-8.114000E+00	  0.112785570	4.078000E+01	  0.112785570	7.558900E+01	  0.112785570	4.587700E+01
465	  0.112985976	-8.105000E+00	  0.112985976	4.000100E+01	  0.112985976	7.655100E+01	  0.112985976	4.579300E+01
466	  0.113186374	-8.094000E+00	  0.113186374	3.928400E+01	  0.113186374	7.744800E+01	  0.113186374	4.570800E+01
467	  0.113386773	-8.077000E+00	  0.113386773	3.858000E+01	  0.113386773	7.835200E+01	  0.113386773	4.566700E+01
468	  0.113587178	-8.069000E+00	  0.113587178	3.784200E+01	  0.113587178	7.929300E+01	  0.113587178	4.552400E+01
469	  0.113787577	-8.064000E+00	  0.113787577	3.711600E+01	  0.113787577	8.022100E+01	  0.113787577	4.533500E+01
470	  0.113987975	-8.049000E+00	  0.113987975	3.635200E+01	  0.113987975	8.123000E+01	  0.113987975	4.520300E+01
471	  0.114188381	-8.051000E+00	  0.114188381	3.565400E+01	  0.114188381	8.212300E+01	  0.114188381	4.492300E+01
472	  0.114388779	-8.048000E+00	  0.114388779	3.484900E+01	  0.114388779	8.317000E+01	  0.114388779	4.462200E+01
473	  0.114589177	-8.047000E+00	  0.114589177	3.406300E+01	  0.114589177	8.419400E+01	  0.114589177	4.428300E+01
474	  0.114789583	-8.060000E+00	  0.114789583	3.328800E+01	  0.114789583	8.516300E+01	  0.114789583	4.380500E+01
475	  0.114989981	-8.060000E+00	  0.114989981	3.255200E+01	  0.114989981	8.612200E+01	  0.114989981	4.342900E+01
476	  0.115190387	-8.072000E+00	  0.115190387	3.168000E+01	  0.115190387	8.721500E+01	  0.115190387	4.284200E+01
477	  0.115390785	-8.088000E+00	  0.115390785	3.083400E+01	  0.115390785	8.825600E+01	  0.115390785	4.220800E+01
478	  0.115591183	-8.096000E+00	  0.115591183	2.996300E+01	  0.115591183	8.935200E+01	  0.115591183	4.158300E+01
479	  0.115791589	-8.108000E+00	  0.115791589	2.910500E+01	  0.115791589	9.041100E+01	  0.115791589	4.090200E+01
480	  0.115991987	-8.124000E+00	  0.115991987	2.818400E+01	  0.115991987	9.151800E+01	  0.115991987	4.010000E+01
481	  0.116192386	-8.143000E+00	  0.116192386	2.730400E+01	  0.116192386	9.254700E+01	  0.116192386	3.927200E+01
482	  0.116392791	-8.164000E+00	  0.116392791	2.633200E+01	  0.116392791	9.365900E+01	  0.116392791	3.830300E+01
483	  0.116593190	-8.181000E+00	  0.116593190	2.537700E+01	  0.116593190	9.474700E+01	  0.116593190	3.733700E+01
484	  0.116793588	-8.195000E+00	  0.116793588	2.438700E+01	  0.116793588	9.587900E+01	  0.116793588	3.632500E+01
485	  0.116993994	-8.213000E+00	  0.116993994	2.343200E+01	  0.116993994	9.691100E+01	  0.116993994	3.525700E+01
486	  0.117194392	-8.237000E+00	  0.117194392	2.242900E+01	  0.117194392	9.793800E+01	  0.117194392	3.406200E+01
487	  0.117394790	-8.253000E+00	  0.117394790	2.142200E+01	  0.117394790	9.898600E+01	  0.117394790	3.287500E+01
488	  0.117595196	-8.279000E+00	  0.117595196	2.045100E+01	  0.117595196	9.988300E+01	  0.117595196	3.160700E+01
489	  0.117795594	-8.298000E+00	  0.117795594	1.952300E+01	  0.117795594	1.007460E+02	  0.117795594	3.040100E+01
490	  0.117995992	-8.323000E+00	  0.117995992	1.848400E+01	  0.117995992	1.016380E+02	  0.117995992	2.898600E+01
491	  0.118196398	-8.356000E+00	  0.118196398	1.746000E+01	  0.118196398	1.023940E+02	  0.118196398	2.749200E+01
492	  0.118396796	-8.390000E+00	  0.118396796	1.655100E+01	  0.118396796	1.029800E+02	  0.118396796	2.611300E+01
493	  0.118597202	-8.429000E+00	  0.118597202	1.554900E+01	  0.118597202	1.035610E+02	  0.118597202	2.456600E+01
494	  0.118797600	-8.476000E+00	  0.118797600	1.453200E+01	  0.118797600	1.040140E+02	  0.118797600	2.292800E+01
495	  0.118997999	-8.524000E+00	  0.118997999	1.356800E+01	  0.118997999	1.043560E+02	  0.118997999	2.134900E+01
496	  0.119198404	-8.588000E+00	  0.119198404	1.246700E+01	  0.119198404	1.045930E+02	  0.119198404	1.950100E+01
497	  0.119398803	-8.645000E+00	  0.119398803	1.136900E+01	  0.119398803	1.048010E+02	  0.119398803	1.768600E+01
498	  0.119599201	-8.721000E+00	  0.119599201	1.030900E+01	  0.119599201	1.047320E+02	  0.119599201	1.586200E+01
499	  0.119799607	-8.792000E+00	  0.119799607	9.209000E+00	  0.119799607	1.046670E+02	  0.119799607	1.402800E+01
500	  0.120000005	-8.884000E+00	  0.120000005	8.029000E+00	  0.120000005	1.043510E+02	  0.120000005	1.203900E+01
