! Anritsu VNA Master:             	Model: MS2036C/10/77
! SN:             	1601066
! /card0/usr/18may27.balun/252b.m2.txt
! Existing Calibration Information:
! TYPE:             	Current Settings	Active Cal Settings
! TIME:             	05/27/2018 12:25:50 PM	05/27/2018 12:21:44 PM
! INTERNAL TEMP:    	53.8 C	53.3 C
! # POINTS:         	500	500
! START FREQ:       	20.000 MHz	20.000 MHz
! STOP FREQ:        	120.000 MHz	120.000 MHz
! SOURCE POWER:     	High	High
! IFBW:             	50 Hz	50 Hz
! AVG FACTOR:       	  1 	  1 
! REF PLANE 1:      	0 mm	0 mm
! REF PLANE 2:      	0 mm	0 mm
! CAL TYPE:         	Full S11	Full S11
! CAL METHOD:       	SOLT	SOLT
! CAL LINE TYPE:    	Coax	Coax
! DUT PORT 1:       	K-Conn(M)	K-Conn(M)
! DUT PORT 2:       	K-Conn(M)	K-Conn(M)
! CAL STATUS:       	OK: Accuracy High	--
! PROP-V:       	0.700
! CABLE LOSS:       	0.000 dB/m
! REF IMPEDANCE:       	50.0
! Trace Specific Parameters:	TR1	TR2	TR3	TR4
! TRACE.#.Y (GRAPH TYPE)	LOG MAG	PHASE	REAL IMPEDANCE	IMAGINARY IMPEDANCE
! TRACE.#.X 	FREQ.GHZ	FREQ.GHZ	FREQ.GHZ	FREQ.GHZ
! S-PARAMETER	S11	S11	S11	S11
! SMOOTH/APERTURE %	0	0	0	0
! WINDOW	NSL	NSL	NSL	NSL
! GATING	OFF	OFF	OFF	OFF
! FGTD	OFF	OFF	OFF	OFF
Marker Information per Trace:	TR1	TR2	TR3	TR4
!MK1	--	--	--	"MK1 TR4:  70.100 200 MHz,Z:(16.321 ohm, -1.147 ohm)"
!MK2	--	--	--	--
!MK3	--	--	--	--
!MK4	--	--	--	--
!MK5	--	--	--	--
!MK6	--	--	--	--
!MK7	--	--	--	--
!MK8	--	--	--	--
PNT	TR1.FREQ.GHZ	TR1.LOG MAG.dB	TR2.FREQ.GHZ	TR2.PHASE.deg	TR3.FREQ.GHZ	TR3.REAL IMPEDANCE.ohm	TR4.FREQ.GHZ	TR4.IMAGINARY IMPEDANCE.ohm
1	  0.020000000	-6.280000E-01	  0.020000000	-1.254770E+02	  0.020000000	2.288000E+00	  0.020000000	-2.572100E+01
2	  0.020200402	-6.260000E-01	  0.020200402	-1.269380E+02	  0.020200402	2.250000E+00	  0.020200402	-2.492100E+01
3	  0.020400802	-6.240000E-01	  0.020400802	-1.284000E+02	  0.020400802	2.216000E+00	  0.020400802	-2.413200E+01
4	  0.020601204	-6.260000E-01	  0.020601204	-1.298310E+02	  0.020601204	2.195000E+00	  0.020601204	-2.336700E+01
5	  0.020801604	-6.300000E-01	  0.020801604	-1.312930E+02	  0.020801604	2.183000E+00	  0.020801604	-2.259500E+01
6	  0.021002004	-6.380000E-01	  0.021002004	-1.328030E+02	  0.021002004	2.187000E+00	  0.021002004	-2.180700E+01
7	  0.021202406	-6.460000E-01	  0.021202406	-1.343120E+02	  0.021202406	2.190000E+00	  0.021202406	-2.102800E+01
8	  0.021402806	-6.520000E-01	  0.021402806	-1.358200E+02	  0.021402806	2.184000E+00	  0.021402806	-2.025900E+01
9	  0.021603208	-6.590000E-01	  0.021603208	-1.373380E+02	  0.021603208	2.186000E+00	  0.021603208	-1.949200E+01
10	  0.021803608	-6.660000E-01	  0.021803608	-1.388390E+02	  0.021803608	2.186000E+00	  0.021803608	-1.874200E+01
11	  0.022004008	-6.710000E-01	  0.022004008	-1.403740E+02	  0.022004008	2.181000E+00	  0.022004008	-1.798300E+01
12	  0.022204408	-6.750000E-01	  0.022204408	-1.419300E+02	  0.022204408	2.173000E+00	  0.022204408	-1.722100E+01
13	  0.022404809	-6.800000E-01	  0.022404809	-1.434910E+02	  0.022404809	2.168000E+00	  0.022404809	-1.646300E+01
14	  0.022605211	-6.820000E-01	  0.022605211	-1.450270E+02	  0.022605211	2.157000E+00	  0.022605211	-1.572500E+01
15	  0.022805611	-6.810000E-01	  0.022805611	-1.465760E+02	  0.022805611	2.138000E+00	  0.022805611	-1.498600E+01
16	  0.023006011	-6.830000E-01	  0.023006011	-1.481230E+02	  0.023006011	2.127000E+00	  0.023006011	-1.425400E+01
17	  0.023206413	-6.900000E-01	  0.023206413	-1.496730E+02	  0.023206413	2.132000E+00	  0.023206413	-1.352700E+01
18	  0.023406813	-7.010000E-01	  0.023406813	-1.512430E+02	  0.023406813	2.148000E+00	  0.023406813	-1.279500E+01
19	  0.023607215	-7.080000E-01	  0.023607215	-1.528320E+02	  0.023607215	2.156000E+00	  0.023607215	-1.205900E+01
20	  0.023807615	-7.150000E-01	  0.023807615	-1.544190E+02	  0.023807615	2.164000E+00	  0.023807615	-1.133000E+01
21	  0.024008015	-7.220000E-01	  0.024008015	-1.559990E+02	  0.024008015	2.170000E+00	  0.024008015	-1.060800E+01
22	  0.024208417	-7.300000E-01	  0.024208417	-1.575740E+02	  0.024208417	2.183000E+00	  0.024208417	-9.893000E+00
23	  0.024408817	-7.430000E-01	  0.024408817	-1.591930E+02	  0.024408817	2.211000E+00	  0.024408817	-9.162000E+00
24	  0.024609219	-7.520000E-01	  0.024609219	-1.608200E+02	  0.024609219	2.227000E+00	  0.024609219	-8.431000E+00
25	  0.024809619	-7.600000E-01	  0.024809619	-1.624690E+02	  0.024809619	2.237000E+00	  0.024809619	-7.694000E+00
26	  0.025010020	-7.630000E-01	  0.025010020	-1.641210E+02	  0.025010020	2.238000E+00	  0.025010020	-6.959000E+00
27	  0.025210422	-7.710000E-01	  0.025210422	-1.657610E+02	  0.025210422	2.253000E+00	  0.025210422	-6.232000E+00
28	  0.025410822	-7.810000E-01	  0.025410822	-1.674120E+02	  0.025410822	2.274000E+00	  0.025410822	-5.503000E+00
29	  0.025611224	-7.890000E-01	  0.025611224	-1.690610E+02	  0.025611224	2.292000E+00	  0.025611224	-4.777000E+00
30	  0.025811624	-7.990000E-01	  0.025811624	-1.707360E+02	  0.025811624	2.314000E+00	  0.025811624	-4.042000E+00
31	  0.026012026	-8.100000E-01	  0.026012026	-1.724360E+02	  0.026012026	2.341000E+00	  0.026012026	-3.297000E+00
32	  0.026212426	-8.240000E-01	  0.026212426	-1.741290E+02	  0.026212426	2.377000E+00	  0.026212426	-2.557000E+00
33	  0.026412826	-8.400000E-01	  0.026412826	-1.758520E+02	  0.026412826	2.419000E+00	  0.026412826	-1.806000E+00
34	  0.026613226	-8.570000E-01	  0.026613226	-1.775680E+02	  0.026613226	2.467000E+00	  0.026613226	-1.058000E+00
35	  0.026813626	-8.750000E-01	  0.026813626	-1.793130E+02	  0.026813626	2.516000E+00	  0.026813626	-2.980000E-01
36	  0.027014028	-8.900000E-01	  0.027014028	1.789490E+02	  0.027014028	2.561000E+00	  0.027014028	4.570000E-01
37	  0.027214428	-9.060000E-01	  0.027214428	1.772150E+02	  0.027214428	2.607000E+00	  0.027214428	1.211000E+00
38	  0.027414829	-9.220000E-01	  0.027414829	1.754650E+02	  0.027414829	2.656000E+00	  0.027414829	1.974000E+00
39	  0.027615231	-9.380000E-01	  0.027615231	1.737040E+02	  0.027615231	2.707000E+00	  0.027615231	2.741000E+00
40	  0.027815631	-9.580000E-01	  0.027815631	1.719240E+02	  0.027815631	2.770000E+00	  0.027815631	3.518000E+00
41	  0.028016033	-9.810000E-01	  0.028016033	1.701220E+02	  0.028016033	2.841000E+00	  0.028016033	4.306000E+00
42	  0.028216433	-1.000000E+00	  0.028216433	1.683050E+02	  0.028216433	2.907000E+00	  0.028216433	5.103000E+00
43	  0.028416833	-1.022000E+00	  0.028416833	1.664810E+02	  0.028416833	2.982000E+00	  0.028416833	5.905000E+00
44	  0.028617235	-1.046000E+00	  0.028617235	1.646680E+02	  0.028617235	3.062000E+00	  0.028617235	6.705000E+00
45	  0.028817635	-1.074000E+00	  0.028817635	1.628290E+02	  0.028817635	3.158000E+00	  0.028817635	7.519000E+00
46	  0.029018037	-1.099000E+00	  0.029018037	1.609710E+02	  0.029018037	3.249000E+00	  0.029018037	8.345000E+00
47	  0.029218437	-1.125000E+00	  0.029218437	1.590940E+02	  0.029218437	3.344000E+00	  0.029218437	9.184000E+00
48	  0.029418837	-1.149000E+00	  0.029418837	1.572250E+02	  0.029418837	3.435000E+00	  0.029418837	1.002400E+01
49	  0.029619239	-1.171000E+00	  0.029619239	1.553790E+02	  0.029619239	3.526000E+00	  0.029619239	1.085900E+01
50	  0.029819639	-1.197000E+00	  0.029819639	1.535380E+02	  0.029819639	3.631000E+00	  0.029819639	1.169600E+01
51	  0.030020041	-1.222000E+00	  0.030020041	1.516870E+02	  0.030020041	3.734000E+00	  0.030020041	1.254500E+01
52	  0.030220442	-1.253000E+00	  0.030220442	1.498560E+02	  0.030220442	3.861000E+00	  0.030220442	1.338900E+01
53	  0.030420844	-1.288000E+00	  0.030420844	1.479910E+02	  0.030420844	4.005000E+00	  0.030420844	1.425600E+01
54	  0.030621244	-1.331000E+00	  0.030621244	1.460900E+02	  0.030621244	4.176000E+00	  0.030621244	1.514600E+01
55	  0.030821644	-1.366000E+00	  0.030821644	1.441580E+02	  0.030821644	4.333000E+00	  0.030821644	1.605900E+01
56	  0.031022044	-1.403000E+00	  0.031022044	1.421890E+02	  0.031022044	4.500000E+00	  0.031022044	1.699900E+01
57	  0.031222444	-1.430000E+00	  0.031222444	1.402260E+02	  0.031222444	4.640000E+00	  0.031222444	1.794800E+01
58	  0.031422846	-1.461000E+00	  0.031422846	1.382440E+02	  0.031422846	4.802000E+00	  0.031422846	1.891700E+01
59	  0.031623244	-1.485000E+00	  0.031623244	1.362700E+02	  0.031623244	4.945000E+00	  0.031623244	1.989500E+01
60	  0.031823646	-1.509000E+00	  0.031823646	1.343230E+02	  0.031823646	5.096000E+00	  0.031823646	2.087100E+01
61	  0.032024048	-1.531000E+00	  0.032024048	1.323900E+02	  0.032024048	5.244000E+00	  0.032024048	2.185300E+01
62	  0.032224450	-1.556000E+00	  0.032224450	1.304750E+02	  0.032224450	5.410000E+00	  0.032224450	2.284000E+01
63	  0.032424849	-1.586000E+00	  0.032424849	1.285500E+02	  0.032424849	5.601000E+00	  0.032424849	2.384300E+01
64	  0.032625251	-1.620000E+00	  0.032625251	1.266110E+02	  0.032625251	5.813000E+00	  0.032625251	2.486900E+01
65	  0.032825653	-1.658000E+00	  0.032825653	1.246760E+02	  0.032825653	6.050000E+00	  0.032825653	2.590600E+01
66	  0.033026051	-1.701000E+00	  0.033026051	1.227090E+02	  0.033026051	6.322000E+00	  0.033026051	2.697400E+01
67	  0.033226453	-1.745000E+00	  0.033226453	1.207420E+02	  0.033226453	6.604000E+00	  0.033226453	2.806100E+01
68	  0.033426855	-1.789000E+00	  0.033426855	1.187450E+02	  0.033426855	6.904000E+00	  0.033426855	2.918200E+01
69	  0.033627257	-1.831000E+00	  0.033627257	1.167050E+02	  0.033627257	7.215000E+00	  0.033627257	3.035000E+01
70	  0.033827655	-1.877000E+00	  0.033827655	1.146460E+02	  0.033827655	7.560000E+00	  0.033827655	3.154800E+01
71	  0.034028057	-1.923000E+00	  0.034028057	1.125880E+02	  0.034028057	7.924000E+00	  0.034028057	3.277000E+01
72	  0.034228459	-1.968000E+00	  0.034228459	1.104880E+02	  0.034228459	8.305000E+00	  0.034228459	3.404300E+01
73	  0.034428857	-2.012000E+00	  0.034428857	1.084230E+02	  0.034428857	8.704000E+00	  0.034428857	3.532100E+01
74	  0.034629259	-2.052000E+00	  0.034629259	1.063490E+02	  0.034629259	9.105000E+00	  0.034629259	3.663700E+01
75	  0.034829661	-2.089000E+00	  0.034829661	1.042960E+02	  0.034829661	9.518000E+00	  0.034829661	3.797000E+01
76	  0.035030060	-2.130000E+00	  0.035030060	1.022550E+02	  0.035030060	9.969000E+00	  0.035030060	3.932400E+01
77	  0.035230462	-2.174000E+00	  0.035230462	1.002310E+02	  0.035230462	1.046200E+01	  0.035230462	4.069400E+01
78	  0.035430863	-2.227000E+00	  0.035430863	9.824800E+01	  0.035430863	1.101800E+01	  0.035430863	4.205700E+01
79	  0.035631265	-2.284000E+00	  0.035631265	9.623600E+01	  0.035631265	1.163500E+01	  0.035631265	4.346900E+01
80	  0.035831664	-2.348000E+00	  0.035831664	9.415800E+01	  0.035831664	1.233600E+01	  0.035831664	4.495400E+01
81	  0.036032066	-2.412000E+00	  0.036032066	9.205200E+01	  0.036032066	1.308900E+01	  0.036032066	4.649700E+01
82	  0.036232468	-2.472000E+00	  0.036232468	8.987700E+01	  0.036232468	1.388900E+01	  0.036232468	4.813900E+01
83	  0.036432866	-2.532000E+00	  0.036432866	8.768500E+01	  0.036432866	1.474900E+01	  0.036432866	4.983800E+01
84	  0.036633268	-2.586000E+00	  0.036633268	8.547800E+01	  0.036633268	1.564400E+01	  0.036633268	5.160700E+01
85	  0.036833670	-2.634000E+00	  0.036833670	8.331300E+01	  0.036833670	1.656200E+01	  0.036833670	5.340100E+01
86	  0.037034072	-2.687000E+00	  0.037034072	8.113800E+01	  0.037034072	1.757700E+01	  0.037034072	5.524800E+01
87	  0.037234470	-2.732000E+00	  0.037234470	7.898400E+01	  0.037234470	1.861600E+01	  0.037234470	5.714700E+01
88	  0.037434869	-2.781000E+00	  0.037434869	7.687700E+01	  0.037434869	1.974700E+01	  0.037434869	5.904600E+01
89	  0.037635271	-2.830000E+00	  0.037635271	7.478400E+01	  0.037635271	2.096000E+01	  0.037635271	6.098600E+01
90	  0.037835669	-2.883000E+00	  0.037835669	7.269400E+01	  0.037835669	2.229800E+01	  0.037835669	6.296500E+01
91	  0.038036071	-2.939000E+00	  0.038036071	7.064800E+01	  0.038036071	2.373900E+01	  0.038036071	6.493800E+01
92	  0.038236473	-2.995000E+00	  0.038236473	6.860000E+01	  0.038236473	2.529500E+01	  0.038236473	6.696600E+01
93	  0.038436871	-3.055000E+00	  0.038436871	6.650900E+01	  0.038436871	2.703900E+01	  0.038436871	6.907100E+01
94	  0.038637273	-3.119000E+00	  0.038637273	6.439800E+01	  0.038637273	2.897500E+01	  0.038637273	7.122700E+01
95	  0.038837675	-3.183000E+00	  0.038837675	6.225500E+01	  0.038837675	3.110600E+01	  0.038837675	7.346000E+01
96	  0.039038073	-3.246000E+00	  0.039038073	6.006100E+01	  0.039038073	3.346200E+01	  0.039038073	7.580000E+01
97	  0.039238475	-3.305000E+00	  0.039238475	5.790100E+01	  0.039238475	3.596800E+01	  0.039238475	7.815900E+01
98	  0.039438877	-3.359000E+00	  0.039438877	5.570500E+01	  0.039438877	3.870200E+01	  0.039438877	8.063000E+01
99	  0.039639279	-3.408000E+00	  0.039639279	5.355100E+01	  0.039639279	4.159700E+01	  0.039639279	8.311700E+01
100	  0.039839678	-3.457000E+00	  0.039839678	5.144700E+01	  0.039839678	4.470400E+01	  0.039839678	8.555500E+01
101	  0.040040080	-3.503000E+00	  0.040040080	4.941100E+01	  0.040040080	4.798200E+01	  0.040040080	8.792300E+01
102	  0.040240481	-3.560000E+00	  0.040240481	4.734100E+01	  0.040240481	5.170700E+01	  0.040240481	9.021800E+01
103	  0.040440880	-3.624000E+00	  0.040440880	4.530600E+01	  0.040440880	5.578100E+01	  0.040440880	9.231200E+01
104	  0.040641282	-3.685000E+00	  0.040641282	4.323600E+01	  0.040641282	6.024200E+01	  0.040641282	9.438900E+01
105	  0.040841684	-3.748000E+00	  0.040841684	4.112400E+01	  0.040841684	6.520700E+01	  0.040841684	9.635200E+01
106	  0.041042086	-3.814000E+00	  0.041042086	3.902600E+01	  0.041042086	7.059000E+01	  0.041042086	9.804600E+01
107	  0.041242484	-3.877000E+00	  0.041242484	3.691300E+01	  0.041242484	7.645000E+01	  0.041242484	9.951100E+01
108	  0.041442886	-3.939000E+00	  0.041442886	3.479000E+01	  0.041442886	8.279200E+01	  0.041442886	1.006750E+02
109	  0.041643288	-3.997000E+00	  0.041643288	3.265500E+01	  0.041643288	8.964400E+01	  0.041643288	1.014700E+02
110	  0.041843686	-4.052000E+00	  0.041843686	3.051800E+01	  0.041843686	9.698500E+01	  0.041843686	1.018110E+02
111	  0.042044088	-4.106000E+00	  0.042044088	2.840200E+01	  0.042044088	1.047240E+02	  0.042044088	1.015420E+02
112	  0.042244490	-4.156000E+00	  0.042244490	2.631300E+01	  0.042244490	1.127920E+02	  0.042244490	1.006110E+02
113	  0.042444889	-4.205000E+00	  0.042444889	2.423400E+01	  0.042444889	1.211910E+02	  0.042444889	9.882500E+01
114	  0.042645290	-4.256000E+00	  0.042645290	2.217400E+01	  0.042645290	1.297710E+02	  0.042645290	9.604400E+01
115	  0.042845692	-4.307000E+00	  0.042845692	2.013800E+01	  0.042845692	1.383680E+02	  0.042845692	9.224100E+01
116	  0.043046094	-4.354000E+00	  0.043046094	1.807800E+01	  0.043046094	1.470540E+02	  0.043046094	8.732500E+01
117	  0.043246493	-4.401000E+00	  0.043246493	1.605200E+01	  0.043246493	1.553690E+02	  0.043246493	8.126600E+01
118	  0.043446895	-4.450000E+00	  0.043446895	1.404000E+01	  0.043446895	1.630910E+02	  0.043446895	7.393800E+01
119	  0.043647297	-4.502000E+00	  0.043647297	1.203900E+01	  0.043647297	1.699890E+02	  0.043647297	6.542600E+01
120	  0.043847695	-4.554000E+00	  0.043847695	1.003600E+01	  0.043847695	1.759230E+02	  0.043847695	5.587800E+01
121	  0.044048097	-4.606000E+00	  0.044048097	8.058000E+00	  0.044048097	1.805600E+02	  0.044048097	4.556000E+01
122	  0.044248499	-4.655000E+00	  0.044248499	6.066000E+00	  0.044248499	1.840140E+02	  0.044248499	3.460400E+01
123	  0.044448901	-4.702000E+00	  0.044448901	4.089000E+00	  0.044448901	1.860520E+02	  0.044448901	2.335300E+01
124	  0.044649299	-4.745000E+00	  0.044649299	2.115000E+00	  0.044649299	1.867270E+02	  0.044649299	1.201000E+01
125	  0.044849701	-4.795000E+00	  0.044849701	1.720000E-01	  0.044849701	1.857070E+02	  0.044849701	9.610000E-01
126	  0.045050103	-4.842000E+00	  0.045050103	-1.783000E+00	  0.045050103	1.834460E+02	  0.045050103	-9.727000E+00
127	  0.045250501	-4.887000E+00	  0.045250501	-3.743000E+00	  0.045250501	1.800110E+02	  0.045250501	-1.982100E+01
128	  0.045450903	-4.932000E+00	  0.045450903	-5.687000E+00	  0.045450903	1.755800E+02	  0.045450903	-2.905400E+01
129	  0.045651305	-4.976000E+00	  0.045651305	-7.648000E+00	  0.045651305	1.703030E+02	  0.045651305	-3.747700E+01
130	  0.045851704	-5.017000E+00	  0.045851704	-9.627000E+00	  0.045851704	1.644110E+02	  0.045851704	-4.505600E+01
131	  0.046052106	-5.062000E+00	  0.046052106	-1.158400E+01	  0.046052106	1.579860E+02	  0.046052106	-5.146800E+01
132	  0.046252504	-5.099000E+00	  0.046252504	-1.352300E+01	  0.046252504	1.515120E+02	  0.046252504	-5.702000E+01
133	  0.046452906	-5.140000E+00	  0.046452906	-1.546800E+01	  0.046452906	1.447840E+02	  0.046452906	-6.158500E+01
134	  0.046653304	-5.175000E+00	  0.046653304	-1.738800E+01	  0.046653304	1.382140E+02	  0.046653304	-6.537900E+01
135	  0.046853706	-5.210000E+00	  0.046853706	-1.932200E+01	  0.046853706	1.316670E+02	  0.046853706	-6.845000E+01
136	  0.047054108	-5.241000E+00	  0.047054108	-2.124600E+01	  0.047054108	1.253180E+02	  0.047054108	-7.087100E+01
137	  0.047254506	-5.271000E+00	  0.047254506	-2.317000E+01	  0.047254506	1.191760E+02	  0.047254506	-7.272300E+01
138	  0.047454908	-5.293000E+00	  0.047454908	-2.504900E+01	  0.047454908	1.134290E+02	  0.047454908	-7.413200E+01
139	  0.047655310	-5.318000E+00	  0.047655310	-2.693100E+01	  0.047655310	1.078840E+02	  0.047655310	-7.502600E+01
140	  0.047855709	-5.341000E+00	  0.047855709	-2.877900E+01	  0.047855709	1.026930E+02	  0.047855709	-7.554100E+01
141	  0.048056111	-5.362000E+00	  0.048056111	-3.062000E+01	  0.048056111	9.777500E+01	  0.048056111	-7.575800E+01
142	  0.048256513	-5.385000E+00	  0.048256513	-3.244700E+01	  0.048256513	9.314500E+01	  0.048256513	-7.565200E+01
143	  0.048456915	-5.400000E+00	  0.048456915	-3.426100E+01	  0.048456915	8.879100E+01	  0.048456915	-7.543700E+01
144	  0.048657313	-5.417000E+00	  0.048657313	-3.607200E+01	  0.048657313	8.467900E+01	  0.048657313	-7.498800E+01
145	  0.048857715	-5.433000E+00	  0.048857715	-3.783100E+01	  0.048857715	8.090700E+01	  0.048857715	-7.437700E+01
146	  0.049058117	-5.447000E+00	  0.049058117	-3.955200E+01	  0.049058117	7.741100E+01	  0.049058117	-7.368000E+01
147	  0.049258515	-5.461000E+00	  0.049258515	-4.125000E+01	  0.049258515	7.415700E+01	  0.049258515	-7.286200E+01
148	  0.049458917	-5.483000E+00	  0.049458917	-4.291300E+01	  0.049458917	7.116700E+01	  0.049458917	-7.188000E+01
149	  0.049659319	-5.504000E+00	  0.049659319	-4.458000E+01	  0.049659319	6.833400E+01	  0.049659319	-7.085300E+01
150	  0.049859721	-5.528000E+00	  0.049859721	-4.627200E+01	  0.049859721	6.563800E+01	  0.049859721	-6.971400E+01
151	  0.050060119	-5.555000E+00	  0.050060119	-4.794500E+01	  0.050060119	6.313500E+01	  0.050060119	-6.852300E+01
152	  0.050260521	-5.582000E+00	  0.050260521	-4.962900E+01	  0.050260521	6.076500E+01	  0.050260521	-6.729900E+01
153	  0.050460923	-5.609000E+00	  0.050460923	-5.134600E+01	  0.050460923	5.848700E+01	  0.050460923	-6.603900E+01
154	  0.050661322	-5.631000E+00	  0.050661322	-5.306200E+01	  0.050661322	5.632700E+01	  0.050661322	-6.480300E+01
155	  0.050861724	-5.653000E+00	  0.050861724	-5.479200E+01	  0.050861724	5.427200E+01	  0.050861724	-6.355100E+01
156	  0.051062126	-5.670000E+00	  0.051062126	-5.650400E+01	  0.051062126	5.234100E+01	  0.051062126	-6.233300E+01
157	  0.051262524	-5.685000E+00	  0.051262524	-5.821600E+01	  0.051262524	5.050800E+01	  0.051262524	-6.112600E+01
158	  0.051462926	-5.700000E+00	  0.051462926	-5.989100E+01	  0.051462926	4.881200E+01	  0.051462926	-5.994500E+01
159	  0.051663328	-5.717000E+00	  0.051663328	-6.155300E+01	  0.051663328	4.723300E+01	  0.051663328	-5.875300E+01
160	  0.051863730	-5.733000E+00	  0.051863730	-6.318800E+01	  0.051863730	4.575500E+01	  0.051863730	-5.759400E+01
161	  0.052064128	-5.750000E+00	  0.052064128	-6.484500E+01	  0.052064128	4.434500E+01	  0.052064128	-5.641600E+01
162	  0.052264530	-5.765000E+00	  0.052264530	-6.650200E+01	  0.052264530	4.299700E+01	  0.052264530	-5.526000E+01
163	  0.052464932	-5.774000E+00	  0.052464932	-6.816600E+01	  0.052464932	4.169300E+01	  0.052464932	-5.413400E+01
164	  0.052665330	-5.786000E+00	  0.052665330	-6.978800E+01	  0.052665330	4.049500E+01	  0.052665330	-5.303300E+01
165	  0.052865732	-5.797000E+00	  0.052865732	-7.143400E+01	  0.052865732	3.933900E+01	  0.052865732	-5.192600E+01
166	  0.053066134	-5.810000E+00	  0.053066134	-7.303700E+01	  0.053066134	3.827500E+01	  0.053066134	-5.085300E+01
167	  0.053266536	-5.813000E+00	  0.053266536	-7.466100E+01	  0.053266536	3.721100E+01	  0.053266536	-4.981600E+01
168	  0.053466935	-5.815000E+00	  0.053466935	-7.622600E+01	  0.053466935	3.623000E+01	  0.053466935	-4.882900E+01
169	  0.053667337	-5.812000E+00	  0.053667337	-7.780900E+01	  0.053667337	3.526300E+01	  0.053667337	-4.785700E+01
170	  0.053867739	-5.812000E+00	  0.053867739	-7.932300E+01	  0.053867739	3.439100E+01	  0.053867739	-4.692400E+01
171	  0.054068137	-5.815000E+00	  0.054068137	-8.082600E+01	  0.054068137	3.357600E+01	  0.054068137	-4.599200E+01
172	  0.054268539	-5.817000E+00	  0.054268539	-8.227500E+01	  0.054268539	3.282000E+01	  0.054268539	-4.510700E+01
173	  0.054468941	-5.820000E+00	  0.054468941	-8.370300E+01	  0.054468941	3.210600E+01	  0.054468941	-4.424100E+01
174	  0.054669339	-5.826000E+00	  0.054669339	-8.511200E+01	  0.054669339	3.144500E+01	  0.054669339	-4.338300E+01
175	  0.054869737	-5.835000E+00	  0.054869737	-8.652900E+01	  0.054869737	3.082000E+01	  0.054869737	-4.252000E+01
176	  0.055070139	-5.846000E+00	  0.055070139	-8.794200E+01	  0.055070139	3.022800E+01	  0.055070139	-4.166400E+01
177	  0.055270538	-5.863000E+00	  0.055270538	-8.939200E+01	  0.055270538	2.966700E+01	  0.055270538	-4.078000E+01
178	  0.055470940	-5.870000E+00	  0.055470940	-9.082500E+01	  0.055470940	2.910200E+01	  0.055470940	-3.994300E+01
179	  0.055671342	-5.885000E+00	  0.055671342	-9.227800E+01	  0.055671342	2.857900E+01	  0.055671342	-3.908500E+01
180	  0.055871744	-5.894000E+00	  0.055871744	-9.370300E+01	  0.055871744	2.807000E+01	  0.055871744	-3.826700E+01
181	  0.056072142	-5.902000E+00	  0.056072142	-9.516900E+01	  0.056072142	2.755900E+01	  0.056072142	-3.744000E+01
182	  0.056272544	-5.906000E+00	  0.056272544	-9.662700E+01	  0.056272544	2.705900E+01	  0.056272544	-3.663400E+01
183	  0.056472946	-5.910000E+00	  0.056472946	-9.807600E+01	  0.056472946	2.658100E+01	  0.056472946	-3.584300E+01
184	  0.056673344	-5.918000E+00	  0.056673344	-9.948600E+01	  0.056673344	2.614700E+01	  0.056673344	-3.507400E+01
185	  0.056873746	-5.917000E+00	  0.056873746	-1.009000E+02	  0.056873746	2.570200E+01	  0.056873746	-3.432600E+01
186	  0.057074148	-5.921000E+00	  0.057074148	-1.022630E+02	  0.057074148	2.530200E+01	  0.057074148	-3.360500E+01
187	  0.057274550	-5.926000E+00	  0.057274550	-1.036240E+02	  0.057274550	2.492200E+01	  0.057274550	-3.288800E+01
188	  0.057474948	-5.928000E+00	  0.057474948	-1.050040E+02	  0.057474948	2.454300E+01	  0.057474948	-3.217400E+01
189	  0.057675350	-5.931000E+00	  0.057675350	-1.063940E+02	  0.057675350	2.417700E+01	  0.057675350	-3.146100E+01
190	  0.057875752	-5.932000E+00	  0.057875752	-1.077730E+02	  0.057875752	2.382000E+01	  0.057875752	-3.076300E+01
191	  0.058076151	-5.932000E+00	  0.058076151	-1.091370E+02	  0.058076151	2.347700E+01	  0.058076151	-3.008100E+01
192	  0.058276553	-5.931000E+00	  0.058276553	-1.105110E+02	  0.058276553	2.314100E+01	  0.058276553	-2.940200E+01
193	  0.058476955	-5.926000E+00	  0.058476955	-1.118520E+02	  0.058476955	2.281300E+01	  0.058476955	-2.874900E+01
194	  0.058677353	-5.918000E+00	  0.058677353	-1.131830E+02	  0.058677353	2.248900E+01	  0.058677353	-2.811200E+01
195	  0.058877755	-5.911000E+00	  0.058877755	-1.144760E+02	  0.058877755	2.218500E+01	  0.058877755	-2.749600E+01
196	  0.059078157	-5.903000E+00	  0.059078157	-1.157510E+02	  0.059078157	2.189500E+01	  0.059078157	-2.689400E+01
197	  0.059278559	-5.895000E+00	  0.059278559	-1.170090E+02	  0.059278559	2.161400E+01	  0.059278559	-2.630500E+01
198	  0.059478957	-5.894000E+00	  0.059478957	-1.182080E+02	  0.059478957	2.137700E+01	  0.059478957	-2.573800E+01
199	  0.059679359	-5.889000E+00	  0.059679359	-1.194110E+02	  0.059679359	2.113500E+01	  0.059679359	-2.517700E+01
200	  0.059879761	-5.890000E+00	  0.059879761	-1.205930E+02	  0.059879761	2.092000E+01	  0.059879761	-2.462400E+01
201	  0.060080159	-5.887000E+00	  0.060080159	-1.217960E+02	  0.060080159	2.069800E+01	  0.060080159	-2.406900E+01
202	  0.060280561	-5.893000E+00	  0.060280561	-1.229880E+02	  0.060280561	2.051200E+01	  0.060280561	-2.351400E+01
203	  0.060480963	-5.897000E+00	  0.060480963	-1.241990E+02	  0.060480963	2.032400E+01	  0.060480963	-2.295400E+01
204	  0.060681365	-5.899000E+00	  0.060681365	-1.254110E+02	  0.060681365	2.013700E+01	  0.060681365	-2.240100E+01
205	  0.060881764	-5.907000E+00	  0.060881764	-1.266390E+02	  0.060881764	1.997100E+01	  0.060881764	-2.183800E+01
206	  0.061082166	-5.908000E+00	  0.061082166	-1.278390E+02	  0.061082166	1.979500E+01	  0.061082166	-2.129900E+01
207	  0.061282568	-5.912000E+00	  0.061282568	-1.290420E+02	  0.061282568	1.963200E+01	  0.061282568	-2.075900E+01
208	  0.061482966	-5.912000E+00	  0.061482966	-1.302890E+02	  0.061482966	1.945800E+01	  0.061482966	-2.020700E+01
209	  0.061683368	-5.915000E+00	  0.061683368	-1.315200E+02	  0.061683368	1.929900E+01	  0.061683368	-1.966300E+01
210	  0.061883770	-5.914000E+00	  0.061883770	-1.327470E+02	  0.061883770	1.913800E+01	  0.061883770	-1.912600E+01
211	  0.062084168	-5.917000E+00	  0.062084168	-1.339360E+02	  0.062084168	1.899700E+01	  0.062084168	-1.860700E+01
212	  0.062284570	-5.914000E+00	  0.062284570	-1.351500E+02	  0.062284570	1.884100E+01	  0.062284570	-1.808400E+01
213	  0.062484972	-5.913000E+00	  0.062484972	-1.363150E+02	  0.062484972	1.870300E+01	  0.062484972	-1.758300E+01
214	  0.062685370	-5.907000E+00	  0.062685370	-1.375030E+02	  0.062685370	1.855200E+01	  0.062685370	-1.707900E+01
215	  0.062885776	-5.910000E+00	  0.062885776	-1.386730E+02	  0.062885776	1.843300E+01	  0.062885776	-1.657800E+01
216	  0.063086174	-5.910000E+00	  0.063086174	-1.398840E+02	  0.063086174	1.830600E+01	  0.063086174	-1.606500E+01
217	  0.063286573	-5.909000E+00	  0.063286573	-1.411060E+02	  0.063286573	1.818000E+01	  0.063286573	-1.555000E+01
218	  0.063486971	-5.906000E+00	  0.063486971	-1.422980E+02	  0.063486971	1.805500E+01	  0.063486971	-1.505200E+01
219	  0.063687377	-5.900000E+00	  0.063687377	-1.434740E+02	  0.063687377	1.793200E+01	  0.063687377	-1.456300E+01
220	  0.063887775	-5.894000E+00	  0.063887775	-1.446740E+02	  0.063887775	1.780600E+01	  0.063887775	-1.406700E+01
221	  0.064088173	-5.882000E+00	  0.064088173	-1.458000E+02	  0.064088173	1.767700E+01	  0.064088173	-1.360700E+01
222	  0.064288579	-5.875000E+00	  0.064288579	-1.469310E+02	  0.064288579	1.756400E+01	  0.064288579	-1.314300E+01
223	  0.064488977	-5.873000E+00	  0.064488977	-1.480480E+02	  0.064488977	1.747100E+01	  0.064488977	-1.268400E+01
224	  0.064689375	-5.864000E+00	  0.064689375	-1.491120E+02	  0.064689375	1.736700E+01	  0.064689375	-1.225200E+01
225	  0.064889781	-5.861000E+00	  0.064889781	-1.501920E+02	  0.064889781	1.727900E+01	  0.064889781	-1.181200E+01
226	  0.065090179	-5.857000E+00	  0.065090179	-1.512760E+02	  0.065090179	1.719400E+01	  0.065090179	-1.137100E+01
227	  0.065290578	-5.853000E+00	  0.065290578	-1.523510E+02	  0.065290578	1.711000E+01	  0.065290578	-1.093600E+01
228	  0.065490983	-5.852000E+00	  0.065490983	-1.534040E+02	  0.065490983	1.704100E+01	  0.065490983	-1.050900E+01
229	  0.065691382	-5.851000E+00	  0.065691382	-1.544830E+02	  0.065691382	1.697400E+01	  0.065691382	-1.007300E+01
230	  0.065891780	-5.850000E+00	  0.065891780	-1.555170E+02	  0.065891780	1.691000E+01	  0.065891780	-9.656000E+00
231	  0.066092186	-5.849000E+00	  0.066092186	-1.565360E+02	  0.066092186	1.685000E+01	  0.066092186	-9.247000E+00
232	  0.066292584	-5.852000E+00	  0.066292584	-1.576060E+02	  0.066292584	1.680300E+01	  0.066292584	-8.817000E+00
233	  0.066492982	-5.847000E+00	  0.066492982	-1.586540E+02	  0.066492982	1.673600E+01	  0.066492982	-8.399000E+00
234	  0.066693388	-5.851000E+00	  0.066693388	-1.597060E+02	  0.066693388	1.669500E+01	  0.066693388	-7.978000E+00
235	  0.066893786	-5.857000E+00	  0.066893786	-1.607310E+02	  0.066893786	1.666400E+01	  0.066893786	-7.568000E+00
236	  0.067094192	-5.854000E+00	  0.067094192	-1.618250E+02	  0.067094192	1.661000E+01	  0.067094192	-7.134000E+00
237	  0.067294590	-5.859000E+00	  0.067294590	-1.628460E+02	  0.067294590	1.658200E+01	  0.067294590	-6.728000E+00
238	  0.067494988	-5.865000E+00	  0.067494988	-1.638870E+02	  0.067494988	1.655800E+01	  0.067494988	-6.314000E+00
239	  0.067695394	-5.857000E+00	  0.067695394	-1.649160E+02	  0.067695394	1.650300E+01	  0.067695394	-5.909000E+00
240	  0.067895792	-5.862000E+00	  0.067895792	-1.659070E+02	  0.067895792	1.648300E+01	  0.067895792	-5.517000E+00
241	  0.068096191	-5.864000E+00	  0.068096191	-1.669400E+02	  0.068096191	1.645500E+01	  0.068096191	-5.110000E+00
242	  0.068296596	-5.871000E+00	  0.068296596	-1.679840E+02	  0.068296596	1.644400E+01	  0.068296596	-4.698000E+00
243	  0.068496995	-5.874000E+00	  0.068496995	-1.689760E+02	  0.068496995	1.642800E+01	  0.068496995	-4.308000E+00
244	  0.068697393	-5.876000E+00	  0.068697393	-1.700140E+02	  0.068697393	1.640700E+01	  0.068697393	-3.900000E+00
245	  0.068897791	-5.873000E+00	  0.068897791	-1.710330E+02	  0.068897791	1.637800E+01	  0.068897791	-3.502000E+00
246	  0.069098189	-5.875000E+00	  0.069098189	-1.720450E+02	  0.069098189	1.636400E+01	  0.069098189	-3.105000E+00
247	  0.069298595	-5.879000E+00	  0.069298595	-1.730670E+02	  0.069298595	1.635800E+01	  0.069298595	-2.705000E+00
248	  0.069498993	-5.881000E+00	  0.069498993	-1.740760E+02	  0.069498993	1.634900E+01	  0.069498993	-2.310000E+00
249	  0.069699399	-5.880000E+00	  0.069699399	-1.750660E+02	  0.069699399	1.633400E+01	  0.069699399	-1.924000E+00
250	  0.069899797	-5.883000E+00	  0.069899797	-1.760650E+02	  0.069899797	1.633100E+01	  0.069899797	-1.534000E+00
251	  0.070100196	-5.881000E+00	  0.070100196	-1.770570E+02	  0.070100196	1.632000E+01	  0.070100196	-1.147000E+00
252	  0.070300601	-5.885000E+00	  0.070300601	-1.780230E+02	  0.070300601	1.632400E+01	  0.070300601	-7.700000E-01
253	  0.070501000	-5.886000E+00	  0.070501000	-1.789790E+02	  0.070501000	1.632300E+01	  0.070501000	-3.970000E-01
254	  0.070701398	-5.886000E+00	  0.070701398	-1.799850E+02	  0.070701398	1.632200E+01	  0.070701398	-5.000000E-03
255	  0.070901804	-5.889000E+00	  0.070901804	1.790670E+02	  0.070901804	1.633200E+01	  0.070901804	3.630000E-01
256	  0.071102202	-5.892000E+00	  0.071102202	1.780990E+02	  0.071102202	1.634200E+01	  0.071102202	7.400000E-01
257	  0.071302600	-5.895000E+00	  0.071302600	1.771520E+02	  0.071302600	1.635500E+01	  0.071302600	1.109000E+00
258	  0.071503006	-5.895000E+00	  0.071503006	1.761900E+02	  0.071503006	1.636200E+01	  0.071503006	1.484000E+00
259	  0.071703404	-5.900000E+00	  0.071703404	1.752480E+02	  0.071703404	1.638200E+01	  0.071703404	1.852000E+00
260	  0.071903802	-5.904000E+00	  0.071903802	1.743130E+02	  0.071903802	1.640400E+01	  0.071903802	2.216000E+00
261	  0.072104208	-5.906000E+00	  0.072104208	1.733770E+02	  0.072104208	1.642400E+01	  0.072104208	2.581000E+00
262	  0.072304606	-5.915000E+00	  0.072304606	1.724370E+02	  0.072304606	1.646000E+01	  0.072304606	2.947000E+00
263	  0.072505005	-5.921000E+00	  0.072505005	1.715470E+02	  0.072505005	1.649200E+01	  0.072505005	3.294000E+00
264	  0.072705410	-5.923000E+00	  0.072705410	1.706300E+02	  0.072705410	1.651600E+01	  0.072705410	3.652000E+00
265	  0.072905809	-5.930000E+00	  0.072905809	1.697140E+02	  0.072905809	1.655500E+01	  0.072905809	4.010000E+00
266	  0.073106214	-5.937000E+00	  0.073106214	1.687510E+02	  0.073106214	1.659400E+01	  0.073106214	4.386000E+00
267	  0.073306613	-5.946000E+00	  0.073306613	1.678450E+02	  0.073306613	1.664300E+01	  0.073306613	4.739000E+00
268	  0.073507011	-5.956000E+00	  0.073507011	1.668850E+02	  0.073507011	1.669700E+01	  0.073507011	5.113000E+00
269	  0.073707417	-5.959000E+00	  0.073707417	1.659970E+02	  0.073707417	1.673200E+01	  0.073707417	5.461000E+00
270	  0.073907815	-5.962000E+00	  0.073907815	1.650970E+02	  0.073907815	1.676900E+01	  0.073907815	5.814000E+00
271	  0.074108213	-5.970000E+00	  0.074108213	1.642070E+02	  0.074108213	1.682100E+01	  0.074108213	6.162000E+00
272	  0.074308619	-5.976000E+00	  0.074308619	1.632730E+02	  0.074308619	1.687100E+01	  0.074308619	6.529000E+00
273	  0.074509017	-5.984000E+00	  0.074509017	1.623350E+02	  0.074509017	1.693000E+01	  0.074509017	6.897000E+00
274	  0.074709415	-5.996000E+00	  0.074709415	1.614350E+02	  0.074709415	1.699800E+01	  0.074709415	7.249000E+00
275	  0.074909821	-6.004000E+00	  0.074909821	1.605060E+02	  0.074909821	1.706000E+01	  0.074909821	7.614000E+00
276	  0.075110219	-6.010000E+00	  0.075110219	1.596190E+02	  0.075110219	1.711700E+01	  0.075110219	7.963000E+00
277	  0.075310618	-6.015000E+00	  0.075310618	1.587070E+02	  0.075310618	1.717500E+01	  0.075310618	8.323000E+00
278	  0.075511023	-6.021000E+00	  0.075511023	1.577990E+02	  0.075511023	1.723600E+01	  0.075511023	8.682000E+00
279	  0.075711422	-6.027000E+00	  0.075711422	1.568950E+02	  0.075711422	1.730100E+01	  0.075711422	9.039000E+00
280	  0.075911827	-6.035000E+00	  0.075911827	1.559900E+02	  0.075911827	1.737200E+01	  0.075911827	9.397000E+00
281	  0.076112226	-6.041000E+00	  0.076112226	1.550880E+02	  0.076112226	1.743900E+01	  0.076112226	9.756000E+00
282	  0.076312624	-6.042000E+00	  0.076312624	1.542010E+02	  0.076312624	1.749600E+01	  0.076312624	1.011000E+01
283	  0.076513030	-6.045000E+00	  0.076513030	1.533020E+02	  0.076513030	1.756000E+01	  0.076513030	1.047000E+01
284	  0.076713428	-6.047000E+00	  0.076713428	1.524380E+02	  0.076713428	1.762300E+01	  0.076713428	1.081600E+01
285	  0.076913826	-6.052000E+00	  0.076913826	1.515790E+02	  0.076913826	1.769300E+01	  0.076913826	1.116000E+01
286	  0.077114232	-6.054000E+00	  0.077114232	1.507650E+02	  0.077114232	1.775700E+01	  0.077114232	1.148800E+01
287	  0.077314630	-6.061000E+00	  0.077314630	1.499170E+02	  0.077314630	1.783600E+01	  0.077314630	1.182800E+01
288	  0.077515028	-6.066000E+00	  0.077515028	1.491180E+02	  0.077515028	1.791100E+01	  0.077515028	1.214900E+01
289	  0.077715434	-6.076000E+00	  0.077715434	1.483300E+02	  0.077715434	1.799900E+01	  0.077715434	1.246500E+01
290	  0.077915832	-6.082000E+00	  0.077915832	1.475170E+02	  0.077915832	1.807900E+01	  0.077915832	1.279300E+01
291	  0.078116231	-6.094000E+00	  0.078116231	1.467070E+02	  0.078116231	1.817800E+01	  0.078116231	1.311700E+01
292	  0.078316636	-6.102000E+00	  0.078316636	1.459130E+02	  0.078316636	1.826700E+01	  0.078316636	1.343700E+01
293	  0.078517035	-6.115000E+00	  0.078517035	1.450930E+02	  0.078517035	1.837200E+01	  0.078517035	1.376600E+01
294	  0.078717433	-6.124000E+00	  0.078717433	1.442810E+02	  0.078717433	1.847000E+01	  0.078717433	1.409400E+01
295	  0.078917839	-6.138000E+00	  0.078917839	1.434620E+02	  0.078917839	1.858400E+01	  0.078917839	1.442300E+01
296	  0.079118237	-6.147000E+00	  0.079118237	1.427070E+02	  0.079118237	1.868000E+01	  0.079118237	1.472900E+01
297	  0.079318643	-6.165000E+00	  0.079318643	1.419000E+02	  0.079318643	1.880700E+01	  0.079318643	1.505200E+01
298	  0.079519041	-6.180000E+00	  0.079519041	1.411430E+02	  0.079519041	1.892300E+01	  0.079519041	1.535600E+01
299	  0.079719439	-6.199000E+00	  0.079719439	1.402990E+02	  0.079719439	1.906400E+01	  0.079719439	1.569300E+01
300	  0.079919845	-6.215000E+00	  0.079919845	1.394760E+02	  0.079919845	1.919200E+01	  0.079919845	1.602500E+01
301	  0.080120243	-6.236000E+00	  0.080120243	1.386800E+02	  0.080120243	1.933800E+01	  0.080120243	1.634200E+01
302	  0.080320641	-6.256000E+00	  0.080320641	1.378550E+02	  0.080320641	1.948600E+01	  0.080320641	1.667200E+01
303	  0.080521047	-6.279000E+00	  0.080521047	1.370160E+02	  0.080521047	1.964500E+01	  0.080521047	1.700700E+01
304	  0.080721445	-6.294000E+00	  0.080721445	1.361850E+02	  0.080721445	1.978700E+01	  0.080721445	1.734300E+01
305	  0.080921844	-6.317000E+00	  0.080921844	1.353250E+02	  0.080921844	1.995300E+01	  0.080921844	1.768700E+01
306	  0.081122249	-6.326000E+00	  0.081122249	1.344640E+02	  0.081122249	2.008700E+01	  0.081122249	1.804300E+01
307	  0.081322648	-6.342000E+00	  0.081322648	1.336190E+02	  0.081322648	2.023800E+01	  0.081322648	1.838800E+01
308	  0.081523046	-6.356000E+00	  0.081523046	1.327970E+02	  0.081523046	2.038600E+01	  0.081523046	1.872400E+01
309	  0.081723452	-6.368000E+00	  0.081723452	1.319400E+02	  0.081723452	2.053600E+01	  0.081723452	1.907800E+01
310	  0.081923850	-6.381000E+00	  0.081923850	1.310900E+02	  0.081923850	2.069100E+01	  0.081923850	1.942900E+01
311	  0.082124248	-6.391000E+00	  0.082124248	1.302580E+02	  0.082124248	2.083600E+01	  0.082124248	1.977600E+01
312	  0.082324654	-6.401000E+00	  0.082324654	1.295070E+02	  0.082324654	2.097500E+01	  0.082324654	2.008800E+01
313	  0.082525052	-6.410000E+00	  0.082525052	1.286840E+02	  0.082525052	2.112300E+01	  0.082525052	2.043400E+01
314	  0.082725458	-6.422000E+00	  0.082725458	1.279250E+02	  0.082725458	2.127300E+01	  0.082725458	2.075000E+01
315	  0.082925856	-6.426000E+00	  0.082925856	1.271600E+02	  0.082925856	2.140400E+01	  0.082925856	2.107700E+01
316	  0.083126254	-6.444000E+00	  0.083126254	1.264410E+02	  0.083126254	2.156900E+01	  0.083126254	2.137100E+01
317	  0.083326660	-6.463000E+00	  0.083326660	1.257070E+02	  0.083326660	2.174400E+01	  0.083326660	2.167000E+01
318	  0.083527058	-6.475000E+00	  0.083527058	1.249350E+02	  0.083527058	2.190500E+01	  0.083527058	2.199400E+01
319	  0.083727457	-6.495000E+00	  0.083727457	1.241920E+02	  0.083727457	2.209100E+01	  0.083727457	2.229600E+01
320	  0.083927862	-6.504000E+00	  0.083927862	1.234970E+02	  0.083927862	2.223800E+01	  0.083927862	2.259000E+01
321	  0.084128261	-6.525000E+00	  0.084128261	1.227580E+02	  0.084128261	2.242900E+01	  0.084128261	2.289100E+01
322	  0.084328659	-6.540000E+00	  0.084328659	1.220380E+02	  0.084328659	2.260300E+01	  0.084328659	2.319000E+01
323	  0.084529065	-6.563000E+00	  0.084529065	1.213490E+02	  0.084529065	2.279800E+01	  0.084529065	2.346600E+01
324	  0.084729463	-6.582000E+00	  0.084729463	1.206350E+02	  0.084729463	2.298700E+01	  0.084729463	2.375800E+01
325	  0.084929861	-6.603000E+00	  0.084929861	1.199330E+02	  0.084929861	2.318500E+01	  0.084929861	2.404200E+01
326	  0.085130267	-6.628000E+00	  0.085130267	1.192000E+02	  0.085130267	2.340200E+01	  0.085130267	2.433500E+01
327	  0.085330658	-6.657000E+00	  0.085330658	1.185040E+02	  0.085330658	2.362400E+01	  0.085330658	2.460700E+01
328	  0.085531056	-6.684000E+00	  0.085531056	1.177590E+02	  0.085531056	2.385700E+01	  0.085531056	2.490200E+01
329	  0.085731462	-6.712000E+00	  0.085731462	1.170560E+02	  0.085731462	2.408800E+01	  0.085731462	2.517500E+01
330	  0.085931860	-6.740000E+00	  0.085931860	1.163250E+02	  0.085931860	2.432700E+01	  0.085931860	2.546200E+01
331	  0.086132258	-6.769000E+00	  0.086132258	1.155790E+02	  0.086132258	2.457600E+01	  0.086132258	2.575300E+01
332	  0.086332664	-6.790000E+00	  0.086332664	1.147930E+02	  0.086332664	2.481200E+01	  0.086332664	2.607400E+01
333	  0.086533062	-6.815000E+00	  0.086533062	1.140490E+02	  0.086533062	2.505400E+01	  0.086533062	2.637000E+01
334	  0.086733460	-6.838000E+00	  0.086733460	1.132490E+02	  0.086733460	2.531000E+01	  0.086733460	2.669300E+01
335	  0.086933866	-6.852000E+00	  0.086933866	1.125060E+02	  0.086933866	2.552900E+01	  0.086933866	2.700500E+01
336	  0.087134264	-6.880000E+00	  0.087134264	1.117620E+02	  0.087134264	2.579200E+01	  0.087134264	2.729500E+01
337	  0.087334670	-6.895000E+00	  0.087334670	1.110310E+02	  0.087334670	2.602000E+01	  0.087334670	2.759900E+01
338	  0.087535068	-6.911000E+00	  0.087535068	1.103140E+02	  0.087535068	2.624800E+01	  0.087535068	2.789700E+01
339	  0.087735467	-6.924000E+00	  0.087735467	1.096160E+02	  0.087735467	2.646700E+01	  0.087735467	2.819000E+01
340	  0.087935872	-6.941000E+00	  0.087935872	1.089210E+02	  0.087935872	2.669900E+01	  0.087935872	2.847700E+01
341	  0.088136271	-6.960000E+00	  0.088136271	1.082620E+02	  0.088136271	2.693500E+01	  0.088136271	2.874000E+01
342	  0.088336669	-6.982000E+00	  0.088336669	1.076250E+02	  0.088336669	2.717200E+01	  0.088336669	2.899200E+01
343	  0.088537075	-7.001000E+00	  0.088537075	1.069550E+02	  0.088537075	2.741800E+01	  0.088537075	2.926000E+01
344	  0.088737473	-7.023000E+00	  0.088737473	1.063110E+02	  0.088737473	2.766300E+01	  0.088737473	2.951300E+01
345	  0.088937871	-7.049000E+00	  0.088937871	1.057130E+02	  0.088937871	2.791500E+01	  0.088937871	2.973500E+01
346	  0.089138277	-7.067000E+00	  0.089138277	1.050720E+02	  0.089138277	2.815500E+01	  0.089138277	2.999200E+01
347	  0.089338675	-7.092000E+00	  0.089338675	1.044210E+02	  0.089338675	2.842500E+01	  0.089338675	3.023800E+01
348	  0.089539073	-7.119000E+00	  0.089539073	1.038440E+02	  0.089539073	2.868100E+01	  0.089539073	3.044700E+01
349	  0.089739479	-7.143000E+00	  0.089739479	1.032330E+02	  0.089739479	2.893900E+01	  0.089739479	3.067700E+01
350	  0.089939877	-7.176000E+00	  0.089939877	1.026530E+02	  0.089939877	2.921900E+01	  0.089939877	3.087200E+01
351	  0.090140276	-7.200000E+00	  0.090140276	1.020690E+02	  0.090140276	2.947500E+01	  0.090140276	3.108700E+01
352	  0.090340681	-7.231000E+00	  0.090340681	1.014760E+02	  0.090340681	2.975900E+01	  0.090340681	3.129000E+01
353	  0.090541080	-7.266000E+00	  0.090541080	1.009080E+02	  0.090541080	3.004900E+01	  0.090541080	3.147100E+01
354	  0.090741485	-7.303000E+00	  0.090741485	1.002950E+02	  0.090741485	3.036400E+01	  0.090741485	3.166600E+01
355	  0.090941884	-7.342000E+00	  0.090941884	9.971600E+01	  0.090941884	3.067500E+01	  0.090941884	3.184000E+01
356	  0.091142282	-7.379000E+00	  0.091142282	9.909200E+01	  0.091142282	3.100000E+01	  0.091142282	3.203500E+01
357	  0.091342688	-7.416000E+00	  0.091342688	9.845800E+01	  0.091342688	3.133200E+01	  0.091342688	3.223200E+01
358	  0.091543086	-7.454000E+00	  0.091543086	9.785500E+01	  0.091543086	3.165700E+01	  0.091543086	3.241200E+01
359	  0.091743484	-7.496000E+00	  0.091743484	9.716800E+01	  0.091743484	3.202900E+01	  0.091743484	3.261700E+01
360	  0.091943890	-7.521000E+00	  0.091943890	9.656000E+01	  0.091943890	3.232500E+01	  0.091943890	3.282500E+01
361	  0.092144288	-7.561000E+00	  0.092144288	9.591100E+01	  0.092144288	3.268300E+01	  0.092144288	3.301400E+01
362	  0.092344686	-7.591000E+00	  0.092344686	9.527300E+01	  0.092344686	3.301200E+01	  0.092344686	3.321900E+01
363	  0.092545092	-7.617000E+00	  0.092545092	9.466200E+01	  0.092545092	3.332500E+01	  0.092545092	3.341900E+01
364	  0.092745490	-7.646000E+00	  0.092745490	9.404000E+01	  0.092745490	3.365200E+01	  0.092745490	3.361600E+01
365	  0.092945889	-7.665000E+00	  0.092945889	9.339600E+01	  0.092945889	3.396300E+01	  0.092945889	3.384600E+01
366	  0.093146294	-7.702000E+00	  0.093146294	9.285400E+01	  0.093146294	3.428700E+01	  0.093146294	3.398400E+01
367	  0.093346693	-7.718000E+00	  0.093346693	9.224300E+01	  0.093346693	3.458200E+01	  0.093346693	3.420500E+01
368	  0.093547091	-7.751000E+00	  0.093547091	9.169000E+01	  0.093547091	3.490700E+01	  0.093547091	3.435200E+01
369	  0.093747497	-7.773000E+00	  0.093747497	9.114400E+01	  0.093747497	3.520000E+01	  0.093747497	3.452400E+01
370	  0.093947895	-7.798000E+00	  0.093947895	9.062600E+01	  0.093947895	3.548900E+01	  0.093947895	3.467700E+01
371	  0.094148301	-7.823000E+00	  0.094148301	9.004500E+01	  0.094148301	3.581300E+01	  0.094148301	3.485100E+01
372	  0.094348699	-7.850000E+00	  0.094348699	8.952600E+01	  0.094348699	3.611600E+01	  0.094348699	3.499300E+01
373	  0.094549097	-7.872000E+00	  0.094549097	8.904300E+01	  0.094549097	3.638900E+01	  0.094549097	3.513400E+01
374	  0.094749503	-7.899000E+00	  0.094749503	8.852600E+01	  0.094749503	3.669700E+01	  0.094749503	3.527000E+01
375	  0.094949901	-7.919000E+00	  0.094949901	8.804300E+01	  0.094949901	3.697300E+01	  0.094949901	3.541000E+01
376	  0.095150299	-7.943000E+00	  0.095150299	8.761200E+01	  0.095150299	3.723600E+01	  0.095150299	3.551800E+01
377	  0.095350705	-7.963000E+00	  0.095350705	8.714200E+01	  0.095350705	3.750800E+01	  0.095350705	3.565100E+01
378	  0.095551103	-7.988000E+00	  0.095551103	8.668600E+01	  0.095551103	3.779000E+01	  0.095551103	3.576100E+01
379	  0.095751502	-8.014000E+00	  0.095751502	8.627000E+01	  0.095751502	3.805800E+01	  0.095751502	3.584900E+01
380	  0.095951907	-8.048000E+00	  0.095951907	8.582000E+01	  0.095951907	3.836300E+01	  0.095951907	3.592700E+01
381	  0.096152306	-8.080000E+00	  0.096152306	8.539100E+01	  0.096152306	3.865800E+01	  0.096152306	3.599600E+01
382	  0.096352704	-8.102000E+00	  0.096352704	8.497900E+01	  0.096352704	3.891500E+01	  0.096352704	3.609200E+01
383	  0.096553110	-8.127000E+00	  0.096553110	8.456100E+01	  0.096553110	3.918800E+01	  0.096553110	3.617500E+01
384	  0.096753508	-8.159000E+00	  0.096753508	8.410400E+01	  0.096753508	3.949700E+01	  0.096753508	3.625200E+01
385	  0.096953906	-8.188000E+00	  0.096953906	8.367200E+01	  0.096953906	3.978900E+01	  0.096953906	3.632600E+01
386	  0.097154312	-8.215000E+00	  0.097154312	8.327000E+01	  0.097154312	4.006300E+01	  0.097154312	3.639000E+01
387	  0.097354710	-8.238000E+00	  0.097354710	8.283100E+01	  0.097354710	4.034700E+01	  0.097354710	3.648200E+01
388	  0.097555116	-8.266000E+00	  0.097555116	8.239500E+01	  0.097555116	4.064200E+01	  0.097555116	3.655300E+01
389	  0.097755514	-8.287000E+00	  0.097755514	8.198500E+01	  0.097755514	4.090700E+01	  0.097755514	3.663800E+01
390	  0.097955912	-8.306000E+00	  0.097955912	8.153900E+01	  0.097955912	4.119000E+01	  0.097955912	3.673900E+01
391	  0.098156318	-8.331000E+00	  0.098156318	8.113400E+01	  0.098156318	4.146500E+01	  0.098156318	3.680500E+01
392	  0.098356716	-8.346000E+00	  0.098356716	8.073200E+01	  0.098356716	4.171700E+01	  0.098356716	3.690200E+01
393	  0.098557115	-8.366000E+00	  0.098557115	8.032700E+01	  0.098557115	4.198500E+01	  0.098557115	3.697800E+01
394	  0.098757520	-8.388000E+00	  0.098757520	7.999100E+01	  0.098757520	4.222200E+01	  0.098757520	3.702200E+01
395	  0.098957919	-8.402000E+00	  0.098957919	7.958400E+01	  0.098957919	4.247700E+01	  0.098957919	3.712200E+01
396	  0.099158317	-8.423000E+00	  0.099158317	7.916200E+01	  0.099158317	4.276000E+01	  0.099158317	3.719700E+01
397	  0.099358723	-8.438000E+00	  0.099358723	7.878400E+01	  0.099358723	4.300700E+01	  0.099358723	3.727600E+01
398	  0.099559121	-8.458000E+00	  0.099559121	7.839600E+01	  0.099559121	4.327200E+01	  0.099559121	3.733800E+01
399	  0.099759519	-8.471000E+00	  0.099759519	7.800500E+01	  0.099759519	4.352400E+01	  0.099759519	3.742700E+01
400	  0.099959925	-8.489000E+00	  0.099959925	7.758300E+01	  0.099959925	4.380500E+01	  0.099959925	3.750700E+01
401	  0.100160323	-8.499000E+00	  0.100160323	7.722900E+01	  0.100160323	4.403200E+01	  0.100160323	3.759200E+01
402	  0.100360721	-8.513000E+00	  0.100360721	7.678200E+01	  0.100360721	4.432300E+01	  0.100360721	3.769200E+01
403	  0.100561127	-8.520000E+00	  0.100561127	7.639400E+01	  0.100561127	4.456600E+01	  0.100561127	3.779700E+01
404	  0.100761525	-8.526000E+00	  0.100761525	7.597300E+01	  0.100761525	4.482900E+01	  0.100761525	3.791300E+01
405	  0.100961931	-8.535000E+00	  0.100961931	7.567100E+01	  0.100961931	4.502700E+01	  0.100961931	3.798100E+01
406	  0.101162329	-8.541000E+00	  0.101162329	7.521000E+01	  0.101162329	4.531700E+01	  0.101162329	3.811100E+01
407	  0.101362728	-8.546000E+00	  0.101362728	7.485400E+01	  0.101362728	4.554400E+01	  0.101362728	3.821000E+01
408	  0.101563133	-8.547000E+00	  0.101563133	7.446700E+01	  0.101563133	4.578300E+01	  0.101563133	3.832900E+01
409	  0.101763532	-8.559000E+00	  0.101763532	7.400600E+01	  0.101763532	4.609200E+01	  0.101763532	3.843200E+01
410	  0.101963930	-8.562000E+00	  0.101963930	7.364900E+01	  0.101963930	4.632000E+01	  0.101963930	3.853500E+01
411	  0.102164336	-8.557000E+00	  0.102164336	7.316300E+01	  0.102164336	4.661400E+01	  0.102164336	3.871000E+01
412	  0.102364734	-8.566000E+00	  0.102364734	7.273000E+01	  0.102364734	4.690500E+01	  0.102364734	3.881200E+01
413	  0.102565132	-8.560000E+00	  0.102565132	7.236600E+01	  0.102565132	4.712600E+01	  0.102565132	3.895100E+01
414	  0.102765530	-8.545000E+00	  0.102765530	7.190000E+01	  0.102765530	4.739600E+01	  0.102765530	3.916100E+01
415	  0.102965929	-8.551000E+00	  0.102965929	7.149300E+01	  0.102965929	4.767300E+01	  0.102965929	3.926100E+01
416	  0.103166327	-8.541000E+00	  0.103166327	7.103700E+01	  0.103166327	4.795100E+01	  0.103166327	3.944500E+01
417	  0.103366733	-8.534000E+00	  0.103366733	7.064400E+01	  0.103366733	4.819900E+01	  0.103366733	3.959400E+01
418	  0.103567131	-8.521000E+00	  0.103567131	7.021100E+01	  0.103567131	4.846200E+01	  0.103567131	3.978300E+01
419	  0.103767529	-8.514000E+00	  0.103767529	6.983000E+01	  0.103767529	4.870600E+01	  0.103767529	3.992900E+01
420	  0.103967935	-8.504000E+00	  0.103967935	6.936700E+01	  0.103967935	4.900200E+01	  0.103967935	4.011400E+01
421	  0.104168333	-8.501000E+00	  0.104168333	6.896800E+01	  0.104168333	4.927100E+01	  0.104168333	4.024700E+01
422	  0.104368731	-8.490000E+00	  0.104368731	6.853000E+01	  0.104368731	4.955500E+01	  0.104368731	4.042400E+01
423	  0.104569137	-8.481000E+00	  0.104569137	6.816000E+01	  0.104569137	4.979600E+01	  0.104569137	4.057600E+01
424	  0.104769535	-8.474000E+00	  0.104769535	6.770200E+01	  0.104769535	5.010800E+01	  0.104769535	4.074200E+01
425	  0.104969934	-8.461000E+00	  0.104969934	6.727100E+01	  0.104969934	5.039300E+01	  0.104969934	4.092300E+01
426	  0.105170339	-8.464000E+00	  0.105170339	6.687000E+01	  0.105170339	5.068800E+01	  0.105170339	4.102500E+01
427	  0.105370738	-8.458000E+00	  0.105370738	6.634200E+01	  0.105370738	5.106300E+01	  0.105370738	4.120000E+01
428	  0.105571143	-8.448000E+00	  0.105571143	6.593500E+01	  0.105571143	5.134500E+01	  0.105571143	4.136200E+01
429	  0.105771542	-8.440000E+00	  0.105771542	6.543400E+01	  0.105771542	5.170300E+01	  0.105771542	4.154000E+01
430	  0.105971940	-8.437000E+00	  0.105971940	6.505500E+01	  0.105971940	5.198300E+01	  0.105971940	4.165700E+01
431	  0.106172346	-8.425000E+00	  0.106172346	6.453900E+01	  0.106172346	5.235400E+01	  0.106172346	4.185400E+01
432	  0.106372744	-8.428000E+00	  0.106372744	6.404200E+01	  0.106372744	5.274200E+01	  0.106372744	4.196800E+01
433	  0.106573142	-8.416000E+00	  0.106573142	6.360200E+01	  0.106573142	5.306300E+01	  0.106573142	4.214100E+01
434	  0.106773548	-8.411000E+00	  0.106773548	6.311900E+01	  0.106773548	5.343500E+01	  0.106773548	4.228600E+01
435	  0.106973946	-8.402000E+00	  0.106973946	6.260400E+01	  0.106973946	5.382800E+01	  0.106973946	4.246400E+01
436	  0.107174344	-8.399000E+00	  0.107174344	6.206500E+01	  0.107174344	5.425600E+01	  0.107174344	4.261000E+01
437	  0.107374750	-8.390000E+00	  0.107374750	6.154100E+01	  0.107374750	5.466700E+01	  0.107374750	4.278300E+01
438	  0.107575148	-8.390000E+00	  0.107575148	6.099800E+01	  0.107575148	5.511300E+01	  0.107575148	4.290700E+01
439	  0.107775547	-8.382000E+00	  0.107775547	6.052700E+01	  0.107775547	5.549200E+01	  0.107775547	4.305500E+01
440	  0.107975952	-8.368000E+00	  0.107975952	5.999400E+01	  0.107975952	5.591900E+01	  0.107975952	4.325100E+01
441	  0.108176351	-8.368000E+00	  0.108176351	5.940600E+01	  0.108176351	5.641800E+01	  0.108176351	4.337500E+01
442	  0.108376749	-8.355000E+00	  0.108376749	5.889100E+01	  0.108376749	5.684300E+01	  0.108376749	4.355500E+01
443	  0.108577155	-8.347000E+00	  0.108577155	5.831300E+01	  0.108577155	5.733500E+01	  0.108577155	4.372000E+01
444	  0.108777553	-8.331000E+00	  0.108777553	5.775700E+01	  0.108777553	5.780400E+01	  0.108777553	4.391700E+01
445	  0.108977959	-8.323000E+00	  0.108977959	5.718100E+01	  0.108977959	5.830800E+01	  0.108977959	4.407200E+01
446	  0.109178357	-8.317000E+00	  0.109178357	5.667100E+01	  0.109178357	5.876100E+01	  0.109178357	4.420200E+01
447	  0.109378755	-8.302000E+00	  0.109378755	5.605800E+01	  0.109378755	5.930300E+01	  0.109378755	4.439600E+01
448	  0.109579161	-8.293000E+00	  0.109579161	5.551200E+01	  0.109579161	5.979800E+01	  0.109579161	4.453900E+01
449	  0.109779559	-8.277000E+00	  0.109779559	5.496400E+01	  0.109779559	6.029500E+01	  0.109779559	4.472100E+01
450	  0.109979957	-8.258000E+00	  0.109979957	5.439000E+01	  0.109979957	6.082000E+01	  0.109979957	4.492700E+01
451	  0.110180363	-8.252000E+00	  0.110180363	5.375700E+01	  0.110180363	6.142300E+01	  0.110180363	4.505000E+01
452	  0.110380761	-8.250000E+00	  0.110380761	5.317100E+01	  0.110380761	6.199100E+01	  0.110380761	4.513600E+01
453	  0.110581160	-8.231000E+00	  0.110581160	5.258700E+01	  0.110581160	6.255000E+01	  0.110581160	4.532700E+01
454	  0.110781565	-8.223000E+00	  0.110781565	5.191600E+01	  0.110781565	6.321300E+01	  0.110781565	4.545200E+01
455	  0.110981964	-8.213000E+00	  0.110981964	5.134000E+01	  0.110981964	6.378700E+01	  0.110981964	4.557400E+01
456	  0.111182362	-8.191000E+00	  0.111182362	5.072300E+01	  0.111182362	6.440600E+01	  0.111182362	4.577200E+01
457	  0.111382768	-8.180000E+00	  0.111382768	5.005200E+01	  0.111382768	6.509600E+01	  0.111382768	4.589500E+01
458	  0.111583166	-8.165000E+00	  0.111583166	4.943700E+01	  0.111583166	6.573600E+01	  0.111583166	4.603200E+01
459	  0.111783572	-8.161000E+00	  0.111783572	4.882100E+01	  0.111783572	6.638800E+01	  0.111783572	4.608900E+01
460	  0.111983970	-8.149000E+00	  0.111983970	4.811100E+01	  0.111983970	6.714900E+01	  0.111983970	4.619600E+01
461	  0.112184368	-8.139000E+00	  0.112184368	4.746100E+01	  0.112184368	6.785700E+01	  0.112184368	4.627500E+01
462	  0.112384774	-8.127000E+00	  0.112384774	4.680100E+01	  0.112384774	6.858500E+01	  0.112384774	4.636800E+01
463	  0.112585172	-8.119000E+00	  0.112585172	4.607300E+01	  0.112585172	6.940000E+01	  0.112585172	4.641100E+01
464	  0.112785570	-8.108000E+00	  0.112785570	4.542900E+01	  0.112785570	7.013000E+01	  0.112785570	4.646700E+01
465	  0.112985976	-8.104000E+00	  0.112985976	4.473300E+01	  0.112985976	7.092800E+01	  0.112985976	4.645800E+01
466	  0.113186374	-8.102000E+00	  0.113186374	4.399200E+01	  0.113186374	7.178600E+01	  0.113186374	4.641700E+01
467	  0.113386773	-8.095000E+00	  0.113386773	4.329300E+01	  0.113386773	7.260800E+01	  0.113386773	4.640900E+01
468	  0.113587178	-8.092000E+00	  0.113587178	4.257600E+01	  0.113587178	7.345800E+01	  0.113587178	4.634000E+01
469	  0.113787577	-8.091000E+00	  0.113787577	4.181300E+01	  0.113787577	7.437100E+01	  0.113787577	4.624000E+01
470	  0.113987975	-8.089000E+00	  0.113987975	4.105600E+01	  0.113987975	7.528600E+01	  0.113987975	4.612800E+01
471	  0.114188381	-8.091000E+00	  0.114188381	4.029900E+01	  0.114188381	7.620600E+01	  0.114188381	4.597000E+01
472	  0.114388779	-8.096000E+00	  0.114388779	3.950600E+01	  0.114388779	7.717100E+01	  0.114388779	4.574900E+01
473	  0.114589177	-8.096000E+00	  0.114589177	3.869500E+01	  0.114589177	7.817500E+01	  0.114589177	4.554300E+01
474	  0.114789583	-8.108000E+00	  0.114789583	3.789800E+01	  0.114789583	7.914600E+01	  0.114789583	4.521500E+01
475	  0.114989981	-8.109000E+00	  0.114989981	3.710600E+01	  0.114989981	8.013600E+01	  0.114989981	4.495800E+01
476	  0.115190387	-8.120000E+00	  0.115190387	3.620200E+01	  0.115190387	8.125100E+01	  0.115190387	4.455000E+01
477	  0.115390785	-8.136000E+00	  0.115390785	3.532400E+01	  0.115390785	8.232000E+01	  0.115390785	4.407500E+01
478	  0.115591183	-8.145000E+00	  0.115591183	3.448000E+01	  0.115591183	8.336600E+01	  0.115591183	4.364100E+01
479	  0.115791589	-8.158000E+00	  0.115791589	3.354500E+01	  0.115791589	8.451300E+01	  0.115791589	4.309500E+01
480	  0.115991987	-8.169000E+00	  0.115991987	3.265100E+01	  0.115991987	8.561500E+01	  0.115991987	4.255300E+01
481	  0.116192386	-8.179000E+00	  0.116192386	3.172400E+01	  0.116192386	8.675800E+01	  0.116192386	4.196400E+01
482	  0.116392791	-8.204000E+00	  0.116392791	3.077500E+01	  0.116392791	8.786300E+01	  0.116392791	4.119300E+01
483	  0.116593190	-8.222000E+00	  0.116593190	2.985300E+01	  0.116593190	8.894800E+01	  0.116593190	4.045400E+01
484	  0.116793588	-8.237000E+00	  0.116793588	2.887900E+01	  0.116793588	9.009700E+01	  0.116793588	3.966200E+01
485	  0.116993994	-8.256000E+00	  0.116993994	2.789500E+01	  0.116993994	9.123200E+01	  0.116993994	3.879300E+01
486	  0.117194392	-8.278000E+00	  0.117194392	2.690400E+01	  0.117194392	9.233400E+01	  0.117194392	3.784100E+01
487	  0.117394790	-8.297000E+00	  0.117394790	2.584700E+01	  0.117394790	9.350900E+01	  0.117394790	3.681300E+01
488	  0.117595196	-8.325000E+00	  0.117595196	2.488800E+01	  0.117595196	9.448900E+01	  0.117595196	3.575400E+01
489	  0.117795594	-8.357000E+00	  0.117795594	2.390000E+01	  0.117795594	9.544700E+01	  0.117795594	3.459800E+01
490	  0.117995992	-8.381000E+00	  0.117995992	2.288600E+01	  0.117995992	9.644700E+01	  0.117995992	3.343300E+01
491	  0.118196398	-8.415000E+00	  0.118196398	2.182300E+01	  0.118196398	9.740200E+01	  0.118196398	3.210800E+01
492	  0.118396796	-8.443000E+00	  0.118396796	2.083600E+01	  0.118396796	9.826700E+01	  0.118396796	3.086100E+01
493	  0.118597202	-8.483000E+00	  0.118597202	1.982700E+01	  0.118597202	9.902700E+01	  0.118597202	2.947600E+01
494	  0.118797600	-8.524000E+00	  0.118797600	1.875200E+01	  0.118797600	9.978200E+01	  0.118797600	2.797100E+01
495	  0.118997999	-8.568000E+00	  0.118997999	1.772400E+01	  0.118997999	1.004170E+02	  0.118997999	2.647900E+01
496	  0.119198404	-8.628000E+00	  0.119198404	1.663200E+01	  0.119198404	1.009220E+02	  0.119198404	2.479300E+01
497	  0.119398803	-8.680000E+00	  0.119398803	1.551400E+01	  0.119398803	1.014400E+02	  0.119398803	2.310700E+01
498	  0.119599201	-8.735000E+00	  0.119599201	1.444400E+01	  0.119599201	1.018180E+02	  0.119599201	2.144900E+01
499	  0.119799607	-8.797000E+00	  0.119799607	1.332000E+01	  0.119799607	1.021090E+02	  0.119799607	1.968400E+01
500	  0.120000005	-8.875000E+00	  0.120000005	1.215800E+01	  0.120000005	1.022090E+02	  0.120000005	1.780300E+01
