! Anritsu VNA Master:             	Model: MS2036C/10/77
! SN:             	1601066
! /card0/usr/18may27.balun/252b.m.txt
! Existing Calibration Information:
! TYPE:             	Current Settings	Active Cal Settings
! TIME:             	05/27/2018 11:59:04 AM	05/27/2018 11:54:56 AM
! INTERNAL TEMP:    	50.0 C	49.3 C
! # POINTS:         	500	500
! START FREQ:       	20.000 MHz	20.000 MHz
! STOP FREQ:        	120.000 MHz	120.000 MHz
! SOURCE POWER:     	High	High
! IFBW:             	50 Hz	50 Hz
! AVG FACTOR:       	  1 	  1 
! REF PLANE 1:      	0 mm	0 mm
! REF PLANE 2:      	0 mm	0 mm
! CAL TYPE:         	Full S11	Full S11
! CAL METHOD:       	SOLT	SOLT
! CAL LINE TYPE:    	Coax	Coax
! DUT PORT 1:       	K-Conn(M)	K-Conn(M)
! DUT PORT 2:       	K-Conn(M)	K-Conn(M)
! CAL STATUS:       	OK: Accuracy High	--
! PROP-V:       	0.700
! CABLE LOSS:       	0.000 dB/m
! REF IMPEDANCE:       	50.0
! Trace Specific Parameters:	TR1	TR2	TR3	TR4
! TRACE.#.Y (GRAPH TYPE)	LOG MAG	PHASE	REAL IMPEDANCE	IMAGINARY IMPEDANCE
! TRACE.#.X 	FREQ.GHZ	FREQ.GHZ	FREQ.GHZ	FREQ.GHZ
! S-PARAMETER	S11	S11	S11	S11
! SMOOTH/APERTURE %	0	0	0	0
! WINDOW	NSL	NSL	NSL	NSL
! GATING	OFF	OFF	OFF	OFF
! FGTD	OFF	OFF	OFF	OFF
Marker Information per Trace:	TR1	TR2	TR3	TR4
!MK1	--	--	--	"MK1 TR4:  70.100 200 MHz,Z:(16.327 ohm, -1.744 ohm)"
!MK2	--	--	--	--
!MK3	--	--	--	--
!MK4	--	--	--	--
!MK5	--	--	--	--
!MK6	--	--	--	--
!MK7	--	--	--	--
!MK8	--	--	--	--
PNT	TR1.FREQ.GHZ	TR1.LOG MAG.dB	TR2.FREQ.GHZ	TR2.PHASE.deg	TR3.FREQ.GHZ	TR3.REAL IMPEDANCE.ohm	TR4.FREQ.GHZ	TR4.IMAGINARY IMPEDANCE.ohm
1	  0.020000000	-6.170000E-01	  0.020000000	-1.251630E+02	  0.020000000	2.252000E+00	  0.020000000	-2.589600E+01
2	  0.020200402	-6.180000E-01	  0.020200402	-1.266170E+02	  0.020200402	2.229000E+00	  0.020200402	-2.509700E+01
3	  0.020400802	-6.170000E-01	  0.020400802	-1.280600E+02	  0.020400802	2.195000E+00	  0.020400802	-2.431600E+01
4	  0.020601204	-6.190000E-01	  0.020601204	-1.295020E+02	  0.020601204	2.179000E+00	  0.020601204	-2.354300E+01
5	  0.020801604	-6.240000E-01	  0.020801604	-1.309730E+02	  0.020801604	2.169000E+00	  0.020801604	-2.276400E+01
6	  0.021002004	-6.290000E-01	  0.021002004	-1.324760E+02	  0.021002004	2.162000E+00	  0.021002004	-2.197800E+01
7	  0.021202406	-6.370000E-01	  0.021202406	-1.339820E+02	  0.021202406	2.164000E+00	  0.021202406	-2.119800E+01
8	  0.021402806	-6.430000E-01	  0.021402806	-1.355250E+02	  0.021402806	2.161000E+00	  0.021402806	-2.040900E+01
9	  0.021603208	-6.480000E-01	  0.021603208	-1.370340E+02	  0.021603208	2.152000E+00	  0.021603208	-1.964600E+01
10	  0.021803608	-6.530000E-01	  0.021803608	-1.385520E+02	  0.021803608	2.148000E+00	  0.021803608	-1.888600E+01
11	  0.022004008	-6.580000E-01	  0.022004008	-1.400950E+02	  0.022004008	2.143000E+00	  0.022004008	-1.812100E+01
12	  0.022204408	-6.620000E-01	  0.022204408	-1.416540E+02	  0.022204408	2.134000E+00	  0.022204408	-1.735700E+01
13	  0.022404809	-6.660000E-01	  0.022404809	-1.432080E+02	  0.022404809	2.128000E+00	  0.022404809	-1.660100E+01
14	  0.022605211	-6.700000E-01	  0.022605211	-1.447480E+02	  0.022605211	2.122000E+00	  0.022605211	-1.585900E+01
15	  0.022805611	-6.680000E-01	  0.022805611	-1.462680E+02	  0.022805611	2.099000E+00	  0.022805611	-1.513400E+01
16	  0.023006011	-6.710000E-01	  0.023006011	-1.477840E+02	  0.023006011	2.091000E+00	  0.023006011	-1.441500E+01
17	  0.023206413	-6.770000E-01	  0.023206413	-1.493350E+02	  0.023206413	2.096000E+00	  0.023206413	-1.368600E+01
18	  0.023406813	-6.870000E-01	  0.023406813	-1.508920E+02	  0.023406813	2.110000E+00	  0.023406813	-1.295900E+01
19	  0.023607215	-6.960000E-01	  0.023607215	-1.524430E+02	  0.023607215	2.124000E+00	  0.023607215	-1.224000E+01
20	  0.023807615	-7.040000E-01	  0.023807615	-1.540050E+02	  0.023807615	2.134000E+00	  0.023807615	-1.152000E+01
21	  0.024008015	-7.120000E-01	  0.024008015	-1.555670E+02	  0.024008015	2.145000E+00	  0.024008015	-1.080600E+01
22	  0.024208417	-7.240000E-01	  0.024208417	-1.571240E+02	  0.024208417	2.169000E+00	  0.024208417	-1.009700E+01
23	  0.024408817	-7.360000E-01	  0.024408817	-1.587080E+02	  0.024408817	2.193000E+00	  0.024408817	-9.381000E+00
24	  0.024609219	-7.480000E-01	  0.024609219	-1.603300E+02	  0.024609219	2.216000E+00	  0.024609219	-8.651000E+00
25	  0.024809619	-7.560000E-01	  0.024809619	-1.619690E+02	  0.024809619	2.230000E+00	  0.024809619	-7.917000E+00
26	  0.025010020	-7.630000E-01	  0.025010020	-1.636080E+02	  0.025010020	2.240000E+00	  0.025010020	-7.187000E+00
27	  0.025210422	-7.710000E-01	  0.025210422	-1.652500E+02	  0.025210422	2.257000E+00	  0.025210422	-6.458000E+00
28	  0.025410822	-7.800000E-01	  0.025410822	-1.669060E+02	  0.025410822	2.275000E+00	  0.025410822	-5.726000E+00
29	  0.025611224	-7.910000E-01	  0.025611224	-1.685740E+02	  0.025611224	2.298000E+00	  0.025611224	-4.991000E+00
30	  0.025811624	-8.010000E-01	  0.025811624	-1.702640E+02	  0.025811624	2.322000E+00	  0.025811624	-4.248000E+00
31	  0.026012026	-8.130000E-01	  0.026012026	-1.719670E+02	  0.026012026	2.350000E+00	  0.026012026	-3.502000E+00
32	  0.026212426	-8.270000E-01	  0.026212426	-1.736940E+02	  0.026212426	2.387000E+00	  0.026212426	-2.747000E+00
33	  0.026412826	-8.440000E-01	  0.026412826	-1.754200E+02	  0.026412826	2.433000E+00	  0.026412826	-1.994000E+00
34	  0.026613226	-8.610000E-01	  0.026613226	-1.771620E+02	  0.026613226	2.478000E+00	  0.026613226	-1.235000E+00
35	  0.026813626	-8.770000E-01	  0.026813626	-1.789150E+02	  0.026813626	2.522000E+00	  0.026813626	-4.720000E-01
36	  0.027014028	-8.940000E-01	  0.027014028	1.793300E+02	  0.027014028	2.571000E+00	  0.027014028	2.910000E-01
37	  0.027214428	-9.080000E-01	  0.027214428	1.775850E+02	  0.027214428	2.613000E+00	  0.027214428	1.050000E+00
38	  0.027414829	-9.230000E-01	  0.027414829	1.758410E+02	  0.027414829	2.659000E+00	  0.027414829	1.810000E+00
39	  0.027615231	-9.390000E-01	  0.027615231	1.740750E+02	  0.027615231	2.709000E+00	  0.027615231	2.579000E+00
40	  0.027815631	-9.590000E-01	  0.027815631	1.723200E+02	  0.027815631	2.770000E+00	  0.027815631	3.345000E+00
41	  0.028016033	-9.790000E-01	  0.028016033	1.705270E+02	  0.028016033	2.836000E+00	  0.028016033	4.129000E+00
42	  0.028216433	-9.980000E-01	  0.028216433	1.687400E+02	  0.028216433	2.899000E+00	  0.028216433	4.912000E+00
43	  0.028416833	-1.020000E+00	  0.028416833	1.669460E+02	  0.028416833	2.971000E+00	  0.028416833	5.700000E+00
44	  0.028617235	-1.044000E+00	  0.028617235	1.651600E+02	  0.028617235	3.053000E+00	  0.028617235	6.487000E+00
45	  0.028817635	-1.070000E+00	  0.028817635	1.633620E+02	  0.028817635	3.143000E+00	  0.028817635	7.282000E+00
46	  0.029018037	-1.097000E+00	  0.029018037	1.615400E+02	  0.029018037	3.239000E+00	  0.029018037	8.091000E+00
47	  0.029218437	-1.123000E+00	  0.029218437	1.596850E+02	  0.029218437	3.331000E+00	  0.029218437	8.919000E+00
48	  0.029418837	-1.146000E+00	  0.029418837	1.578300E+02	  0.029418837	3.421000E+00	  0.029418837	9.751000E+00
49	  0.029619239	-1.170000E+00	  0.029619239	1.560250E+02	  0.029619239	3.514000E+00	  0.029619239	1.056500E+01
50	  0.029819639	-1.197000E+00	  0.029819639	1.541980E+02	  0.029819639	3.621000E+00	  0.029819639	1.139500E+01
51	  0.030020041	-1.225000E+00	  0.030020041	1.523720E+02	  0.030020041	3.732000E+00	  0.030020041	1.222900E+01
52	  0.030220442	-1.257000E+00	  0.030220442	1.505400E+02	  0.030220442	3.862000E+00	  0.030220442	1.307100E+01
53	  0.030420844	-1.296000E+00	  0.030420844	1.486710E+02	  0.030420844	4.015000E+00	  0.030420844	1.393600E+01
54	  0.030621244	-1.338000E+00	  0.030621244	1.467510E+02	  0.030621244	4.185000E+00	  0.030621244	1.483200E+01
55	  0.030821644	-1.376000E+00	  0.030821644	1.448100E+02	  0.030821644	4.348000E+00	  0.030821644	1.574600E+01
56	  0.031022044	-1.410000E+00	  0.031022044	1.428270E+02	  0.031022044	4.507000E+00	  0.031022044	1.669000E+01
57	  0.031222444	-1.439000E+00	  0.031222444	1.408500E+02	  0.031222444	4.653000E+00	  0.031222444	1.764200E+01
58	  0.031422846	-1.469000E+00	  0.031422846	1.388540E+02	  0.031422846	4.810000E+00	  0.031422846	1.861400E+01
59	  0.031623244	-1.497000E+00	  0.031623244	1.368830E+02	  0.031623244	4.964000E+00	  0.031623244	1.958500E+01
60	  0.031823646	-1.520000E+00	  0.031823646	1.349210E+02	  0.031823646	5.111000E+00	  0.031823646	2.056500E+01
61	  0.032024048	-1.542000E+00	  0.032024048	1.329920E+02	  0.032024048	5.257000E+00	  0.032024048	2.154200E+01
62	  0.032224450	-1.568000E+00	  0.032224450	1.310690E+02	  0.032224450	5.425000E+00	  0.032224450	2.252700E+01
63	  0.032424849	-1.598000E+00	  0.032424849	1.291520E+02	  0.032424849	5.612000E+00	  0.032424849	2.352200E+01
64	  0.032625251	-1.631000E+00	  0.032625251	1.272250E+02	  0.032625251	5.820000E+00	  0.032625251	2.453600E+01
65	  0.032825653	-1.671000E+00	  0.032825653	1.252800E+02	  0.032825653	6.065000E+00	  0.032825653	2.557100E+01
66	  0.033026051	-1.714000E+00	  0.033026051	1.233630E+02	  0.033026051	6.327000E+00	  0.033026051	2.660700E+01
67	  0.033226453	-1.757000E+00	  0.033226453	1.213980E+02	  0.033226453	6.608000E+00	  0.033226453	2.768500E+01
68	  0.033426855	-1.802000E+00	  0.033426855	1.194160E+02	  0.033426855	6.907000E+00	  0.033426855	2.879000E+01
69	  0.033627257	-1.843000E+00	  0.033627257	1.174070E+02	  0.033627257	7.209000E+00	  0.033627257	2.993200E+01
70	  0.033827655	-1.888000E+00	  0.033827655	1.153820E+02	  0.033827655	7.544000E+00	  0.033827655	3.110200E+01
71	  0.034028057	-1.936000E+00	  0.034028057	1.133400E+02	  0.034028057	7.909000E+00	  0.034028057	3.230300E+01
72	  0.034228459	-1.979000E+00	  0.034228459	1.112660E+02	  0.034228459	8.276000E+00	  0.034228459	3.355000E+01
73	  0.034428857	-2.023000E+00	  0.034428857	1.092100E+02	  0.034428857	8.668000E+00	  0.034428857	3.481100E+01
74	  0.034629259	-2.066000E+00	  0.034629259	1.071360E+02	  0.034629259	9.077000E+00	  0.034629259	3.611200E+01
75	  0.034829661	-2.103000E+00	  0.034829661	1.051050E+02	  0.034829661	9.476000E+00	  0.034829661	3.741800E+01
76	  0.035030060	-2.144000E+00	  0.035030060	1.030720E+02	  0.035030060	9.920000E+00	  0.035030060	3.875200E+01
77	  0.035230462	-2.191000E+00	  0.035230462	1.010790E+02	  0.035230462	1.041400E+01	  0.035230462	4.008300E+01
78	  0.035430863	-2.242000E+00	  0.035430863	9.906000E+01	  0.035430863	1.095900E+01	  0.035430863	4.145800E+01
79	  0.035631265	-2.304000E+00	  0.035631265	9.703600E+01	  0.035631265	1.158900E+01	  0.035631265	4.285600E+01
80	  0.035831664	-2.366000E+00	  0.035831664	9.494400E+01	  0.035831664	1.227700E+01	  0.035831664	4.433600E+01
81	  0.036032066	-2.429000E+00	  0.036032066	9.281300E+01	  0.036032066	1.301500E+01	  0.036032066	4.588100E+01
82	  0.036232468	-2.486000E+00	  0.036232468	9.064400E+01	  0.036232468	1.378700E+01	  0.036232468	4.750200E+01
83	  0.036432866	-2.548000E+00	  0.036432866	8.844400E+01	  0.036432866	1.464100E+01	  0.036432866	4.918500E+01
84	  0.036633268	-2.601000E+00	  0.036633268	8.623700E+01	  0.036633268	1.551600E+01	  0.036633268	5.093200E+01
85	  0.036833670	-2.650000E+00	  0.036833670	8.403300E+01	  0.036833670	1.643000E+01	  0.036833670	5.273700E+01
86	  0.037034072	-2.697000E+00	  0.037034072	8.188000E+01	  0.037034072	1.739000E+01	  0.037034072	5.455100E+01
87	  0.037234470	-2.746000E+00	  0.037234470	7.973700E+01	  0.037234470	1.842900E+01	  0.037234470	5.640500E+01
88	  0.037434869	-2.788000E+00	  0.037434869	7.763100E+01	  0.037434869	1.948800E+01	  0.037434869	5.829700E+01
89	  0.037635271	-2.838000E+00	  0.037635271	7.557100E+01	  0.037635271	2.066800E+01	  0.037635271	6.017500E+01
90	  0.037835669	-2.891000E+00	  0.037835669	7.350100E+01	  0.037835669	2.196300E+01	  0.037835669	6.210500E+01
91	  0.038036071	-2.951000E+00	  0.038036071	7.147800E+01	  0.038036071	2.338000E+01	  0.038036071	6.401400E+01
92	  0.038236473	-3.007000E+00	  0.038236473	6.943700E+01	  0.038236473	2.490000E+01	  0.038236473	6.599700E+01
93	  0.038436871	-3.066000E+00	  0.038436871	6.737800E+01	  0.038436871	2.656300E+01	  0.038436871	6.804100E+01
94	  0.038637273	-3.131000E+00	  0.038637273	6.526100E+01	  0.038637273	2.845700E+01	  0.038637273	7.016500E+01
95	  0.038837675	-3.195000E+00	  0.038837675	6.310900E+01	  0.038837675	3.053400E+01	  0.038837675	7.237100E+01
96	  0.039038073	-3.261000E+00	  0.039038073	6.093100E+01	  0.039038073	3.282800E+01	  0.039038073	7.464100E+01
97	  0.039238475	-3.319000E+00	  0.039238475	5.874500E+01	  0.039238475	3.527100E+01	  0.039238475	7.700300E+01
98	  0.039438877	-3.374000E+00	  0.039438877	5.655900E+01	  0.039438877	3.791300E+01	  0.039438877	7.941700E+01
99	  0.039639279	-3.421000E+00	  0.039639279	5.440900E+01	  0.039639279	4.069800E+01	  0.039639279	8.187200E+01
100	  0.039839678	-3.466000E+00	  0.039839678	5.231900E+01	  0.039839678	4.364600E+01	  0.039839678	8.429300E+01
101	  0.040040080	-3.515000E+00	  0.040040080	5.027100E+01	  0.040040080	4.684900E+01	  0.040040080	8.662700E+01
102	  0.040240481	-3.570000E+00	  0.040240481	4.820400E+01	  0.040240481	5.041900E+01	  0.040240481	8.892200E+01
103	  0.040440880	-3.631000E+00	  0.040440880	4.614300E+01	  0.040440880	5.436800E+01	  0.040440880	9.108100E+01
104	  0.040641282	-3.692000E+00	  0.040641282	4.406400E+01	  0.040641282	5.868700E+01	  0.040641282	9.318500E+01
105	  0.040841684	-3.755000E+00	  0.040841684	4.195000E+01	  0.040841684	6.348900E+01	  0.040841684	9.516900E+01
106	  0.041042086	-3.819000E+00	  0.041042086	3.985200E+01	  0.041042086	6.867800E+01	  0.041042086	9.692900E+01
107	  0.041242484	-3.876000E+00	  0.041242484	3.775300E+01	  0.041242484	7.425700E+01	  0.041242484	9.855300E+01
108	  0.041442886	-3.937000E+00	  0.041442886	3.563400E+01	  0.041442886	8.037400E+01	  0.041442886	9.983200E+01
109	  0.041643288	-3.995000E+00	  0.041643288	3.352800E+01	  0.041643288	8.691000E+01	  0.041643288	1.007690E+02
110	  0.041843686	-4.049000E+00	  0.041843686	3.141700E+01	  0.041843686	9.392900E+01	  0.041843686	1.012980E+02
111	  0.042044088	-4.100000E+00	  0.042044088	2.934800E+01	  0.042044088	1.012580E+02	  0.042044088	1.013200E+02
112	  0.042244490	-4.151000E+00	  0.042244490	2.728600E+01	  0.042244490	1.090010E+02	  0.042244490	1.006630E+02
113	  0.042444889	-4.205000E+00	  0.042444889	2.526400E+01	  0.042444889	1.169570E+02	  0.042444889	9.917500E+01
114	  0.042645290	-4.257000E+00	  0.042645290	2.323800E+01	  0.042645290	1.252000E+02	  0.042645290	9.685800E+01
115	  0.042845692	-4.307000E+00	  0.042845692	2.123000E+01	  0.042845692	1.335480E+02	  0.042845692	9.363600E+01
116	  0.043046094	-4.359000E+00	  0.043046094	1.917800E+01	  0.043046094	1.420880E+02	  0.043046094	8.919900E+01
117	  0.043246493	-4.412000E+00	  0.043246493	1.717800E+01	  0.043246493	1.502310E+02	  0.043246493	8.370200E+01
118	  0.043446895	-4.467000E+00	  0.043446895	1.516800E+01	  0.043446895	1.579900E+02	  0.043446895	7.694400E+01
119	  0.043647297	-4.523000E+00	  0.043647297	1.316600E+01	  0.043647297	1.650640E+02	  0.043647297	6.904300E+01
120	  0.043847695	-4.577000E+00	  0.043847695	1.114700E+01	  0.043847695	1.713680E+02	  0.043847695	6.004500E+01
121	  0.044048097	-4.631000E+00	  0.044048097	9.143000E+00	  0.044048097	1.765370E+02	  0.044048097	5.019000E+01
122	  0.044248499	-4.681000E+00	  0.044248499	7.080000E+00	  0.044248499	1.807370E+02	  0.044248499	3.939700E+01
123	  0.044448901	-4.726000E+00	  0.044448901	5.059000E+00	  0.044448901	1.835800E+02	  0.044448901	2.833200E+01
124	  0.044649299	-4.769000E+00	  0.044649299	3.032000E+00	  0.044649299	1.849850E+02	  0.044649299	1.695500E+01
125	  0.044849701	-4.813000E+00	  0.044849701	1.033000E+00	  0.044849701	1.848420E+02	  0.044849701	5.716000E+00
126	  0.045050103	-4.860000E+00	  0.045050103	-9.560000E-01	  0.045050103	1.831980E+02	  0.045050103	-5.192000E+00
127	  0.045250501	-4.904000E+00	  0.045250501	-2.956000E+00	  0.045250501	1.803220E+02	  0.045250501	-1.563000E+01
128	  0.045450903	-4.944000E+00	  0.045450903	-4.930000E+00	  0.045450903	1.764590E+02	  0.045450903	-2.525500E+01
129	  0.045651305	-4.981000E+00	  0.045651305	-6.933000E+00	  0.045651305	1.716760E+02	  0.045651305	-3.422500E+01
130	  0.045851704	-5.015000E+00	  0.045851704	-8.894000E+00	  0.045851704	1.662870E+02	  0.045851704	-4.213900E+01
131	  0.046052106	-5.048000E+00	  0.046052106	-1.084600E+01	  0.046052106	1.603720E+02	  0.046052106	-4.910600E+01
132	  0.046252504	-5.077000E+00	  0.046252504	-1.278600E+01	  0.046252504	1.541590E+02	  0.046252504	-5.516700E+01
133	  0.046452906	-5.108000E+00	  0.046452906	-1.469400E+01	  0.046452906	1.477410E+02	  0.046452906	-6.018500E+01
134	  0.046653304	-5.137000E+00	  0.046653304	-1.655200E+01	  0.046653304	1.414230E+02	  0.046653304	-6.430100E+01
135	  0.046853706	-5.165000E+00	  0.046853706	-1.840600E+01	  0.046853706	1.351200E+02	  0.046853706	-6.768600E+01
136	  0.047054108	-5.198000E+00	  0.047054108	-2.024600E+01	  0.047054108	1.288860E+02	  0.047054108	-7.026100E+01
137	  0.047254506	-5.225000E+00	  0.047254506	-2.209300E+01	  0.047254506	1.228390E+02	  0.047254506	-7.235800E+01
138	  0.047454908	-5.252000E+00	  0.047454908	-2.392300E+01	  0.047454908	1.170320E+02	  0.047454908	-7.389700E+01
139	  0.047655310	-5.278000E+00	  0.047655310	-2.570900E+01	  0.047655310	1.115740E+02	  0.047655310	-7.493900E+01
140	  0.047855709	-5.307000E+00	  0.047855709	-2.749700E+01	  0.047855709	1.063350E+02	  0.047855709	-7.555400E+01
141	  0.048056111	-5.338000E+00	  0.048056111	-2.927200E+01	  0.048056111	1.013730E+02	  0.048056111	-7.578600E+01
142	  0.048256513	-5.366000E+00	  0.048256513	-3.106000E+01	  0.048256513	9.664100E+01	  0.048256513	-7.579300E+01
143	  0.048456915	-5.390000E+00	  0.048456915	-3.284500E+01	  0.048456915	9.216800E+01	  0.048456915	-7.559800E+01
144	  0.048657313	-5.414000E+00	  0.048657313	-3.463600E+01	  0.048657313	8.792400E+01	  0.048657313	-7.520400E+01
145	  0.048857715	-5.437000E+00	  0.048857715	-3.638900E+01	  0.048857715	8.400400E+01	  0.048857715	-7.463800E+01
146	  0.049058117	-5.461000E+00	  0.049058117	-3.813500E+01	  0.049058117	8.032000E+01	  0.049058117	-7.391500E+01
147	  0.049258515	-5.482000E+00	  0.049258515	-3.986100E+01	  0.049258515	7.688200E+01	  0.049258515	-7.310900E+01
148	  0.049458917	-5.510000E+00	  0.049458917	-4.155600E+01	  0.049458917	7.371200E+01	  0.049458917	-7.214100E+01
149	  0.049659319	-5.533000E+00	  0.049659319	-4.330800E+01	  0.049659319	7.061500E+01	  0.049659319	-7.112500E+01
150	  0.049859721	-5.558000E+00	  0.049859721	-4.504100E+01	  0.049859721	6.774000E+01	  0.049859721	-7.002300E+01
151	  0.050060119	-5.589000E+00	  0.050060119	-4.681700E+01	  0.050060119	6.499000E+01	  0.050060119	-6.879100E+01
152	  0.050260521	-5.612000E+00	  0.050260521	-4.857900E+01	  0.050260521	6.239800E+01	  0.050260521	-6.761300E+01
153	  0.050460923	-5.636000E+00	  0.050460923	-5.036300E+01	  0.050460923	5.993800E+01	  0.050460923	-6.637200E+01
154	  0.050661322	-5.656000E+00	  0.050661322	-5.212200E+01	  0.050661322	5.764300E+01	  0.050661322	-6.515700E+01
155	  0.050861724	-5.666000E+00	  0.050861724	-5.387800E+01	  0.050861724	5.544200E+01	  0.050861724	-6.401400E+01
156	  0.051062126	-5.674000E+00	  0.051062126	-5.565600E+01	  0.051062126	5.333500E+01	  0.051062126	-6.284100E+01
157	  0.051262524	-5.681000E+00	  0.051262524	-5.736700E+01	  0.051262524	5.141500E+01	  0.051262524	-6.170600E+01
158	  0.051462926	-5.687000E+00	  0.051462926	-5.905900E+01	  0.051462926	4.961800E+01	  0.051462926	-6.057300E+01
159	  0.051663328	-5.694000E+00	  0.051663328	-6.068900E+01	  0.051663328	4.798400E+01	  0.051663328	-5.946300E+01
160	  0.051863730	-5.705000E+00	  0.051863730	-6.231300E+01	  0.051863730	4.645300E+01	  0.051863730	-5.833500E+01
161	  0.052064128	-5.720000E+00	  0.052064128	-6.393900E+01	  0.052064128	4.502000E+01	  0.052064128	-5.717800E+01
162	  0.052264530	-5.727000E+00	  0.052264530	-6.555000E+01	  0.052264530	4.363700E+01	  0.052264530	-5.608900E+01
163	  0.052464932	-5.735000E+00	  0.052464932	-6.714900E+01	  0.052464932	4.234000E+01	  0.052464932	-5.499900E+01
164	  0.052665330	-5.745000E+00	  0.052665330	-6.873200E+01	  0.052665330	4.112800E+01	  0.052665330	-5.391700E+01
165	  0.052865732	-5.756000E+00	  0.052865732	-7.030300E+01	  0.052865732	3.998700E+01	  0.052865732	-5.284600E+01
166	  0.053066134	-5.766000E+00	  0.053066134	-7.185900E+01	  0.053066134	3.890900E+01	  0.053066134	-5.180000E+01
167	  0.053266536	-5.779000E+00	  0.053266536	-7.345400E+01	  0.053266536	3.786500E+01	  0.053266536	-5.072500E+01
168	  0.053466935	-5.784000E+00	  0.053466935	-7.500200E+01	  0.053466935	3.687300E+01	  0.053466935	-4.972400E+01
169	  0.053667337	-5.791000E+00	  0.053667337	-7.654800E+01	  0.053667337	3.593300E+01	  0.053667337	-4.872600E+01
170	  0.053867739	-5.791000E+00	  0.053867739	-7.805600E+01	  0.053867739	3.503500E+01	  0.053867739	-4.778400E+01
171	  0.054068137	-5.803000E+00	  0.054068137	-7.954600E+01	  0.054068137	3.423100E+01	  0.054068137	-4.681800E+01
172	  0.054268539	-5.808000E+00	  0.054268539	-8.103400E+01	  0.054268539	3.343400E+01	  0.054268539	-4.589300E+01
173	  0.054468941	-5.816000E+00	  0.054468941	-8.246300E+01	  0.054468941	3.271800E+01	  0.054468941	-4.499700E+01
174	  0.054669339	-5.825000E+00	  0.054669339	-8.390500E+01	  0.054669339	3.203000E+01	  0.054669339	-4.410100E+01
175	  0.054869737	-5.839000E+00	  0.054869737	-8.535300E+01	  0.054869737	3.138400E+01	  0.054869737	-4.319800E+01
176	  0.055070139	-5.848000E+00	  0.055070139	-8.682500E+01	  0.055070139	3.073500E+01	  0.055070139	-4.230700E+01
177	  0.055270538	-5.861000E+00	  0.055270538	-8.829000E+01	  0.055270538	3.013600E+01	  0.055270538	-4.141800E+01
178	  0.055470940	-5.867000E+00	  0.055470940	-8.973600E+01	  0.055470940	2.954100E+01	  0.055470940	-4.057000E+01
179	  0.055671342	-5.877000E+00	  0.055671342	-9.122400E+01	  0.055671342	2.896700E+01	  0.055671342	-3.969800E+01
180	  0.055871744	-5.885000E+00	  0.055871744	-9.272200E+01	  0.055871744	2.840600E+01	  0.055871744	-3.883800E+01
181	  0.056072142	-5.886000E+00	  0.056072142	-9.415600E+01	  0.056072142	2.786800E+01	  0.056072142	-3.803800E+01
182	  0.056272544	-5.882000E+00	  0.056272544	-9.560000E+01	  0.056272544	2.733000E+01	  0.056272544	-3.725200E+01
183	  0.056472946	-5.881000E+00	  0.056472946	-9.702800E+01	  0.056472946	2.682900E+01	  0.056472946	-3.647500E+01
184	  0.056673344	-5.882000E+00	  0.056673344	-9.840700E+01	  0.056673344	2.637100E+01	  0.056673344	-3.572700E+01
185	  0.056873746	-5.875000E+00	  0.056873746	-9.980100E+01	  0.056873746	2.589800E+01	  0.056873746	-3.499500E+01
186	  0.057074148	-5.878000E+00	  0.057074148	-1.011120E+02	  0.057074148	2.549900E+01	  0.057074148	-3.429500E+01
187	  0.057274550	-5.880000E+00	  0.057274550	-1.024270E+02	  0.057274550	2.511200E+01	  0.057274550	-3.359900E+01
188	  0.057474948	-5.885000E+00	  0.057474948	-1.037560E+02	  0.057474948	2.474600E+01	  0.057474948	-3.289700E+01
189	  0.057675350	-5.881000E+00	  0.057675350	-1.050860E+02	  0.057675350	2.436000E+01	  0.057675350	-3.221800E+01
190	  0.057875752	-5.891000E+00	  0.057875752	-1.064370E+02	  0.057875752	2.403000E+01	  0.057875752	-3.151000E+01
191	  0.058076151	-5.896000E+00	  0.058076151	-1.077460E+02	  0.058076151	2.370600E+01	  0.058076151	-3.083800E+01
192	  0.058276553	-5.896000E+00	  0.058276553	-1.090800E+02	  0.058276553	2.337200E+01	  0.058276553	-3.016900E+01
193	  0.058476955	-5.896000E+00	  0.058476955	-1.104150E+02	  0.058476955	2.305100E+01	  0.058476955	-2.950400E+01
194	  0.058677353	-5.896000E+00	  0.058677353	-1.117350E+02	  0.058677353	2.274300E+01	  0.058677353	-2.885200E+01
195	  0.058877755	-5.898000E+00	  0.058877755	-1.130480E+02	  0.058877755	2.245300E+01	  0.058877755	-2.820800E+01
196	  0.059078157	-5.894000E+00	  0.059078157	-1.143470E+02	  0.059078157	2.215900E+01	  0.059078157	-2.758200E+01
197	  0.059278559	-5.896000E+00	  0.059278559	-1.156060E+02	  0.059278559	2.190000E+01	  0.059278559	-2.697400E+01
198	  0.059478957	-5.891000E+00	  0.059478957	-1.168320E+02	  0.059478957	2.163800E+01	  0.059478957	-2.639300E+01
199	  0.059679359	-5.894000E+00	  0.059679359	-1.180940E+02	  0.059679359	2.139800E+01	  0.059679359	-2.579200E+01
200	  0.059879761	-5.898000E+00	  0.059879761	-1.193340E+02	  0.059879761	2.117500E+01	  0.059879761	-2.520300E+01
201	  0.060080159	-5.899000E+00	  0.060080159	-1.205820E+02	  0.060080159	2.095200E+01	  0.060080159	-2.461800E+01
202	  0.060280561	-5.904000E+00	  0.060280561	-1.218340E+02	  0.060280561	2.074500E+01	  0.060280561	-2.403200E+01
203	  0.060480963	-5.903000E+00	  0.060480963	-1.230940E+02	  0.060480963	2.052600E+01	  0.060480963	-2.345300E+01
204	  0.060681365	-5.904000E+00	  0.060681365	-1.243420E+02	  0.060681365	2.032200E+01	  0.060681365	-2.288200E+01
205	  0.060881764	-5.903000E+00	  0.060881764	-1.256060E+02	  0.060881764	2.011900E+01	  0.060881764	-2.230800E+01
206	  0.061082166	-5.902000E+00	  0.061082166	-1.268400E+02	  0.061082166	1.992400E+01	  0.061082166	-2.175300E+01
207	  0.061282568	-5.897000E+00	  0.061282568	-1.280460E+02	  0.061282568	1.973100E+01	  0.061282568	-2.121700E+01
208	  0.061482966	-5.891000E+00	  0.061482966	-1.292720E+02	  0.061482966	1.953800E+01	  0.061482966	-2.067700E+01
209	  0.061683368	-5.884000E+00	  0.061683368	-1.305140E+02	  0.061683368	1.934600E+01	  0.061683368	-2.013200E+01
210	  0.061883770	-5.877000E+00	  0.061883770	-1.316910E+02	  0.061883770	1.916800E+01	  0.061883770	-1.962000E+01
211	  0.062084168	-5.874000E+00	  0.062084168	-1.328790E+02	  0.062084168	1.900500E+01	  0.062084168	-1.910200E+01
212	  0.062284570	-5.868000E+00	  0.062284570	-1.340160E+02	  0.062284570	1.884600E+01	  0.062284570	-1.861200E+01
213	  0.062484972	-5.859000E+00	  0.062484972	-1.351010E+02	  0.062484972	1.868900E+01	  0.062484972	-1.814800E+01
214	  0.062685370	-5.852000E+00	  0.062685370	-1.362340E+02	  0.062685370	1.854000E+01	  0.062685370	-1.766400E+01
215	  0.062885776	-5.853000E+00	  0.062885776	-1.373520E+02	  0.062885776	1.841600E+01	  0.062885776	-1.718300E+01
216	  0.063086174	-5.854000E+00	  0.063086174	-1.384730E+02	  0.063086174	1.829800E+01	  0.063086174	-1.670300E+01
217	  0.063286573	-5.857000E+00	  0.063286573	-1.396310E+02	  0.063286573	1.818300E+01	  0.063286573	-1.620800E+01
218	  0.063486971	-5.855000E+00	  0.063486971	-1.407680E+02	  0.063486971	1.806400E+01	  0.063486971	-1.572800E+01
219	  0.063687377	-5.848000E+00	  0.063687377	-1.418910E+02	  0.063687377	1.793400E+01	  0.063687377	-1.525900E+01
220	  0.063887775	-5.845000E+00	  0.063887775	-1.430240E+02	  0.063887775	1.782000E+01	  0.063887775	-1.478500E+01
221	  0.064088173	-5.848000E+00	  0.064088173	-1.441300E+02	  0.064088173	1.772900E+01	  0.064088173	-1.432000E+01
222	  0.064288579	-5.853000E+00	  0.064288579	-1.452660E+02	  0.064288579	1.764300E+01	  0.064288579	-1.384500E+01
223	  0.064488977	-5.851000E+00	  0.064488977	-1.463580E+02	  0.064488977	1.754600E+01	  0.064488977	-1.339300E+01
224	  0.064689375	-5.848000E+00	  0.064689375	-1.474480E+02	  0.064689375	1.745200E+01	  0.064689375	-1.294400E+01
225	  0.064889781	-5.850000E+00	  0.064889781	-1.485170E+02	  0.064889781	1.737400E+01	  0.064889781	-1.250300E+01
226	  0.065090179	-5.854000E+00	  0.065090179	-1.496240E+02	  0.065090179	1.730300E+01	  0.065090179	-1.204700E+01
227	  0.065290578	-5.855000E+00	  0.065290578	-1.507380E+02	  0.065290578	1.722400E+01	  0.065290578	-1.159100E+01
228	  0.065490983	-5.858000E+00	  0.065490983	-1.518440E+02	  0.065490983	1.715700E+01	  0.065490983	-1.113900E+01
229	  0.065691382	-5.863000E+00	  0.065691382	-1.529090E+02	  0.065691382	1.710100E+01	  0.065691382	-1.070500E+01
230	  0.065891780	-5.863000E+00	  0.065891780	-1.540250E+02	  0.065891780	1.703300E+01	  0.065891780	-1.025300E+01
231	  0.066092186	-5.864000E+00	  0.066092186	-1.551110E+02	  0.066092186	1.696900E+01	  0.066092186	-9.815000E+00
232	  0.066292584	-5.863000E+00	  0.066292584	-1.561910E+02	  0.066292584	1.690600E+01	  0.066292584	-9.381000E+00
233	  0.066492982	-5.863000E+00	  0.066492982	-1.572750E+02	  0.066492982	1.684900E+01	  0.066492982	-8.946000E+00
234	  0.066693388	-5.860000E+00	  0.066693388	-1.583450E+02	  0.066693388	1.678600E+01	  0.066693388	-8.518000E+00
235	  0.066893786	-5.862000E+00	  0.066893786	-1.594220E+02	  0.066893786	1.673900E+01	  0.066893786	-8.088000E+00
236	  0.067094192	-5.859000E+00	  0.067094192	-1.604870E+02	  0.067094192	1.668200E+01	  0.067094192	-7.664000E+00
237	  0.067294590	-5.861000E+00	  0.067294590	-1.615360E+02	  0.067294590	1.664200E+01	  0.067294590	-7.247000E+00
238	  0.067494988	-5.857000E+00	  0.067494988	-1.625350E+02	  0.067494988	1.658800E+01	  0.067494988	-6.852000E+00
239	  0.067695394	-5.855000E+00	  0.067695394	-1.635750E+02	  0.067695394	1.654500E+01	  0.067695394	-6.440000E+00
240	  0.067895792	-5.853000E+00	  0.067895792	-1.645820E+02	  0.067895792	1.650300E+01	  0.067895792	-6.042000E+00
241	  0.068096191	-5.852000E+00	  0.068096191	-1.656040E+02	  0.068096191	1.646500E+01	  0.068096191	-5.639000E+00
242	  0.068296596	-5.854000E+00	  0.068296596	-1.666000E+02	  0.068296596	1.643900E+01	  0.068296596	-5.246000E+00
243	  0.068496995	-5.858000E+00	  0.068496995	-1.676210E+02	  0.068496995	1.642200E+01	  0.068496995	-4.843000E+00
244	  0.068697393	-5.861000E+00	  0.068697393	-1.685730E+02	  0.068697393	1.640200E+01	  0.068697393	-4.468000E+00
245	  0.068897791	-5.860000E+00	  0.068897791	-1.696010E+02	  0.068897791	1.637600E+01	  0.068897791	-4.065000E+00
246	  0.069098189	-5.860000E+00	  0.069098189	-1.706040E+02	  0.069098189	1.635400E+01	  0.069098189	-3.671000E+00
247	  0.069298595	-5.867000E+00	  0.069298595	-1.716040E+02	  0.069298595	1.635100E+01	  0.069298595	-3.279000E+00
248	  0.069498993	-5.871000E+00	  0.069498993	-1.725850E+02	  0.069498993	1.634500E+01	  0.069498993	-2.894000E+00
249	  0.069699399	-5.875000E+00	  0.069699399	-1.735510E+02	  0.069699399	1.634100E+01	  0.069699399	-2.516000E+00
250	  0.069899797	-5.877000E+00	  0.069899797	-1.745510E+02	  0.069899797	1.633200E+01	  0.069899797	-2.125000E+00
251	  0.070100196	-5.879000E+00	  0.070100196	-1.755270E+02	  0.070100196	1.632600E+01	  0.070100196	-1.744000E+00
252	  0.070300601	-5.889000E+00	  0.070300601	-1.765030E+02	  0.070300601	1.634400E+01	  0.070300601	-1.363000E+00
253	  0.070501000	-5.895000E+00	  0.070501000	-1.775090E+02	  0.070501000	1.635300E+01	  0.070501000	-9.700000E-01
254	  0.070701398	-5.897000E+00	  0.070701398	-1.784790E+02	  0.070701398	1.635400E+01	  0.070701398	-5.920000E-01
255	  0.070901804	-5.903000E+00	  0.070901804	-1.794560E+02	  0.070901804	1.636600E+01	  0.070901804	-2.110000E-01
256	  0.071102202	-5.907000E+00	  0.071102202	1.795540E+02	  0.071102202	1.637500E+01	  0.071102202	1.730000E-01
257	  0.071302600	-5.913000E+00	  0.071302600	1.785660E+02	  0.071302600	1.639400E+01	  0.071302600	5.580000E-01
258	  0.071503006	-5.913000E+00	  0.071503006	1.776000E+02	  0.071503006	1.639800E+01	  0.071503006	9.340000E-01
259	  0.071703404	-5.913000E+00	  0.071703404	1.766380E+02	  0.071703404	1.640500E+01	  0.071703404	1.309000E+00
260	  0.071903802	-5.915000E+00	  0.071903802	1.756690E+02	  0.071903802	1.641700E+01	  0.071903802	1.686000E+00
261	  0.072104208	-5.922000E+00	  0.072104208	1.746970E+02	  0.072104208	1.644600E+01	  0.072104208	2.065000E+00
262	  0.072304606	-5.925000E+00	  0.072304606	1.737460E+02	  0.072304606	1.646700E+01	  0.072304606	2.435000E+00
263	  0.072505005	-5.922000E+00	  0.072505005	1.728290E+02	  0.072505005	1.647100E+01	  0.072505005	2.793000E+00
264	  0.072705410	-5.925000E+00	  0.072705410	1.719040E+02	  0.072705410	1.649700E+01	  0.072705410	3.154000E+00
265	  0.072905809	-5.925000E+00	  0.072905809	1.710210E+02	  0.072905809	1.651100E+01	  0.072905809	3.499000E+00
266	  0.073106214	-5.929000E+00	  0.073106214	1.700860E+02	  0.073106214	1.654300E+01	  0.073106214	3.864000E+00
267	  0.073306613	-5.932000E+00	  0.073306613	1.691870E+02	  0.073306613	1.657200E+01	  0.073306613	4.216000E+00
268	  0.073507011	-5.936000E+00	  0.073507011	1.682740E+02	  0.073507011	1.660500E+01	  0.073507011	4.572000E+00
269	  0.073707417	-5.933000E+00	  0.073707417	1.673780E+02	  0.073707417	1.662300E+01	  0.073707417	4.924000E+00
270	  0.073907815	-5.937000E+00	  0.073907815	1.665440E+02	  0.073907815	1.665800E+01	  0.073907815	5.251000E+00
271	  0.074108213	-5.945000E+00	  0.074108213	1.656870E+02	  0.074108213	1.670400E+01	  0.074108213	5.586000E+00
272	  0.074308619	-5.950000E+00	  0.074308619	1.647770E+02	  0.074308619	1.674800E+01	  0.074308619	5.943000E+00
273	  0.074509017	-5.955000E+00	  0.074509017	1.639170E+02	  0.074509017	1.679100E+01	  0.074509017	6.280000E+00
274	  0.074709415	-5.965000E+00	  0.074709415	1.630600E+02	  0.074709415	1.685000E+01	  0.074709415	6.616000E+00
275	  0.074909821	-5.978000E+00	  0.074909821	1.621800E+02	  0.074909821	1.691900E+01	  0.074909821	6.960000E+00
276	  0.075110219	-5.989000E+00	  0.075110219	1.613250E+02	  0.075110219	1.698500E+01	  0.075110219	7.294000E+00
277	  0.075310618	-5.998000E+00	  0.075310618	1.604920E+02	  0.075310618	1.704600E+01	  0.075310618	7.621000E+00
278	  0.075511023	-6.013000E+00	  0.075511023	1.596050E+02	  0.075511023	1.712500E+01	  0.075511023	7.968000E+00
279	  0.075711422	-6.022000E+00	  0.075711422	1.587190E+02	  0.075711422	1.719200E+01	  0.075711422	8.316000E+00
280	  0.075911827	-6.037000E+00	  0.075911827	1.578590E+02	  0.075911827	1.727500E+01	  0.075911827	8.652000E+00
281	  0.076112226	-6.042000E+00	  0.076112226	1.569790E+02	  0.076112226	1.733700E+01	  0.076112226	9.001000E+00
282	  0.076312624	-6.059000E+00	  0.076312624	1.560860E+02	  0.076312624	1.743000E+01	  0.076312624	9.350000E+00
283	  0.076513030	-6.065000E+00	  0.076513030	1.552360E+02	  0.076513030	1.749500E+01	  0.076513030	9.687000E+00
284	  0.076713428	-6.075000E+00	  0.076713428	1.543300E+02	  0.076713428	1.757700E+01	  0.076713428	1.004500E+01
285	  0.076913826	-6.086000E+00	  0.076913826	1.534220E+02	  0.076913826	1.766100E+01	  0.076913826	1.040400E+01
286	  0.077114232	-6.096000E+00	  0.077114232	1.525600E+02	  0.077114232	1.774400E+01	  0.077114232	1.074500E+01
287	  0.077314630	-6.108000E+00	  0.077314630	1.516740E+02	  0.077314630	1.783600E+01	  0.077314630	1.109600E+01
288	  0.077515028	-6.114000E+00	  0.077515028	1.508080E+02	  0.077515028	1.791300E+01	  0.077515028	1.144300E+01
289	  0.077715434	-6.123000E+00	  0.077715434	1.499490E+02	  0.077715434	1.799900E+01	  0.077715434	1.178500E+01
290	  0.077915832	-6.134000E+00	  0.077915832	1.491150E+02	  0.077915832	1.809200E+01	  0.077915832	1.211700E+01
291	  0.078116231	-6.143000E+00	  0.078116231	1.482570E+02	  0.078116231	1.818300E+01	  0.078116231	1.246000E+01
292	  0.078316636	-6.150000E+00	  0.078316636	1.474010E+02	  0.078316636	1.826900E+01	  0.078316636	1.280400E+01
293	  0.078517035	-6.162000E+00	  0.078517035	1.465030E+02	  0.078517035	1.837900E+01	  0.078517035	1.316200E+01
294	  0.078717433	-6.168000E+00	  0.078717433	1.456800E+02	  0.078717433	1.846300E+01	  0.078717433	1.349500E+01
295	  0.078917839	-6.170000E+00	  0.078917839	1.448350E+02	  0.078917839	1.854400E+01	  0.078917839	1.384000E+01
296	  0.079118237	-6.177000E+00	  0.079118237	1.440300E+02	  0.079118237	1.863500E+01	  0.079118237	1.416600E+01
297	  0.079318643	-6.185000E+00	  0.079318643	1.432440E+02	  0.079318643	1.873100E+01	  0.079318643	1.448400E+01
298	  0.079519041	-6.192000E+00	  0.079519041	1.424550E+02	  0.079519041	1.882600E+01	  0.079519041	1.480500E+01
299	  0.079719439	-6.205000E+00	  0.079719439	1.416560E+02	  0.079719439	1.894000E+01	  0.079719439	1.512700E+01
300	  0.079919845	-6.220000E+00	  0.079919845	1.408530E+02	  0.079919845	1.906300E+01	  0.079919845	1.544900E+01
301	  0.080120243	-6.229000E+00	  0.080120243	1.400710E+02	  0.080120243	1.916900E+01	  0.080120243	1.576700E+01
302	  0.080320641	-6.244000E+00	  0.080320641	1.393000E+02	  0.080320641	1.929200E+01	  0.080320641	1.607800E+01
303	  0.080521047	-6.258000E+00	  0.080521047	1.385220E+02	  0.080521047	1.941500E+01	  0.080521047	1.639200E+01
304	  0.080721445	-6.272000E+00	  0.080721445	1.377560E+02	  0.080721445	1.954200E+01	  0.080721445	1.670200E+01
305	  0.080921844	-6.289000E+00	  0.080921844	1.369820E+02	  0.080921844	1.967800E+01	  0.080921844	1.701200E+01
306	  0.081122249	-6.305000E+00	  0.081122249	1.361930E+02	  0.081122249	1.981600E+01	  0.081122249	1.733100E+01
307	  0.081322648	-6.319000E+00	  0.081322648	1.353860E+02	  0.081322648	1.995100E+01	  0.081322648	1.766000E+01
308	  0.081523046	-6.333000E+00	  0.081523046	1.346060E+02	  0.081523046	2.008700E+01	  0.081523046	1.797800E+01
309	  0.081723452	-6.350000E+00	  0.081723452	1.338360E+02	  0.081723452	2.023300E+01	  0.081723452	1.828900E+01
310	  0.081923850	-6.369000E+00	  0.081923850	1.330730E+02	  0.081923850	2.038800E+01	  0.081923850	1.859500E+01
311	  0.082124248	-6.382000E+00	  0.082124248	1.322740E+02	  0.082124248	2.052900E+01	  0.082124248	1.892300E+01
312	  0.082324654	-6.402000E+00	  0.082324654	1.315130E+02	  0.082324654	2.069100E+01	  0.082324654	1.922900E+01
313	  0.082525052	-6.417000E+00	  0.082525052	1.307430E+02	  0.082525052	2.084000E+01	  0.082525052	1.954400E+01
314	  0.082725458	-6.434000E+00	  0.082725458	1.299800E+02	  0.082725458	2.099900E+01	  0.082725458	1.985400E+01
315	  0.082925856	-6.456000E+00	  0.082925856	1.292080E+02	  0.082925856	2.117500E+01	  0.082925856	2.016300E+01
316	  0.083126254	-6.475000E+00	  0.083126254	1.285060E+02	  0.083126254	2.133300E+01	  0.083126254	2.044600E+01
317	  0.083326660	-6.498000E+00	  0.083326660	1.277250E+02	  0.083326660	2.152100E+01	  0.083326660	2.075800E+01
318	  0.083527058	-6.514000E+00	  0.083527058	1.269030E+02	  0.083527058	2.169600E+01	  0.083527058	2.109600E+01
319	  0.083727457	-6.527000E+00	  0.083727457	1.260710E+02	  0.083727457	2.186600E+01	  0.083727457	2.144300E+01
320	  0.083927862	-6.552000E+00	  0.083927862	1.253510E+02	  0.083927862	2.205700E+01	  0.083927862	2.172700E+01
321	  0.084128261	-6.566000E+00	  0.084128261	1.245410E+02	  0.084128261	2.223500E+01	  0.084128261	2.206300E+01
322	  0.084328659	-6.582000E+00	  0.084328659	1.238090E+02	  0.084328659	2.240800E+01	  0.084328659	2.236400E+01
323	  0.084529065	-6.597000E+00	  0.084529065	1.230700E+02	  0.084529065	2.258000E+01	  0.084529065	2.267000E+01
324	  0.084729463	-6.613000E+00	  0.084729463	1.223490E+02	  0.084729463	2.275700E+01	  0.084729463	2.296500E+01
325	  0.084929861	-6.630000E+00	  0.084929861	1.216060E+02	  0.084929861	2.294200E+01	  0.084929861	2.327100E+01
326	  0.085130267	-6.644000E+00	  0.085130267	1.209130E+02	  0.085130267	2.311400E+01	  0.085130267	2.355800E+01
327	  0.085330658	-6.668000E+00	  0.085330658	1.202040E+02	  0.085330658	2.332000E+01	  0.085330658	2.384000E+01
328	  0.085531056	-6.692000E+00	  0.085531056	1.194990E+02	  0.085531056	2.352700E+01	  0.085531056	2.412000E+01
329	  0.085731462	-6.714000E+00	  0.085731462	1.187750E+02	  0.085731462	2.373800E+01	  0.085731462	2.441000E+01
330	  0.085931860	-6.740000E+00	  0.085931860	1.180900E+02	  0.085931860	2.395200E+01	  0.085931860	2.467900E+01
331	  0.086132258	-6.759000E+00	  0.086132258	1.173850E+02	  0.086132258	2.415700E+01	  0.086132258	2.496400E+01
332	  0.086332664	-6.781000E+00	  0.086332664	1.166660E+02	  0.086332664	2.437300E+01	  0.086332664	2.525200E+01
333	  0.086533062	-6.801000E+00	  0.086533062	1.160060E+02	  0.086533062	2.457600E+01	  0.086533062	2.551600E+01
334	  0.086733460	-6.825000E+00	  0.086733460	1.152870E+02	  0.086733460	2.480400E+01	  0.086733460	2.580200E+01
335	  0.086933866	-6.846000E+00	  0.086933866	1.145960E+02	  0.086933866	2.502100E+01	  0.086933866	2.607900E+01
336	  0.087134264	-6.872000E+00	  0.087134264	1.139050E+02	  0.087134264	2.525700E+01	  0.087134264	2.634700E+01
337	  0.087334670	-6.896000E+00	  0.087334670	1.132280E+02	  0.087334670	2.548800E+01	  0.087334670	2.661100E+01
338	  0.087535068	-6.916000E+00	  0.087535068	1.125510E+02	  0.087535068	2.570700E+01	  0.087535068	2.688300E+01
339	  0.087735467	-6.939000E+00	  0.087735467	1.119100E+02	  0.087735467	2.593100E+01	  0.087735467	2.713300E+01
340	  0.087935872	-6.963000E+00	  0.087935872	1.112580E+02	  0.087935872	2.616400E+01	  0.087935872	2.738500E+01
341	  0.088136271	-6.997000E+00	  0.088136271	1.106220E+02	  0.088136271	2.642300E+01	  0.088136271	2.761400E+01
342	  0.088336669	-7.027000E+00	  0.088336669	1.099570E+02	  0.088336669	2.668400E+01	  0.088336669	2.786100E+01
343	  0.088537075	-7.057000E+00	  0.088537075	1.093060E+02	  0.088537075	2.694400E+01	  0.088537075	2.809900E+01
344	  0.088737473	-7.085000E+00	  0.088737473	1.086010E+02	  0.088737473	2.721300E+01	  0.088737473	2.836700E+01
345	  0.088937871	-7.114000E+00	  0.088937871	1.079170E+02	  0.088937871	2.748400E+01	  0.088937871	2.862100E+01
346	  0.089138277	-7.140000E+00	  0.089138277	1.072550E+02	  0.089138277	2.774700E+01	  0.089138277	2.886800E+01
347	  0.089338675	-7.166000E+00	  0.089338675	1.065800E+02	  0.089338675	2.801300E+01	  0.089338675	2.912200E+01
348	  0.089539073	-7.197000E+00	  0.089539073	1.059000E+02	  0.089539073	2.830100E+01	  0.089539073	2.936700E+01
349	  0.089739479	-7.227000E+00	  0.089739479	1.052420E+02	  0.089739479	2.858200E+01	  0.089739479	2.960300E+01
350	  0.089939877	-7.252000E+00	  0.089939877	1.045710E+02	  0.089939877	2.885600E+01	  0.089939877	2.985400E+01
351	  0.090140276	-7.276000E+00	  0.090140276	1.039450E+02	  0.090140276	2.911500E+01	  0.090140276	3.008600E+01
352	  0.090340681	-7.300000E+00	  0.090340681	1.032610E+02	  0.090340681	2.939800E+01	  0.090340681	3.034100E+01
353	  0.090541080	-7.327000E+00	  0.090541080	1.026340E+02	  0.090541080	2.967300E+01	  0.090541080	3.056600E+01
354	  0.090741485	-7.359000E+00	  0.090741485	1.020180E+02	  0.090741485	2.996300E+01	  0.090741485	3.077400E+01
355	  0.090941884	-7.386000E+00	  0.090941884	1.014040E+02	  0.090941884	3.024100E+01	  0.090941884	3.098800E+01
356	  0.091142282	-7.417000E+00	  0.091142282	1.007680E+02	  0.091142282	3.054300E+01	  0.091142282	3.120300E+01
357	  0.091342688	-7.441000E+00	  0.091342688	1.001450E+02	  0.091342688	3.082300E+01	  0.091342688	3.142500E+01
358	  0.091543086	-7.466000E+00	  0.091543086	9.949800E+01	  0.091543086	3.111700E+01	  0.091543086	3.165500E+01
359	  0.091743484	-7.495000E+00	  0.091743484	9.891300E+01	  0.091743484	3.140200E+01	  0.091743484	3.184900E+01
360	  0.091943890	-7.519000E+00	  0.091943890	9.829900E+01	  0.091943890	3.168800E+01	  0.091943890	3.206300E+01
361	  0.092144288	-7.546000E+00	  0.092144288	9.769800E+01	  0.092144288	3.198100E+01	  0.092144288	3.226500E+01
362	  0.092344686	-7.570000E+00	  0.092344686	9.716100E+01	  0.092344686	3.224700E+01	  0.092344686	3.244200E+01
363	  0.092545092	-7.592000E+00	  0.092545092	9.661700E+01	  0.092545092	3.251000E+01	  0.092545092	3.262600E+01
364	  0.092745490	-7.614000E+00	  0.092745490	9.608600E+01	  0.092745490	3.277200E+01	  0.092745490	3.280400E+01
365	  0.092945889	-7.645000E+00	  0.092945889	9.555400E+01	  0.092945889	3.306100E+01	  0.092945889	3.296000E+01
366	  0.093146294	-7.668000E+00	  0.093146294	9.503100E+01	  0.093146294	3.332700E+01	  0.093146294	3.312900E+01
367	  0.093346693	-7.702000E+00	  0.093346693	9.461100E+01	  0.093346693	3.358700E+01	  0.093346693	3.322400E+01
368	  0.093547091	-7.734000E+00	  0.093547091	9.409700E+01	  0.093547091	3.388100E+01	  0.093547091	3.336200E+01
369	  0.093747497	-7.761000E+00	  0.093747497	9.360400E+01	  0.093747497	3.415100E+01	  0.093747497	3.350500E+01
370	  0.093947895	-7.796000E+00	  0.093947895	9.310900E+01	  0.093947895	3.445100E+01	  0.093947895	3.362200E+01
371	  0.094148301	-7.827000E+00	  0.094148301	9.259200E+01	  0.094148301	3.474600E+01	  0.094148301	3.376000E+01
372	  0.094348699	-7.857000E+00	  0.094348699	9.212000E+01	  0.094348699	3.502400E+01	  0.094348699	3.387900E+01
373	  0.094549097	-7.891000E+00	  0.094549097	9.162900E+01	  0.094549097	3.532500E+01	  0.094549097	3.399000E+01
374	  0.094749503	-7.933000E+00	  0.094749503	9.117500E+01	  0.094749503	3.563200E+01	  0.094749503	3.406400E+01
375	  0.094949901	-7.962000E+00	  0.094949901	9.069500E+01	  0.094949901	3.591600E+01	  0.094949901	3.418300E+01
376	  0.095150299	-7.991000E+00	  0.095150299	9.021600E+01	  0.095150299	3.620300E+01	  0.095150299	3.429800E+01
377	  0.095350705	-8.022000E+00	  0.095350705	8.975100E+01	  0.095350705	3.648800E+01	  0.095350705	3.440100E+01
378	  0.095551103	-8.054000E+00	  0.095551103	8.927800E+01	  0.095551103	3.678400E+01	  0.095551103	3.450100E+01
379	  0.095751502	-8.093000E+00	  0.095751502	8.881500E+01	  0.095751502	3.709500E+01	  0.095751502	3.457400E+01
380	  0.095951907	-8.124000E+00	  0.095951907	8.834500E+01	  0.095951907	3.738800E+01	  0.095951907	3.467300E+01
381	  0.096152306	-8.158000E+00	  0.096152306	8.787600E+01	  0.096152306	3.769200E+01	  0.096152306	3.475800E+01
382	  0.096352704	-8.187000E+00	  0.096352704	8.740600E+01	  0.096352704	3.798400E+01	  0.096352704	3.485700E+01
383	  0.096553110	-8.223000E+00	  0.096553110	8.691800E+01	  0.096553110	3.830300E+01	  0.096553110	3.494100E+01
384	  0.096753508	-8.248000E+00	  0.096753508	8.637500E+01	  0.096753508	3.862500E+01	  0.096753508	3.507500E+01
385	  0.096953906	-8.275000E+00	  0.096953906	8.591400E+01	  0.096953906	3.891100E+01	  0.096953906	3.517200E+01
386	  0.097154312	-8.304000E+00	  0.097154312	8.546100E+01	  0.097154312	3.920400E+01	  0.097154312	3.525300E+01
387	  0.097354710	-8.325000E+00	  0.097354710	8.497500E+01	  0.097354710	3.949200E+01	  0.097354710	3.537500E+01
388	  0.097555116	-8.343000E+00	  0.097555116	8.449700E+01	  0.097555116	3.977100E+01	  0.097555116	3.549800E+01
389	  0.097755514	-8.361000E+00	  0.097755514	8.401100E+01	  0.097755514	4.005800E+01	  0.097755514	3.562300E+01
390	  0.097955912	-8.381000E+00	  0.097955912	8.356900E+01	  0.097955912	4.032800E+01	  0.097955912	3.572400E+01
391	  0.098156318	-8.391000E+00	  0.098156318	8.313100E+01	  0.098156318	4.057500E+01	  0.098156318	3.585400E+01
392	  0.098356716	-8.408000E+00	  0.098356716	8.273200E+01	  0.098356716	4.082100E+01	  0.098356716	3.594300E+01
393	  0.098557115	-8.423000E+00	  0.098557115	8.231700E+01	  0.098557115	4.107100E+01	  0.098557115	3.604600E+01
394	  0.098757520	-8.437000E+00	  0.098757520	8.190700E+01	  0.098757520	4.131700E+01	  0.098757520	3.615000E+01
395	  0.098957919	-8.447000E+00	  0.098957919	8.154300E+01	  0.098957919	4.153200E+01	  0.098957919	3.624800E+01
396	  0.099158317	-8.463000E+00	  0.099158317	8.113800E+01	  0.099158317	4.178300E+01	  0.099158317	3.634200E+01
397	  0.099358723	-8.477000E+00	  0.099358723	8.075000E+01	  0.099358723	4.202400E+01	  0.099358723	3.643100E+01
398	  0.099559121	-8.484000E+00	  0.099559121	8.040700E+01	  0.099559121	4.222400E+01	  0.099559121	3.653100E+01
399	  0.099759519	-8.493000E+00	  0.099759519	8.001400E+01	  0.099759519	4.245900E+01	  0.099759519	3.663700E+01
400	  0.099959925	-8.498000E+00	  0.099959925	7.963700E+01	  0.099959925	4.267500E+01	  0.099959925	3.675500E+01
401	  0.100160323	-8.512000E+00	  0.100160323	7.935800E+01	  0.100160323	4.286100E+01	  0.100160323	3.680200E+01
402	  0.100360721	-8.527000E+00	  0.100360721	7.903100E+01	  0.100360721	4.307700E+01	  0.100360721	3.686000E+01
403	  0.100561127	-8.528000E+00	  0.100561127	7.861300E+01	  0.100561127	4.331200E+01	  0.100561127	3.700300E+01
404	  0.100761525	-8.541000E+00	  0.100761525	7.823200E+01	  0.100761525	4.355500E+01	  0.100761525	3.708700E+01
405	  0.100961931	-8.545000E+00	  0.100961931	7.788600E+01	  0.100961931	4.375900E+01	  0.100961931	3.719300E+01
406	  0.101162329	-8.552000E+00	  0.101162329	7.754300E+01	  0.101162329	4.397200E+01	  0.101162329	3.728200E+01
407	  0.101362728	-8.565000E+00	  0.101362728	7.720400E+01	  0.101362728	4.419400E+01	  0.101362728	3.735100E+01
408	  0.101563133	-8.567000E+00	  0.101563133	7.689700E+01	  0.101563133	4.437700E+01	  0.101563133	3.744600E+01
409	  0.101763532	-8.574000E+00	  0.101763532	7.649100E+01	  0.101763532	4.462800E+01	  0.101763532	3.755600E+01
410	  0.101963930	-8.580000E+00	  0.101963930	7.609000E+01	  0.101963930	4.487800E+01	  0.101963930	3.766400E+01
411	  0.102164336	-8.574000E+00	  0.102164336	7.572000E+01	  0.102164336	4.508500E+01	  0.102164336	3.781000E+01
412	  0.102364734	-8.583000E+00	  0.102364734	7.534800E+01	  0.102364734	4.532600E+01	  0.102364734	3.789800E+01
413	  0.102565132	-8.580000E+00	  0.102565132	7.494300E+01	  0.102565132	4.556300E+01	  0.102565132	3.804400E+01
414	  0.102765530	-8.586000E+00	  0.102765530	7.452600E+01	  0.102765530	4.582900E+01	  0.102765530	3.815500E+01
415	  0.102965929	-8.577000E+00	  0.102965929	7.406500E+01	  0.102965929	4.609300E+01	  0.102965929	3.834200E+01
416	  0.103166327	-8.585000E+00	  0.103166327	7.371900E+01	  0.103166327	4.632400E+01	  0.103166327	3.842000E+01
417	  0.103366733	-8.572000E+00	  0.103366733	7.325400E+01	  0.103366733	4.658900E+01	  0.103366733	3.861800E+01
418	  0.103567131	-8.569000E+00	  0.103567131	7.286000E+01	  0.103567131	4.683000E+01	  0.103567131	3.875700E+01
419	  0.103767529	-8.563000E+00	  0.103767529	7.239100E+01	  0.103767529	4.711700E+01	  0.103767529	3.892900E+01
420	  0.103967935	-8.549000E+00	  0.103967935	7.204900E+01	  0.103967935	4.730700E+01	  0.103967935	3.909700E+01
421	  0.104168333	-8.546000E+00	  0.104168333	7.160400E+01	  0.104168333	4.759000E+01	  0.104168333	3.924800E+01
422	  0.104368731	-8.544000E+00	  0.104368731	7.113800E+01	  0.104368731	4.789100E+01	  0.104368731	3.940000E+01
423	  0.104569137	-8.537000E+00	  0.104569137	7.069400E+01	  0.104569137	4.817200E+01	  0.104569137	3.956500E+01
424	  0.104769535	-8.531000E+00	  0.104769535	7.026600E+01	  0.104769535	4.844500E+01	  0.104769535	3.972400E+01
425	  0.104969934	-8.530000E+00	  0.104969934	6.986100E+01	  0.104969934	4.871600E+01	  0.104969934	3.985000E+01
426	  0.105170339	-8.516000E+00	  0.105170339	6.934900E+01	  0.105170339	4.903800E+01	  0.105170339	4.006500E+01
427	  0.105370738	-8.505000E+00	  0.105370738	6.891100E+01	  0.105370738	4.931900E+01	  0.105370738	4.024300E+01
428	  0.105571143	-8.505000E+00	  0.105571143	6.844900E+01	  0.105571143	4.964000E+01	  0.105571143	4.037900E+01
429	  0.105771542	-8.493000E+00	  0.105771542	6.796800E+01	  0.105771542	4.995600E+01	  0.105771542	4.057400E+01
430	  0.105971940	-8.487000E+00	  0.105971940	6.749700E+01	  0.105971940	5.027800E+01	  0.105971940	4.073800E+01
431	  0.106172346	-8.486000E+00	  0.106172346	6.708600E+01	  0.106172346	5.057300E+01	  0.106172346	4.085700E+01
432	  0.106372744	-8.474000E+00	  0.106372744	6.655900E+01	  0.106372744	5.093300E+01	  0.106372744	4.106300E+01
433	  0.106573142	-8.472000E+00	  0.106573142	6.611200E+01	  0.106573142	5.125700E+01	  0.106573142	4.119600E+01
434	  0.106773548	-8.462000E+00	  0.106773548	6.560500E+01	  0.106773548	5.161500E+01	  0.106773548	4.138300E+01
435	  0.106973946	-8.464000E+00	  0.106973946	6.507400E+01	  0.106973946	5.201800E+01	  0.106973946	4.151300E+01
436	  0.107174344	-8.445000E+00	  0.107174344	6.459100E+01	  0.107174344	5.235100E+01	  0.107174344	4.173500E+01
437	  0.107374750	-8.435000E+00	  0.107374750	6.411100E+01	  0.107374750	5.270100E+01	  0.107374750	4.191200E+01
438	  0.107575148	-8.431000E+00	  0.107575148	6.361000E+01	  0.107575148	5.308200E+01	  0.107575148	4.206100E+01
439	  0.107775547	-8.428000E+00	  0.107775547	6.312200E+01	  0.107775547	5.346000E+01	  0.107775547	4.219800E+01
440	  0.107975952	-8.424000E+00	  0.107975952	6.261400E+01	  0.107975952	5.385500E+01	  0.107975952	4.234500E+01
441	  0.108176351	-8.410000E+00	  0.108176351	6.197600E+01	  0.108176351	5.434500E+01	  0.108176351	4.257300E+01
442	  0.108376749	-8.394000E+00	  0.108376749	6.148100E+01	  0.108376749	5.472300E+01	  0.108376749	4.277300E+01
443	  0.108577155	-8.400000E+00	  0.108577155	6.093500E+01	  0.108577155	5.517900E+01	  0.108577155	4.286800E+01
444	  0.108777553	-8.385000E+00	  0.108777553	6.041400E+01	  0.108777553	5.559100E+01	  0.108777553	4.306400E+01
445	  0.108977959	-8.364000E+00	  0.108977959	5.982800E+01	  0.108977959	5.605400E+01	  0.108977959	4.330800E+01
446	  0.109178357	-8.357000E+00	  0.109178357	5.934900E+01	  0.109178357	5.645100E+01	  0.109178357	4.345300E+01
447	  0.109378755	-8.344000E+00	  0.109378755	5.874300E+01	  0.109378755	5.695700E+01	  0.109378755	4.364800E+01
448	  0.109579161	-8.336000E+00	  0.109579161	5.817400E+01	  0.109579161	5.744200E+01	  0.109579161	4.381200E+01
449	  0.109779559	-8.321000E+00	  0.109779559	5.767000E+01	  0.109779559	5.786900E+01	  0.109779559	4.399400E+01
450	  0.109979957	-8.312000E+00	  0.109979957	5.713300E+01	  0.109979957	5.833800E+01	  0.109979957	4.414600E+01
451	  0.110180363	-8.301000E+00	  0.110180363	5.652500E+01	  0.110180363	5.887600E+01	  0.110180363	4.431800E+01
452	  0.110380761	-8.294000E+00	  0.110380761	5.595900E+01	  0.110380761	5.938500E+01	  0.110380761	4.446000E+01
453	  0.110581160	-8.285000E+00	  0.110581160	5.537400E+01	  0.110581160	5.991900E+01	  0.110581160	4.460800E+01
454	  0.110781565	-8.269000E+00	  0.110781565	5.476800E+01	  0.110781565	6.047200E+01	  0.110781565	4.479800E+01
455	  0.110981964	-8.263000E+00	  0.110981964	5.419600E+01	  0.110981964	6.101000E+01	  0.110981964	4.492300E+01
456	  0.111182362	-8.247000E+00	  0.111182362	5.355000E+01	  0.111182362	6.161900E+01	  0.111182362	4.511200E+01
457	  0.111382768	-8.235000E+00	  0.111382768	5.291800E+01	  0.111382768	6.222600E+01	  0.111382768	4.526200E+01
458	  0.111583166	-8.234000E+00	  0.111583166	5.231400E+01	  0.111583166	6.282200E+01	  0.111583166	4.533900E+01
459	  0.111783572	-8.224000E+00	  0.111783572	5.165300E+01	  0.111783572	6.347700E+01	  0.111783572	4.547400E+01
460	  0.111983970	-8.210000E+00	  0.111983970	5.099700E+01	  0.111983970	6.413500E+01	  0.111983970	4.562000E+01
461	  0.112184368	-8.206000E+00	  0.112184368	5.034100E+01	  0.112184368	6.480600E+01	  0.112184368	4.570000E+01
462	  0.112384774	-8.206000E+00	  0.112384774	4.964700E+01	  0.112384774	6.552900E+01	  0.112384774	4.573800E+01
463	  0.112585172	-8.194000E+00	  0.112585172	4.895300E+01	  0.112585172	6.625600E+01	  0.112585172	4.585400E+01
464	  0.112785570	-8.188000E+00	  0.112785570	4.826300E+01	  0.112785570	6.699100E+01	  0.112785570	4.591400E+01
465	  0.112985976	-8.182000E+00	  0.112985976	4.754600E+01	  0.112985976	6.776600E+01	  0.112985976	4.596900E+01
466	  0.113186374	-8.176000E+00	  0.113186374	4.678200E+01	  0.113186374	6.860300E+01	  0.113186374	4.600700E+01
467	  0.113386773	-8.172000E+00	  0.113386773	4.603300E+01	  0.113386773	6.943300E+01	  0.113386773	4.601400E+01
468	  0.113587178	-8.166000E+00	  0.113587178	4.526200E+01	  0.113587178	7.030100E+01	  0.113587178	4.602300E+01
469	  0.113787577	-8.165000E+00	  0.113787577	4.454700E+01	  0.113787577	7.111300E+01	  0.113787577	4.598700E+01
470	  0.113987975	-8.157000E+00	  0.113987975	4.378800E+01	  0.113987975	7.199000E+01	  0.113987975	4.598200E+01
471	  0.114188381	-8.155000E+00	  0.114188381	4.298800E+01	  0.114188381	7.292100E+01	  0.114188381	4.590600E+01
472	  0.114388779	-8.160000E+00	  0.114388779	4.217000E+01	  0.114388779	7.387700E+01	  0.114388779	4.575700E+01
473	  0.114589177	-8.153000E+00	  0.114589177	4.136100E+01	  0.114589177	7.484400E+01	  0.114589177	4.567600E+01
474	  0.114789583	-8.154000E+00	  0.114789583	4.055100E+01	  0.114789583	7.581400E+01	  0.114789583	4.551600E+01
475	  0.114989981	-8.159000E+00	  0.114989981	3.977600E+01	  0.114989981	7.674400E+01	  0.114989981	4.530500E+01
476	  0.115190387	-8.161000E+00	  0.115190387	3.892500E+01	  0.115190387	7.777700E+01	  0.115190387	4.507700E+01
477	  0.115390785	-8.169000E+00	  0.115390785	3.807900E+01	  0.115390785	7.880100E+01	  0.115390785	4.477100E+01
478	  0.115591183	-8.181000E+00	  0.115591183	3.723300E+01	  0.115591183	7.982200E+01	  0.115591183	4.441100E+01
479	  0.115791589	-8.193000E+00	  0.115791589	3.639400E+01	  0.115791589	8.083500E+01	  0.115791589	4.402200E+01
480	  0.115991987	-8.204000E+00	  0.115991987	3.554900E+01	  0.115991987	8.185800E+01	  0.115991987	4.360800E+01
481	  0.116192386	-8.218000E+00	  0.116192386	3.464400E+01	  0.116192386	8.294800E+01	  0.116192386	4.311300E+01
482	  0.116392791	-8.238000E+00	  0.116392791	3.374200E+01	  0.116392791	8.401200E+01	  0.116392791	4.253100E+01
483	  0.116593190	-8.260000E+00	  0.116593190	3.281000E+01	  0.116593190	8.510100E+01	  0.116593190	4.188400E+01
484	  0.116793588	-8.278000E+00	  0.116793588	3.186400E+01	  0.116793588	8.621000E+01	  0.116793588	4.122000E+01
485	  0.116993994	-8.305000E+00	  0.116993994	3.092900E+01	  0.116993994	8.726200E+01	  0.116993994	4.045200E+01
486	  0.117194392	-8.331000E+00	  0.117194392	2.995600E+01	  0.117194392	8.834800E+01	  0.117194392	3.962800E+01
487	  0.117394790	-8.356000E+00	  0.117394790	2.899500E+01	  0.117394790	8.940600E+01	  0.117394790	3.878100E+01
488	  0.117595196	-8.391000E+00	  0.117595196	2.802500E+01	  0.117595196	9.040900E+01	  0.117595196	3.781000E+01
489	  0.117795594	-8.424000E+00	  0.117795594	2.701000E+01	  0.117795594	9.144100E+01	  0.117795594	3.677100E+01
490	  0.117995992	-8.456000E+00	  0.117995992	2.597200E+01	  0.117995992	9.247800E+01	  0.117995992	3.568600E+01
491	  0.118196398	-8.495000E+00	  0.118196398	2.489700E+01	  0.118196398	9.348100E+01	  0.118196398	3.447100E+01
492	  0.118396796	-8.535000E+00	  0.118396796	2.384100E+01	  0.118396796	9.441300E+01	  0.118396796	3.322100E+01
493	  0.118597202	-8.577000E+00	  0.118597202	2.274000E+01	  0.118597202	9.533700E+01	  0.118597202	3.187700E+01
494	  0.118797600	-8.618000E+00	  0.118797600	2.167600E+01	  0.118797600	9.618300E+01	  0.118797600	3.054200E+01
495	  0.118997999	-8.669000E+00	  0.118997999	2.050500E+01	  0.118997999	9.700500E+01	  0.118997999	2.898500E+01
496	  0.119198404	-8.721000E+00	  0.119198404	1.936500E+01	  0.119198404	9.773100E+01	  0.119198404	2.742800E+01
497	  0.119398803	-8.776000E+00	  0.119398803	1.823800E+01	  0.119398803	9.835400E+01	  0.119398803	2.583800E+01
498	  0.119599201	-8.823000E+00	  0.119599201	1.705000E+01	  0.119599201	9.901600E+01	  0.119599201	2.419800E+01
499	  0.119799607	-8.890000E+00	  0.119799607	1.596200E+01	  0.119799607	9.937400E+01	  0.119799607	2.255100E+01
500	  0.120000005	-8.948000E+00	  0.120000005	1.472700E+01	  0.120000005	9.983600E+01	  0.120000005	2.076200E+01
