! Anritsu VNA Master:             	Model: MS2036C/10/77
! SN:             	1601066
! /card0/usr/18may27.balun/252b.m5.txt
! Existing Calibration Information:
! TYPE:             	Current Settings	Active Cal Settings
! TIME:             	05/27/2018 01:07:48 PM	05/27/2018 12:49:51 PM
! INTERNAL TEMP:    	52.0 C	52.5 C
! # POINTS:         	500	500
! START FREQ:       	20.000 MHz	20.000 MHz
! STOP FREQ:        	120.000 MHz	120.000 MHz
! SOURCE POWER:     	High	High
! IFBW:             	50 Hz	50 Hz
! AVG FACTOR:       	  1 	  1 
! REF PLANE 1:      	0 mm	0 mm
! REF PLANE 2:      	0 mm	0 mm
! CAL TYPE:         	Full S11	Full S11
! CAL METHOD:       	SOLT	SOLT
! CAL LINE TYPE:    	Coax	Coax
! DUT PORT 1:       	K-Conn(M)	K-Conn(M)
! DUT PORT 2:       	K-Conn(M)	K-Conn(M)
! CAL STATUS:       	OK: Accuracy High	--
! PROP-V:       	0.700
! CABLE LOSS:       	0.000 dB/m
! REF IMPEDANCE:       	50.0
! Trace Specific Parameters:	TR1	TR2	TR3	TR4
! TRACE.#.Y (GRAPH TYPE)	LOG MAG	PHASE	REAL IMPEDANCE	IMAGINARY IMPEDANCE
! TRACE.#.X 	FREQ.GHZ	FREQ.GHZ	FREQ.GHZ	FREQ.GHZ
! S-PARAMETER	S11	S11	S11	S11
! SMOOTH/APERTURE %	0	0	0	0
! WINDOW	NSL	NSL	NSL	NSL
! GATING	OFF	OFF	OFF	OFF
! FGTD	OFF	OFF	OFF	OFF
Marker Information per Trace:	TR1	TR2	TR3	TR4
!MK1	--	--	--	"MK1 TR4:  70.100 200 MHz,Z:(16.343 ohm, -1.036 ohm)"
!MK2	--	--	--	--
!MK3	--	--	--	--
!MK4	--	--	--	--
!MK5	--	--	--	--
!MK6	--	--	--	--
!MK7	--	--	--	--
!MK8	--	--	--	--
PNT	TR1.FREQ.GHZ	TR1.LOG MAG.dB	TR2.FREQ.GHZ	TR2.PHASE.deg	TR3.FREQ.GHZ	TR3.REAL IMPEDANCE.ohm	TR4.FREQ.GHZ	TR4.IMAGINARY IMPEDANCE.ohm
1	  0.020000000	-6.260000E-01	  0.020000000	-1.256340E+02	  0.020000000	2.277000E+00	  0.020000000	-2.563500E+01
2	  0.020200402	-6.250000E-01	  0.020200402	-1.271170E+02	  0.020200402	2.244000E+00	  0.020200402	-2.482400E+01
3	  0.020400802	-6.230000E-01	  0.020400802	-1.285660E+02	  0.020400802	2.210000E+00	  0.020400802	-2.404300E+01
4	  0.020601204	-6.250000E-01	  0.020601204	-1.299900E+02	  0.020601204	2.191000E+00	  0.020601204	-2.328300E+01
5	  0.020801604	-6.280000E-01	  0.020801604	-1.314470E+02	  0.020801604	2.175000E+00	  0.020801604	-2.251500E+01
6	  0.021002004	-6.340000E-01	  0.021002004	-1.329390E+02	  0.021002004	2.171000E+00	  0.021002004	-2.173700E+01
7	  0.021202406	-6.420000E-01	  0.021202406	-1.344420E+02	  0.021202406	2.174000E+00	  0.021202406	-2.096200E+01
8	  0.021402806	-6.490000E-01	  0.021402806	-1.359410E+02	  0.021402806	2.173000E+00	  0.021402806	-2.019700E+01
9	  0.021603208	-6.550000E-01	  0.021603208	-1.374390E+02	  0.021603208	2.171000E+00	  0.021603208	-1.944200E+01
10	  0.021803608	-6.600000E-01	  0.021803608	-1.389340E+02	  0.021803608	2.166000E+00	  0.021803608	-1.869500E+01
11	  0.022004008	-6.680000E-01	  0.022004008	-1.404440E+02	  0.022004008	2.171000E+00	  0.022004008	-1.794900E+01
12	  0.022204408	-6.740000E-01	  0.022204408	-1.419890E+02	  0.022204408	2.171000E+00	  0.022204408	-1.719200E+01
13	  0.022404809	-6.770000E-01	  0.022404809	-1.435420E+02	  0.022404809	2.158000E+00	  0.022404809	-1.643900E+01
14	  0.022605211	-6.780000E-01	  0.022605211	-1.450770E+02	  0.022605211	2.145000E+00	  0.022605211	-1.570100E+01
15	  0.022805611	-6.810000E-01	  0.022805611	-1.466150E+02	  0.022805611	2.136000E+00	  0.022805611	-1.496800E+01
16	  0.023006011	-6.860000E-01	  0.023006011	-1.481540E+02	  0.023006011	2.134000E+00	  0.023006011	-1.424000E+01
17	  0.023206413	-6.930000E-01	  0.023206413	-1.497050E+02	  0.023206413	2.140000E+00	  0.023206413	-1.351100E+01
18	  0.023406813	-7.020000E-01	  0.023406813	-1.512830E+02	  0.023406813	2.152000E+00	  0.023406813	-1.277600E+01
19	  0.023607215	-7.090000E-01	  0.023607215	-1.528900E+02	  0.023607215	2.157000E+00	  0.023607215	-1.203300E+01
20	  0.023807615	-7.180000E-01	  0.023807615	-1.544870E+02	  0.023807615	2.171000E+00	  0.023807615	-1.129900E+01
21	  0.024008015	-7.250000E-01	  0.024008015	-1.560700E+02	  0.024008015	2.180000E+00	  0.024008015	-1.057600E+01
22	  0.024208417	-7.350000E-01	  0.024208417	-1.576830E+02	  0.024208417	2.197000E+00	  0.024208417	-9.844000E+00
23	  0.024408817	-7.470000E-01	  0.024408817	-1.593010E+02	  0.024408817	2.221000E+00	  0.024408817	-9.113000E+00
24	  0.024609219	-7.570000E-01	  0.024609219	-1.609570E+02	  0.024609219	2.239000E+00	  0.024609219	-8.369000E+00
25	  0.024809619	-7.620000E-01	  0.024809619	-1.626210E+02	  0.024809619	2.243000E+00	  0.024809619	-7.626000E+00
26	  0.025010020	-7.670000E-01	  0.025010020	-1.642800E+02	  0.025010020	2.249000E+00	  0.025010020	-6.888000E+00
27	  0.025210422	-7.750000E-01	  0.025210422	-1.659360E+02	  0.025210422	2.264000E+00	  0.025210422	-6.154000E+00
28	  0.025410822	-7.820000E-01	  0.025410822	-1.676040E+02	  0.025410822	2.276000E+00	  0.025410822	-5.418000E+00
29	  0.025611224	-7.910000E-01	  0.025611224	-1.692620E+02	  0.025611224	2.297000E+00	  0.025611224	-4.688000E+00
30	  0.025811624	-8.000000E-01	  0.025811624	-1.709430E+02	  0.025811624	2.317000E+00	  0.025811624	-3.951000E+00
31	  0.026012026	-8.100000E-01	  0.026012026	-1.726230E+02	  0.026012026	2.340000E+00	  0.026012026	-3.215000E+00
32	  0.026212426	-8.230000E-01	  0.026212426	-1.743330E+02	  0.026212426	2.375000E+00	  0.026212426	-2.469000E+00
33	  0.026412826	-8.400000E-01	  0.026412826	-1.760300E+02	  0.026412826	2.420000E+00	  0.026412826	-1.728000E+00
34	  0.026613226	-8.560000E-01	  0.026613226	-1.777550E+02	  0.026613226	2.463000E+00	  0.026613226	-9.770000E-01
35	  0.026813626	-8.710000E-01	  0.026813626	-1.794710E+02	  0.026813626	2.506000E+00	  0.026813626	-2.300000E-01
36	  0.027014028	-8.870000E-01	  0.027014028	1.788050E+02	  0.027014028	2.552000E+00	  0.027014028	5.190000E-01
37	  0.027214428	-9.020000E-01	  0.027214428	1.770780E+02	  0.027214428	2.597000E+00	  0.027214428	1.271000E+00
38	  0.027414829	-9.190000E-01	  0.027414829	1.753390E+02	  0.027414829	2.647000E+00	  0.027414829	2.028000E+00
39	  0.027615231	-9.360000E-01	  0.027615231	1.735920E+02	  0.027615231	2.702000E+00	  0.027615231	2.790000E+00
40	  0.027815631	-9.580000E-01	  0.027815631	1.718280E+02	  0.027815631	2.770000E+00	  0.027815631	3.560000E+00
41	  0.028016033	-9.790000E-01	  0.028016033	1.700170E+02	  0.028016033	2.836000E+00	  0.028016033	4.352000E+00
42	  0.028216433	-9.990000E-01	  0.028216433	1.682090E+02	  0.028216433	2.905000E+00	  0.028216433	5.145000E+00
43	  0.028416833	-1.023000E+00	  0.028416833	1.663930E+02	  0.028416833	2.985000E+00	  0.028416833	5.944000E+00
44	  0.028617235	-1.047000E+00	  0.028617235	1.645780E+02	  0.028617235	3.066000E+00	  0.028617235	6.744000E+00
45	  0.028817635	-1.073000E+00	  0.028817635	1.627310E+02	  0.028817635	3.157000E+00	  0.028817635	7.562000E+00
46	  0.029018037	-1.101000E+00	  0.029018037	1.608690E+02	  0.029018037	3.255000E+00	  0.029018037	8.390000E+00
47	  0.029218437	-1.125000E+00	  0.029218437	1.589800E+02	  0.029218437	3.345000E+00	  0.029218437	9.235000E+00
48	  0.029418837	-1.150000E+00	  0.029418837	1.570930E+02	  0.029418837	3.440000E+00	  0.029418837	1.008400E+01
49	  0.029619239	-1.174000E+00	  0.029619239	1.552390E+02	  0.029619239	3.536000E+00	  0.029619239	1.092200E+01
50	  0.029819639	-1.198000E+00	  0.029819639	1.533890E+02	  0.029819639	3.636000E+00	  0.029819639	1.176500E+01
51	  0.030020041	-1.224000E+00	  0.030020041	1.515330E+02	  0.030020041	3.743000E+00	  0.030020041	1.261500E+01
52	  0.030220442	-1.255000E+00	  0.030220442	1.496830E+02	  0.030220442	3.870000E+00	  0.030220442	1.347000E+01
53	  0.030420844	-1.290000E+00	  0.030420844	1.478170E+02	  0.030420844	4.015000E+00	  0.030420844	1.433700E+01
54	  0.030621244	-1.330000E+00	  0.030621244	1.459130E+02	  0.030621244	4.180000E+00	  0.030621244	1.522900E+01
55	  0.030821644	-1.366000E+00	  0.030821644	1.439810E+02	  0.030821644	4.338000E+00	  0.030821644	1.614400E+01
56	  0.031022044	-1.400000E+00	  0.031022044	1.420250E+02	  0.031022044	4.494000E+00	  0.031022044	1.707900E+01
57	  0.031222444	-1.425000E+00	  0.031222444	1.400520E+02	  0.031222444	4.630000E+00	  0.031222444	1.803400E+01
58	  0.031422846	-1.453000E+00	  0.031422846	1.380980E+02	  0.031422846	4.780000E+00	  0.031422846	1.899100E+01
59	  0.031623244	-1.478000E+00	  0.031623244	1.361650E+02	  0.031623244	4.926000E+00	  0.031623244	1.994900E+01
60	  0.031823646	-1.498000E+00	  0.031823646	1.342160E+02	  0.031823646	5.063000E+00	  0.031823646	2.092800E+01
61	  0.032024048	-1.523000E+00	  0.032024048	1.323100E+02	  0.032024048	5.220000E+00	  0.032024048	2.189700E+01
62	  0.032224450	-1.549000E+00	  0.032224450	1.304090E+02	  0.032224450	5.387000E+00	  0.032224450	2.287600E+01
63	  0.032424849	-1.575000E+00	  0.032424849	1.284970E+02	  0.032424849	5.565000E+00	  0.032424849	2.387500E+01
64	  0.032625251	-1.612000E+00	  0.032625251	1.265740E+02	  0.032625251	5.786000E+00	  0.032625251	2.489200E+01
65	  0.032825653	-1.651000E+00	  0.032825653	1.246340E+02	  0.032825653	6.026000E+00	  0.032825653	2.593200E+01
66	  0.033026051	-1.695000E+00	  0.033026051	1.226780E+02	  0.033026051	6.301000E+00	  0.033026051	2.699400E+01
67	  0.033226453	-1.740000E+00	  0.033226453	1.206970E+02	  0.033226453	6.589000E+00	  0.033226453	2.808800E+01
68	  0.033426855	-1.785000E+00	  0.033426855	1.186670E+02	  0.033426855	6.898000E+00	  0.033426855	2.922900E+01
69	  0.033627257	-1.830000E+00	  0.033627257	1.166240E+02	  0.033627257	7.217000E+00	  0.033627257	3.039800E+01
70	  0.033827655	-1.874000E+00	  0.033827655	1.145470E+02	  0.033827655	7.558000E+00	  0.033827655	3.160900E+01
71	  0.034028057	-1.920000E+00	  0.034028057	1.124640E+02	  0.034028057	7.922000E+00	  0.034028057	3.284800E+01
72	  0.034228459	-1.968000E+00	  0.034228459	1.103320E+02	  0.034228459	8.322000E+00	  0.034228459	3.414100E+01
73	  0.034428857	-2.011000E+00	  0.034428857	1.082340E+02	  0.034428857	8.720000E+00	  0.034428857	3.544300E+01
74	  0.034629259	-2.052000E+00	  0.034629259	1.061590E+02	  0.034629259	9.128000E+00	  0.034629259	3.676100E+01
75	  0.034829661	-2.089000E+00	  0.034829661	1.040900E+02	  0.034829661	9.543000E+00	  0.034829661	3.810900E+01
76	  0.035030060	-2.129000E+00	  0.035030060	1.020400E+02	  0.035030060	9.993000E+00	  0.035030060	3.947300E+01
77	  0.035230462	-2.172000E+00	  0.035230462	1.000250E+02	  0.035230462	1.048000E+01	  0.035230462	4.084200E+01
78	  0.035430863	-2.225000E+00	  0.035430863	9.799500E+01	  0.035430863	1.105000E+01	  0.035430863	4.224300E+01
79	  0.035631265	-2.285000E+00	  0.035631265	9.598600E+01	  0.035631265	1.168200E+01	  0.035631265	4.365500E+01
80	  0.035831664	-2.347000E+00	  0.035831664	9.392400E+01	  0.035831664	1.237400E+01	  0.035831664	4.513500E+01
81	  0.036032066	-2.405000E+00	  0.036032066	9.182100E+01	  0.036032066	1.310500E+01	  0.036032066	4.668700E+01
82	  0.036232468	-2.465000E+00	  0.036232468	8.963700E+01	  0.036232468	1.390600E+01	  0.036232468	4.834400E+01
83	  0.036432866	-2.523000E+00	  0.036432866	8.747300E+01	  0.036432866	1.475600E+01	  0.036432866	5.003000E+01
84	  0.036633268	-2.576000E+00	  0.036633268	8.530100E+01	  0.036633268	1.563400E+01	  0.036633268	5.177900E+01
85	  0.036833670	-2.624000E+00	  0.036833670	8.314400E+01	  0.036833670	1.655400E+01	  0.036833670	5.357200E+01
86	  0.037034072	-2.675000E+00	  0.037034072	8.099000E+01	  0.037034072	1.755500E+01	  0.037034072	5.541000E+01
87	  0.037234470	-2.720000E+00	  0.037234470	7.885500E+01	  0.037234470	1.859400E+01	  0.037234470	5.729700E+01
88	  0.037434869	-2.766000E+00	  0.037434869	7.675200E+01	  0.037434869	1.970500E+01	  0.037434869	5.920700E+01
89	  0.037635271	-2.820000E+00	  0.037635271	7.468300E+01	  0.037635271	2.094000E+01	  0.037635271	6.111800E+01
90	  0.037835669	-2.872000E+00	  0.037835669	7.258800E+01	  0.037835669	2.227700E+01	  0.037835669	6.310900E+01
91	  0.038036071	-2.931000E+00	  0.038036071	7.055300E+01	  0.038036071	2.373400E+01	  0.038036071	6.506900E+01
92	  0.038236473	-2.988000E+00	  0.038236473	6.849700E+01	  0.038236473	2.531000E+01	  0.038236473	6.710500E+01
93	  0.038436871	-3.048000E+00	  0.038436871	6.640200E+01	  0.038436871	2.705700E+01	  0.038436871	6.922200E+01
94	  0.038637273	-3.111000E+00	  0.038637273	6.428400E+01	  0.038637273	2.900000E+01	  0.038637273	7.139600E+01
95	  0.038837675	-3.179000E+00	  0.038837675	6.212500E+01	  0.038837675	3.117700E+01	  0.038837675	7.363900E+01
96	  0.039038073	-3.242000E+00	  0.039038073	5.993100E+01	  0.039038073	3.354400E+01	  0.039038073	7.598600E+01
97	  0.039238475	-3.302000E+00	  0.039238475	5.769900E+01	  0.039238475	3.613900E+01	  0.039238475	7.843900E+01
98	  0.039438877	-3.356000E+00	  0.039438877	5.551200E+01	  0.039438877	3.888000E+01	  0.039438877	8.091100E+01
99	  0.039639279	-3.408000E+00	  0.039639279	5.336500E+01	  0.039639279	4.181800E+01	  0.039639279	8.337000E+01
100	  0.039839678	-3.451000E+00	  0.039839678	5.123600E+01	  0.039839678	4.493100E+01	  0.039839678	8.589700E+01
101	  0.040040080	-3.500000E+00	  0.040040080	4.917500E+01	  0.040040080	4.829800E+01	  0.040040080	8.828600E+01
102	  0.040240481	-3.558000E+00	  0.040240481	4.711500E+01	  0.040240481	5.205900E+01	  0.040240481	9.055500E+01
103	  0.040440880	-3.618000E+00	  0.040440880	4.503500E+01	  0.040440880	5.621100E+01	  0.040440880	9.276200E+01
104	  0.040641282	-3.681000E+00	  0.040641282	4.293200E+01	  0.040641282	6.081000E+01	  0.040641282	9.486200E+01
105	  0.040841684	-3.744000E+00	  0.040841684	4.082500E+01	  0.040841684	6.583100E+01	  0.040841684	9.680600E+01
106	  0.041042086	-3.809000E+00	  0.041042086	3.872500E+01	  0.041042086	7.128900E+01	  0.041042086	9.848500E+01
107	  0.041242484	-3.871000E+00	  0.041242484	3.659800E+01	  0.041242484	7.724500E+01	  0.041242484	9.998000E+01
108	  0.041442886	-3.932000E+00	  0.041442886	3.447900E+01	  0.041442886	8.365800E+01	  0.041442886	1.011220E+02
109	  0.041643288	-3.991000E+00	  0.041643288	3.233300E+01	  0.041643288	9.063800E+01	  0.041643288	1.018780E+02
110	  0.041843686	-4.043000E+00	  0.041843686	3.018900E+01	  0.041843686	9.808800E+01	  0.041843686	1.022270E+02
111	  0.042044088	-4.098000E+00	  0.042044088	2.807700E+01	  0.042044088	1.059230E+02	  0.042044088	1.018240E+02
112	  0.042244490	-4.150000E+00	  0.042244490	2.599200E+01	  0.042244490	1.140750E+02	  0.042244490	1.007380E+02
113	  0.042444889	-4.202000E+00	  0.042444889	2.390200E+01	  0.042444889	1.225980E+02	  0.042444889	9.877300E+01
114	  0.042645290	-4.255000E+00	  0.042645290	2.183200E+01	  0.042645290	1.312730E+02	  0.042645290	9.577200E+01
115	  0.042845692	-4.306000E+00	  0.042845692	1.978700E+01	  0.042845692	1.399440E+02	  0.042845692	9.175500E+01
116	  0.043046094	-4.355000E+00	  0.043046094	1.771600E+01	  0.043046094	1.486670E+02	  0.043046094	8.655000E+01
117	  0.043246493	-4.400000E+00	  0.043246493	1.567500E+01	  0.043246493	1.570410E+02	  0.043246493	8.027400E+01
118	  0.043446895	-4.451000E+00	  0.043446895	1.365100E+01	  0.043446895	1.647140E+02	  0.043446895	7.263600E+01
119	  0.043647297	-4.501000E+00	  0.043647297	1.162400E+01	  0.043647297	1.716250E+02	  0.043647297	6.383300E+01
120	  0.043847695	-4.552000E+00	  0.043847695	9.624000E+00	  0.043847695	1.773600E+02	  0.043847695	5.405900E+01
121	  0.044048097	-4.601000E+00	  0.044048097	7.624000E+00	  0.044048097	1.819660E+02	  0.044048097	4.351300E+01
122	  0.044248499	-4.645000E+00	  0.044248499	5.621000E+00	  0.044248499	1.853320E+02	  0.044248499	3.238000E+01
123	  0.044448901	-4.689000E+00	  0.044448901	3.642000E+00	  0.044448901	1.871670E+02	  0.044448901	2.099100E+01
124	  0.044649299	-4.729000E+00	  0.044649299	1.677000E+00	  0.044649299	1.876440E+02	  0.044649299	9.608000E+00
125	  0.044849701	-4.774000E+00	  0.044849701	-2.480000E-01	  0.044849701	1.864780E+02	  0.044849701	-1.399000E+00
126	  0.045050103	-4.817000E+00	  0.045050103	-2.171000E+00	  0.045050103	1.840700E+02	  0.045050103	-1.195500E+01
127	  0.045250501	-4.863000E+00	  0.045250501	-4.087000E+00	  0.045250501	1.803700E+02	  0.045250501	-2.180300E+01
128	  0.045450903	-4.906000E+00	  0.045450903	-5.988000E+00	  0.045450903	1.758510E+02	  0.045450903	-3.081000E+01
129	  0.045651305	-4.950000E+00	  0.045651305	-7.924000E+00	  0.045651305	1.704340E+02	  0.045651305	-3.908000E+01
130	  0.045851704	-4.990000E+00	  0.045851704	-9.839000E+00	  0.045851704	1.645440E+02	  0.045851704	-4.634700E+01
131	  0.046052106	-5.033000E+00	  0.046052106	-1.174100E+01	  0.046052106	1.581950E+02	  0.046052106	-5.255800E+01
132	  0.046252504	-5.073000E+00	  0.046252504	-1.364600E+01	  0.046252504	1.516380E+02	  0.046252504	-5.789300E+01
133	  0.046452906	-5.113000E+00	  0.046452906	-1.553900E+01	  0.046452906	1.450160E+02	  0.046452906	-6.232600E+01
134	  0.046653304	-5.154000E+00	  0.046653304	-1.743300E+01	  0.046653304	1.383680E+02	  0.046653304	-6.591400E+01
135	  0.046853706	-5.193000E+00	  0.046853706	-1.933000E+01	  0.046853706	1.318400E+02	  0.046853706	-6.881700E+01
136	  0.047054108	-5.233000E+00	  0.047054108	-2.122900E+01	  0.047054108	1.254460E+02	  0.047054108	-7.100800E+01
137	  0.047254506	-5.268000E+00	  0.047254506	-2.314800E+01	  0.047254506	1.192610E+02	  0.047254506	-7.274800E+01
138	  0.047454908	-5.300000E+00	  0.047454908	-2.505600E+01	  0.047454908	1.133690E+02	  0.047454908	-7.399800E+01
139	  0.047655310	-5.333000E+00	  0.047655310	-2.694800E+01	  0.047655310	1.077760E+02	  0.047655310	-7.475600E+01
140	  0.047855709	-5.363000E+00	  0.047855709	-2.886700E+01	  0.047855709	1.023970E+02	  0.047855709	-7.518300E+01
141	  0.048056111	-5.390000E+00	  0.048056111	-3.076300E+01	  0.048056111	9.736700E+01	  0.048056111	-7.531600E+01
142	  0.048256513	-5.416000E+00	  0.048256513	-3.263900E+01	  0.048256513	9.265900E+01	  0.048256513	-7.517600E+01
143	  0.048456915	-5.439000E+00	  0.048456915	-3.454700E+01	  0.048456915	8.814100E+01	  0.048456915	-7.483400E+01
144	  0.048657313	-5.457000E+00	  0.048657313	-3.640800E+01	  0.048657313	8.398500E+01	  0.048657313	-7.435300E+01
145	  0.048857715	-5.473000E+00	  0.048857715	-3.825000E+01	  0.048857715	8.010200E+01	  0.048857715	-7.372200E+01
146	  0.049058117	-5.485000E+00	  0.049058117	-4.004500E+01	  0.049058117	7.652700E+01	  0.049058117	-7.301400E+01
147	  0.049258515	-5.501000E+00	  0.049258515	-4.179100E+01	  0.049258515	7.325300E+01	  0.049258515	-7.215500E+01
148	  0.049458917	-5.514000E+00	  0.049458917	-4.353200E+01	  0.049458917	7.016600E+01	  0.049458917	-7.124100E+01
149	  0.049659319	-5.532000E+00	  0.049659319	-4.522000E+01	  0.049659319	6.735900E+01	  0.049659319	-7.022000E+01
150	  0.049859721	-5.549000E+00	  0.049859721	-4.695200E+01	  0.049859721	6.463900E+01	  0.049859721	-6.913100E+01
151	  0.050060119	-5.567000E+00	  0.050060119	-4.864700E+01	  0.050060119	6.213300E+01	  0.050060119	-6.800700E+01
152	  0.050260521	-5.589000E+00	  0.050260521	-5.033000E+01	  0.050260521	5.980300E+01	  0.050260521	-6.682400E+01
153	  0.050460923	-5.605000E+00	  0.050460923	-5.202100E+01	  0.050460923	5.757300E+01	  0.050460923	-6.566000E+01
154	  0.050661322	-5.622000E+00	  0.050661322	-5.371600E+01	  0.050661322	5.546300E+01	  0.050661322	-6.447500E+01
155	  0.050861724	-5.635000E+00	  0.050861724	-5.541500E+01	  0.050861724	5.345400E+01	  0.050861724	-6.329900E+01
156	  0.051062126	-5.646000E+00	  0.051062126	-5.706500E+01	  0.051062126	5.160500E+01	  0.051062126	-6.215400E+01
157	  0.051262524	-5.657000E+00	  0.051262524	-5.866600E+01	  0.051262524	4.990500E+01	  0.051262524	-6.103600E+01
158	  0.051462926	-5.670000E+00	  0.051462926	-6.028600E+01	  0.051462926	4.828300E+01	  0.051462926	-5.988500E+01
159	  0.051663328	-5.684000E+00	  0.051663328	-6.186900E+01	  0.051663328	4.678500E+01	  0.051663328	-5.875700E+01
160	  0.051863730	-5.704000E+00	  0.051863730	-6.345300E+01	  0.051863730	4.538800E+01	  0.051863730	-5.759600E+01
161	  0.052064128	-5.723000E+00	  0.052064128	-6.506100E+01	  0.052064128	4.404300E+01	  0.052064128	-5.642800E+01
162	  0.052264530	-5.743000E+00	  0.052264530	-6.664000E+01	  0.052264530	4.279100E+01	  0.052264530	-5.528700E+01
163	  0.052464932	-5.761000E+00	  0.052464932	-6.826600E+01	  0.052464932	4.155500E+01	  0.052464932	-5.414100E+01
164	  0.052665330	-5.777000E+00	  0.052665330	-6.990200E+01	  0.052665330	4.037200E+01	  0.052665330	-5.300400E+01
165	  0.052865732	-5.792000E+00	  0.052865732	-7.151600E+01	  0.052865732	3.925900E+01	  0.052865732	-5.189900E+01
166	  0.053066134	-5.811000E+00	  0.053066134	-7.313300E+01	  0.053066134	3.821500E+01	  0.053066134	-5.078700E+01
167	  0.053266536	-5.824000E+00	  0.053266536	-7.475200E+01	  0.053266536	3.719900E+01	  0.053266536	-4.971200E+01
168	  0.053466935	-5.830000E+00	  0.053466935	-7.639600E+01	  0.053466935	3.619000E+01	  0.053466935	-4.865900E+01
169	  0.053667337	-5.836000E+00	  0.053667337	-7.798700E+01	  0.053667337	3.525700E+01	  0.053667337	-4.765300E+01
170	  0.053867739	-5.837000E+00	  0.053867739	-7.957400E+01	  0.053867739	3.435200E+01	  0.053867739	-4.667600E+01
171	  0.054068137	-5.845000E+00	  0.054068137	-8.110300E+01	  0.054068137	3.354800E+01	  0.054068137	-4.571700E+01
172	  0.054268539	-5.845000E+00	  0.054268539	-8.262800E+01	  0.054268539	3.274700E+01	  0.054268539	-4.480100E+01
173	  0.054468941	-5.849000E+00	  0.054468941	-8.409600E+01	  0.054468941	3.202800E+01	  0.054468941	-4.391100E+01
174	  0.054669339	-5.852000E+00	  0.054669339	-8.555800E+01	  0.054669339	3.133700E+01	  0.054669339	-4.303700E+01
175	  0.054869737	-5.860000E+00	  0.054869737	-8.701900E+01	  0.054869737	3.069300E+01	  0.054869737	-4.215900E+01
176	  0.055070139	-5.867000E+00	  0.055070139	-8.846500E+01	  0.055070139	3.008200E+01	  0.055070139	-4.130000E+01
177	  0.055270538	-5.874000E+00	  0.055270538	-8.994200E+01	  0.055270538	2.947800E+01	  0.055270538	-4.043500E+01
178	  0.055470940	-5.882000E+00	  0.055470940	-9.136900E+01	  0.055470940	2.892900E+01	  0.055470940	-3.960300E+01
179	  0.055671342	-5.882000E+00	  0.055671342	-9.284300E+01	  0.055671342	2.834900E+01	  0.055671342	-3.877700E+01
180	  0.055871744	-5.891000E+00	  0.055871744	-9.425900E+01	  0.055871744	2.785100E+01	  0.055871744	-3.796600E+01
181	  0.056072142	-5.893000E+00	  0.056072142	-9.567900E+01	  0.056072142	2.734200E+01	  0.056072142	-3.718300E+01
182	  0.056272544	-5.890000E+00	  0.056272544	-9.708300E+01	  0.056272544	2.684400E+01	  0.056272544	-3.642500E+01
183	  0.056472946	-5.891000E+00	  0.056472946	-9.848100E+01	  0.056472946	2.638000E+01	  0.056472946	-3.566700E+01
184	  0.056673344	-5.895000E+00	  0.056673344	-9.983500E+01	  0.056673344	2.595800E+01	  0.056673344	-3.493500E+01
185	  0.056873746	-5.896000E+00	  0.056873746	-1.011830E+02	  0.056873746	2.554100E+01	  0.056873746	-3.422000E+01
186	  0.057074148	-5.899000E+00	  0.057074148	-1.025020E+02	  0.057074148	2.515700E+01	  0.057074148	-3.352200E+01
187	  0.057274550	-5.906000E+00	  0.057274550	-1.038350E+02	  0.057274550	2.479400E+01	  0.057274550	-3.281700E+01
188	  0.057474948	-5.912000E+00	  0.057474948	-1.051780E+02	  0.057474948	2.444100E+01	  0.057474948	-3.211500E+01
189	  0.057675350	-5.922000E+00	  0.057675350	-1.065220E+02	  0.057675350	2.411300E+01	  0.057675350	-3.141200E+01
190	  0.057875752	-5.929000E+00	  0.057875752	-1.079100E+02	  0.057875752	2.377400E+01	  0.057875752	-3.070000E+01
191	  0.058076151	-5.936000E+00	  0.058076151	-1.092600E+02	  0.058076151	2.346200E+01	  0.058076151	-3.001300E+01
192	  0.058276553	-5.940000E+00	  0.058276553	-1.106110E+02	  0.058276553	2.314700E+01	  0.058276553	-2.933800E+01
193	  0.058476955	-5.939000E+00	  0.058476955	-1.120010E+02	  0.058476955	2.282100E+01	  0.058476955	-2.865700E+01
194	  0.058677353	-5.937000E+00	  0.058677353	-1.133560E+02	  0.058677353	2.251000E+01	  0.058677353	-2.800100E+01
195	  0.058877755	-5.931000E+00	  0.058877755	-1.146510E+02	  0.058877755	2.221000E+01	  0.058877755	-2.738400E+01
196	  0.059078157	-5.928000E+00	  0.059078157	-1.160060E+02	  0.059078157	2.192000E+01	  0.059078157	-2.673800E+01
197	  0.059278559	-5.924000E+00	  0.059278559	-1.172650E+02	  0.059278559	2.165500E+01	  0.059278559	-2.614500E+01
198	  0.059478957	-5.923000E+00	  0.059478957	-1.185370E+02	  0.059478957	2.140400E+01	  0.059478957	-2.554600E+01
199	  0.059679359	-5.918000E+00	  0.059679359	-1.197880E+02	  0.059679359	2.115400E+01	  0.059679359	-2.496600E+01
200	  0.059879761	-5.914000E+00	  0.059879761	-1.210270E+02	  0.059879761	2.091600E+01	  0.059879761	-2.439400E+01
201	  0.060080159	-5.912000E+00	  0.060080159	-1.222420E+02	  0.060080159	2.069900E+01	  0.060080159	-2.383500E+01
202	  0.060280561	-5.907000E+00	  0.060280561	-1.234720E+02	  0.060280561	2.047400E+01	  0.060280561	-2.327600E+01
203	  0.060480963	-5.906000E+00	  0.060480963	-1.247120E+02	  0.060480963	2.027000E+01	  0.060480963	-2.271100E+01
204	  0.060681365	-5.906000E+00	  0.060681365	-1.259020E+02	  0.060681365	2.008100E+01	  0.060681365	-2.217100E+01
205	  0.060881764	-5.904000E+00	  0.060881764	-1.271190E+02	  0.060881764	1.988800E+01	  0.060881764	-2.162600E+01
206	  0.061082166	-5.901000E+00	  0.061082166	-1.283090E+02	  0.061082166	1.970600E+01	  0.061082166	-2.109500E+01
207	  0.061282568	-5.898000E+00	  0.061282568	-1.294950E+02	  0.061282568	1.952700E+01	  0.061282568	-2.057100E+01
208	  0.061482966	-5.894000E+00	  0.061482966	-1.306750E+02	  0.061482966	1.935300E+01	  0.061482966	-2.005200E+01
209	  0.061683368	-5.896000E+00	  0.061683368	-1.318620E+02	  0.061683368	1.920000E+01	  0.061683368	-1.952900E+01
210	  0.061883770	-5.893000E+00	  0.061883770	-1.330360E+02	  0.061883770	1.904000E+01	  0.061883770	-1.901800E+01
211	  0.062084168	-5.892000E+00	  0.062084168	-1.341690E+02	  0.062084168	1.889700E+01	  0.062084168	-1.852600E+01
212	  0.062284570	-5.891000E+00	  0.062284570	-1.353280E+02	  0.062284570	1.875500E+01	  0.062284570	-1.802500E+01
213	  0.062484972	-5.888000E+00	  0.062484972	-1.364200E+02	  0.062484972	1.861900E+01	  0.062484972	-1.755700E+01
214	  0.062685370	-5.891000E+00	  0.062685370	-1.375410E+02	  0.062685370	1.850100E+01	  0.062685370	-1.707500E+01
215	  0.062885776	-5.891000E+00	  0.062885776	-1.387080E+02	  0.062885776	1.837400E+01	  0.062885776	-1.657700E+01
216	  0.063086174	-5.900000E+00	  0.063086174	-1.398930E+02	  0.063086174	1.827800E+01	  0.063086174	-1.606800E+01
217	  0.063286573	-5.902000E+00	  0.063286573	-1.410740E+02	  0.063286573	1.816300E+01	  0.063286573	-1.556800E+01
218	  0.063486971	-5.902000E+00	  0.063486971	-1.422830E+02	  0.063486971	1.804600E+01	  0.063486971	-1.506000E+01
219	  0.063687377	-5.902000E+00	  0.063687377	-1.434460E+02	  0.063687377	1.793900E+01	  0.063687377	-1.457400E+01
220	  0.063887775	-5.898000E+00	  0.063887775	-1.446330E+02	  0.063887775	1.782300E+01	  0.063887775	-1.408200E+01
221	  0.064088173	-5.894000E+00	  0.064088173	-1.457840E+02	  0.064088173	1.771200E+01	  0.064088173	-1.360700E+01
222	  0.064288579	-5.902000E+00	  0.064288579	-1.469480E+02	  0.064288579	1.763800E+01	  0.064288579	-1.312200E+01
223	  0.064488977	-5.893000E+00	  0.064488977	-1.481120E+02	  0.064488977	1.752100E+01	  0.064488977	-1.264800E+01
224	  0.064689375	-5.893000E+00	  0.064689375	-1.492020E+02	  0.064689375	1.743900E+01	  0.064689375	-1.220100E+01
225	  0.064889781	-5.889000E+00	  0.064889781	-1.503500E+02	  0.064889781	1.734500E+01	  0.064889781	-1.173400E+01
226	  0.065090179	-5.885000E+00	  0.065090179	-1.514640E+02	  0.065090179	1.725500E+01	  0.065090179	-1.128200E+01
227	  0.065290578	-5.883000E+00	  0.065290578	-1.525740E+02	  0.065290578	1.717800E+01	  0.065290578	-1.083200E+01
228	  0.065490983	-5.877000E+00	  0.065490983	-1.536520E+02	  0.065490983	1.709300E+01	  0.065490983	-1.039800E+01
229	  0.065691382	-5.877000E+00	  0.065691382	-1.547430E+02	  0.065691382	1.702600E+01	  0.065691382	-9.958000E+00
230	  0.065891780	-5.875000E+00	  0.065891780	-1.558420E+02	  0.065891780	1.695800E+01	  0.065891780	-9.516000E+00
231	  0.066092186	-5.868000E+00	  0.066092186	-1.568950E+02	  0.066092186	1.688200E+01	  0.066092186	-9.096000E+00
232	  0.066292584	-5.870000E+00	  0.066292584	-1.579770E+02	  0.066292584	1.683000E+01	  0.066292584	-8.662000E+00
233	  0.066492982	-5.866000E+00	  0.066492982	-1.590320E+02	  0.066492982	1.676600E+01	  0.066492982	-8.242000E+00
234	  0.066693388	-5.863000E+00	  0.066693388	-1.600490E+02	  0.066693388	1.671200E+01	  0.066693388	-7.837000E+00
235	  0.066893786	-5.863000E+00	  0.066893786	-1.611010E+02	  0.066893786	1.666400E+01	  0.066893786	-7.419000E+00
236	  0.067094192	-5.864000E+00	  0.067094192	-1.621330E+02	  0.067094192	1.662500E+01	  0.067094192	-7.009000E+00
237	  0.067294590	-5.865000E+00	  0.067294590	-1.631280E+02	  0.067294590	1.658800E+01	  0.067294590	-6.614000E+00
238	  0.067494988	-5.867000E+00	  0.067494988	-1.641920E+02	  0.067494988	1.655200E+01	  0.067494988	-6.193000E+00
239	  0.067695394	-5.868000E+00	  0.067695394	-1.651750E+02	  0.067695394	1.652100E+01	  0.067695394	-5.805000E+00
240	  0.067895792	-5.867000E+00	  0.067895792	-1.662340E+02	  0.067895792	1.648500E+01	  0.067895792	-5.387000E+00
241	  0.068096191	-5.868000E+00	  0.068096191	-1.672390E+02	  0.068096191	1.645800E+01	  0.068096191	-4.992000E+00
242	  0.068296596	-5.879000E+00	  0.068296596	-1.682490E+02	  0.068296596	1.645800E+01	  0.068296596	-4.592000E+00
243	  0.068496995	-5.880000E+00	  0.068496995	-1.692790E+02	  0.068496995	1.643500E+01	  0.068496995	-4.188000E+00
244	  0.068697393	-5.881000E+00	  0.068697393	-1.702820E+02	  0.068697393	1.641500E+01	  0.068697393	-3.795000E+00
245	  0.068897791	-5.879000E+00	  0.068897791	-1.713310E+02	  0.068897791	1.638900E+01	  0.068897791	-3.384000E+00
246	  0.069098189	-5.883000E+00	  0.069098189	-1.723530E+02	  0.069098189	1.637800E+01	  0.069098189	-2.984000E+00
247	  0.069298595	-5.887000E+00	  0.069298595	-1.733500E+02	  0.069298595	1.637300E+01	  0.069298595	-2.594000E+00
248	  0.069498993	-5.892000E+00	  0.069498993	-1.743630E+02	  0.069498993	1.637400E+01	  0.069498993	-2.197000E+00
249	  0.069699399	-5.891000E+00	  0.069699399	-1.753580E+02	  0.069699399	1.636000E+01	  0.069699399	-1.809000E+00
250	  0.069899797	-5.889000E+00	  0.069899797	-1.763330E+02	  0.069899797	1.634600E+01	  0.069899797	-1.429000E+00
251	  0.070100196	-5.891000E+00	  0.070100196	-1.773410E+02	  0.070100196	1.634300E+01	  0.070100196	-1.036000E+00
252	  0.070300601	-5.888000E+00	  0.070300601	-1.783140E+02	  0.070300601	1.633000E+01	  0.070300601	-6.560000E-01
253	  0.070501000	-5.894000E+00	  0.070501000	-1.793170E+02	  0.070501000	1.634200E+01	  0.070501000	-2.650000E-01
254	  0.070701398	-5.891000E+00	  0.070701398	1.797300E+02	  0.070701398	1.633500E+01	  0.070701398	1.050000E-01
255	  0.070901804	-5.890000E+00	  0.070901804	1.787840E+02	  0.070901804	1.633500E+01	  0.070901804	4.730000E-01
256	  0.071102202	-5.894000E+00	  0.071102202	1.777960E+02	  0.071102202	1.634800E+01	  0.071102202	8.580000E-01
257	  0.071302600	-5.895000E+00	  0.071302600	1.768890E+02	  0.071302600	1.635600E+01	  0.071302600	1.212000E+00
258	  0.071503006	-5.897000E+00	  0.071503006	1.759500E+02	  0.071503006	1.636800E+01	  0.071503006	1.578000E+00
259	  0.071703404	-5.897000E+00	  0.071703404	1.750150E+02	  0.071703404	1.637900E+01	  0.071703404	1.943000E+00
260	  0.071903802	-5.901000E+00	  0.071903802	1.741000E+02	  0.071903802	1.640000E+01	  0.071903802	2.300000E+00
261	  0.072104208	-5.909000E+00	  0.072104208	1.731550E+02	  0.072104208	1.643300E+01	  0.072104208	2.668000E+00
262	  0.072304606	-5.918000E+00	  0.072304606	1.722570E+02	  0.072304606	1.647300E+01	  0.072304606	3.017000E+00
263	  0.072505005	-5.923000E+00	  0.072505005	1.713570E+02	  0.072505005	1.650200E+01	  0.072505005	3.368000E+00
264	  0.072705410	-5.924000E+00	  0.072705410	1.704370E+02	  0.072705410	1.652200E+01	  0.072705410	3.728000E+00
265	  0.072905809	-5.935000E+00	  0.072905809	1.695030E+02	  0.072905809	1.657200E+01	  0.072905809	4.092000E+00
266	  0.073106214	-5.943000E+00	  0.073106214	1.685990E+02	  0.073106214	1.661400E+01	  0.073106214	4.444000E+00
267	  0.073306613	-5.951000E+00	  0.073306613	1.676580E+02	  0.073306613	1.666000E+01	  0.073306613	4.811000E+00
268	  0.073507011	-5.963000E+00	  0.073507011	1.667420E+02	  0.073507011	1.671800E+01	  0.073507011	5.168000E+00
269	  0.073707417	-5.970000E+00	  0.073707417	1.658370E+02	  0.073707417	1.676600E+01	  0.073707417	5.522000E+00
270	  0.073907815	-5.969000E+00	  0.073907815	1.648980E+02	  0.073907815	1.679400E+01	  0.073907815	5.891000E+00
271	  0.074108213	-5.981000E+00	  0.074108213	1.640060E+02	  0.074108213	1.685600E+01	  0.074108213	6.239000E+00
272	  0.074308619	-5.986000E+00	  0.074308619	1.630430E+02	  0.074308619	1.690600E+01	  0.074308619	6.617000E+00
273	  0.074509017	-5.996000E+00	  0.074509017	1.621500E+02	  0.074509017	1.696900E+01	  0.074509017	6.967000E+00
274	  0.074709415	-6.003000E+00	  0.074709415	1.612100E+02	  0.074709415	1.702500E+01	  0.074709415	7.336000E+00
275	  0.074909821	-6.014000E+00	  0.074909821	1.602910E+02	  0.074909821	1.709600E+01	  0.074909821	7.696000E+00
276	  0.075110219	-6.017000E+00	  0.075110219	1.593700E+02	  0.075110219	1.714800E+01	  0.075110219	8.059000E+00
277	  0.075310618	-6.026000E+00	  0.075310618	1.584790E+02	  0.075310618	1.721500E+01	  0.075310618	8.410000E+00
278	  0.075511023	-6.034000E+00	  0.075511023	1.575440E+02	  0.075511023	1.728300E+01	  0.075511023	8.779000E+00
279	  0.075711422	-6.037000E+00	  0.075711422	1.566370E+02	  0.075711422	1.734100E+01	  0.075711422	9.139000E+00
280	  0.075911827	-6.046000E+00	  0.075911827	1.557540E+02	  0.075911827	1.741400E+01	  0.075911827	9.488000E+00
281	  0.076112226	-6.045000E+00	  0.076112226	1.548390E+02	  0.076112226	1.746500E+01	  0.076112226	9.854000E+00
282	  0.076312624	-6.054000E+00	  0.076312624	1.539770E+02	  0.076312624	1.754200E+01	  0.076312624	1.019500E+01
283	  0.076513030	-6.051000E+00	  0.076513030	1.531050E+02	  0.076513030	1.759000E+01	  0.076513030	1.054600E+01
284	  0.076713428	-6.058000E+00	  0.076713428	1.522470E+02	  0.076713428	1.766500E+01	  0.076713428	1.088800E+01
285	  0.076913826	-6.062000E+00	  0.076913826	1.513760E+02	  0.076913826	1.773500E+01	  0.076913826	1.123700E+01
286	  0.077114232	-6.071000E+00	  0.077114232	1.505440E+02	  0.077114232	1.781700E+01	  0.077114232	1.156900E+01
287	  0.077314630	-6.074000E+00	  0.077314630	1.497040E+02	  0.077314630	1.788900E+01	  0.077314630	1.190700E+01
288	  0.077515028	-6.080000E+00	  0.077515028	1.488960E+02	  0.077515028	1.796600E+01	  0.077515028	1.223200E+01
289	  0.077715434	-6.091000E+00	  0.077715434	1.480940E+02	  0.077715434	1.805600E+01	  0.077715434	1.255300E+01
290	  0.077915832	-6.102000E+00	  0.077915832	1.472710E+02	  0.077915832	1.815300E+01	  0.077915832	1.288200E+01
291	  0.078116231	-6.117000E+00	  0.078116231	1.464420E+02	  0.078116231	1.826200E+01	  0.078116231	1.321300E+01
292	  0.078316636	-6.129000E+00	  0.078316636	1.456310E+02	  0.078316636	1.836200E+01	  0.078316636	1.353800E+01
293	  0.078517035	-6.142000E+00	  0.078517035	1.447820E+02	  0.078517035	1.847400E+01	  0.078517035	1.387800E+01
294	  0.078717433	-6.148000E+00	  0.078717433	1.439340E+02	  0.078717433	1.856600E+01	  0.078717433	1.422300E+01
295	  0.078917839	-6.156000E+00	  0.078917839	1.431320E+02	  0.078917839	1.866200E+01	  0.078917839	1.454900E+01
296	  0.079118237	-6.168000E+00	  0.079118237	1.423070E+02	  0.079118237	1.877500E+01	  0.079118237	1.488100E+01
297	  0.079318643	-6.184000E+00	  0.079318643	1.415030E+02	  0.079318643	1.889700E+01	  0.079318643	1.520400E+01
298	  0.079519041	-6.194000E+00	  0.079519041	1.406790E+02	  0.079519041	1.901000E+01	  0.079519041	1.553900E+01
299	  0.079719439	-6.208000E+00	  0.079719439	1.398610E+02	  0.079719439	1.913500E+01	  0.079719439	1.586900E+01
300	  0.079919845	-6.222000E+00	  0.079919845	1.390400E+02	  0.079919845	1.925900E+01	  0.079919845	1.620200E+01
301	  0.080120243	-6.242000E+00	  0.080120243	1.382240E+02	  0.080120243	1.940400E+01	  0.080120243	1.652800E+01
302	  0.080320641	-6.254000E+00	  0.080320641	1.374080E+02	  0.080320641	1.953000E+01	  0.080320641	1.686100E+01
303	  0.080521047	-6.269000E+00	  0.080521047	1.365940E+02	  0.080521047	1.966700E+01	  0.080521047	1.719100E+01
304	  0.080721445	-6.286000E+00	  0.080721445	1.357690E+02	  0.080721445	1.981500E+01	  0.080721445	1.752500E+01
305	  0.080921844	-6.299000E+00	  0.080921844	1.349400E+02	  0.080921844	1.995100E+01	  0.080921844	1.786400E+01
306	  0.081122249	-6.311000E+00	  0.081122249	1.341100E+02	  0.081122249	2.008900E+01	  0.081122249	1.820600E+01
307	  0.081322648	-6.320000E+00	  0.081322648	1.333030E+02	  0.081322648	2.021900E+01	  0.081322648	1.854000E+01
308	  0.081523046	-6.333000E+00	  0.081523046	1.324890E+02	  0.081523046	2.036400E+01	  0.081523046	1.887500E+01
309	  0.081723452	-6.348000E+00	  0.081723452	1.316860E+02	  0.081723452	2.051500E+01	  0.081723452	1.920400E+01
310	  0.081923850	-6.364000E+00	  0.081923850	1.308710E+02	  0.081923850	2.067400E+01	  0.081923850	1.953800E+01
311	  0.082124248	-6.375000E+00	  0.082124248	1.300760E+02	  0.082124248	2.081800E+01	  0.082124248	1.986900E+01
312	  0.082324654	-6.390000E+00	  0.082324654	1.293120E+02	  0.082324654	2.097100E+01	  0.082324654	2.018400E+01
313	  0.082525052	-6.403000E+00	  0.082525052	1.285500E+02	  0.082525052	2.112300E+01	  0.082525052	2.049900E+01
314	  0.082725458	-6.417000E+00	  0.082725458	1.277820E+02	  0.082725458	2.128000E+01	  0.082725458	2.081700E+01
315	  0.082925856	-6.435000E+00	  0.082925856	1.270310E+02	  0.082925856	2.145000E+01	  0.082925856	2.112400E+01
316	  0.083126254	-6.457000E+00	  0.083126254	1.263330E+02	  0.083126254	2.162300E+01	  0.083126254	2.140400E+01
317	  0.083326660	-6.475000E+00	  0.083326660	1.255590E+02	  0.083326660	2.180100E+01	  0.083326660	2.172200E+01
318	  0.083527058	-6.498000E+00	  0.083527058	1.247750E+02	  0.083527058	2.199900E+01	  0.083527058	2.203800E+01
319	  0.083727457	-6.515000E+00	  0.083727457	1.240150E+02	  0.083727457	2.217900E+01	  0.083727457	2.235100E+01
320	  0.083927862	-6.532000E+00	  0.083927862	1.232220E+02	  0.083927862	2.236700E+01	  0.083927862	2.267900E+01
321	  0.084128261	-6.547000E+00	  0.084128261	1.224860E+02	  0.084128261	2.254000E+01	  0.084128261	2.298500E+01
322	  0.084328659	-6.570000E+00	  0.084328659	1.217210E+02	  0.084328659	2.274900E+01	  0.084328659	2.329300E+01
323	  0.084529065	-6.589000E+00	  0.084529065	1.209840E+02	  0.084529065	2.294200E+01	  0.084529065	2.359500E+01
324	  0.084729463	-6.604000E+00	  0.084729463	1.202480E+02	  0.084729463	2.312600E+01	  0.084729463	2.390200E+01
325	  0.084929861	-6.625000E+00	  0.084929861	1.195110E+02	  0.084929861	2.333100E+01	  0.084929861	2.420200E+01
326	  0.085130267	-6.646000E+00	  0.085130267	1.188120E+02	  0.085130267	2.353100E+01	  0.085130267	2.448400E+01
327	  0.085330658	-6.667000E+00	  0.085330658	1.180460E+02	  0.085330658	2.374900E+01	  0.085330658	2.479700E+01
328	  0.085531056	-6.693000E+00	  0.085531056	1.173350E+02	  0.085531056	2.397200E+01	  0.085531056	2.507800E+01
329	  0.085731462	-6.714000E+00	  0.085731462	1.166050E+02	  0.085731462	2.419100E+01	  0.085731462	2.537400E+01
330	  0.085931860	-6.740000E+00	  0.085931860	1.158790E+02	  0.085931860	2.442400E+01	  0.085931860	2.566100E+01
331	  0.086132258	-6.759000E+00	  0.086132258	1.151080E+02	  0.086132258	2.464800E+01	  0.086132258	2.597900E+01
332	  0.086332664	-6.780000E+00	  0.086332664	1.144050E+02	  0.086332664	2.486900E+01	  0.086332664	2.626300E+01
333	  0.086533062	-6.806000E+00	  0.086533062	1.136510E+02	  0.086533062	2.512100E+01	  0.086533062	2.656200E+01
334	  0.086733460	-6.825000E+00	  0.086733460	1.128870E+02	  0.086733460	2.535600E+01	  0.086733460	2.687700E+01
335	  0.086933866	-6.846000E+00	  0.086933866	1.122070E+02	  0.086933866	2.558200E+01	  0.086933866	2.715000E+01
336	  0.087134264	-6.864000E+00	  0.087134264	1.114730E+02	  0.087134264	2.581600E+01	  0.087134264	2.745100E+01
337	  0.087334670	-6.885000E+00	  0.087334670	1.107920E+02	  0.087334670	2.605000E+01	  0.087334670	2.772400E+01
338	  0.087535068	-6.909000E+00	  0.087535068	1.100830E+02	  0.087535068	2.630000E+01	  0.087535068	2.800500E+01
339	  0.087735467	-6.926000E+00	  0.087735467	1.094140E+02	  0.087735467	2.652400E+01	  0.087735467	2.827900E+01
340	  0.087935872	-6.947000E+00	  0.087935872	1.087410E+02	  0.087935872	2.676600E+01	  0.087935872	2.854700E+01
341	  0.088136271	-6.972000E+00	  0.088136271	1.080760E+02	  0.088136271	2.702000E+01	  0.088136271	2.880400E+01
342	  0.088336669	-7.001000E+00	  0.088336669	1.074090E+02	  0.088336669	2.728900E+01	  0.088336669	2.905500E+01
343	  0.088537075	-7.031000E+00	  0.088537075	1.067260E+02	  0.088537075	2.757100E+01	  0.088537075	2.930900E+01
344	  0.088737473	-7.056000E+00	  0.088737473	1.060430E+02	  0.088737473	2.783900E+01	  0.088737473	2.957200E+01
345	  0.088937871	-7.080000E+00	  0.088937871	1.053690E+02	  0.088937871	2.810700E+01	  0.088937871	2.983200E+01
346	  0.089138277	-7.104000E+00	  0.089138277	1.046850E+02	  0.089138277	2.838200E+01	  0.089138277	3.009500E+01
347	  0.089338675	-7.129000E+00	  0.089338675	1.040140E+02	  0.089338675	2.865700E+01	  0.089338675	3.035000E+01
348	  0.089539073	-7.154000E+00	  0.089539073	1.033740E+02	  0.089539073	2.892900E+01	  0.089539073	3.059000E+01
349	  0.089739479	-7.177000E+00	  0.089739479	1.026900E+02	  0.089739479	2.921200E+01	  0.089739479	3.085200E+01
350	  0.089939877	-7.205000E+00	  0.089939877	1.020430E+02	  0.089939877	2.950100E+01	  0.089939877	3.108700E+01
351	  0.090140276	-7.223000E+00	  0.090140276	1.014740E+02	  0.090140276	2.973800E+01	  0.090140276	3.130600E+01
352	  0.090340681	-7.246000E+00	  0.090340681	1.008230E+02	  0.090340681	3.001900E+01	  0.090340681	3.155200E+01
353	  0.090541080	-7.273000E+00	  0.090541080	1.002280E+02	  0.090541080	3.029800E+01	  0.090541080	3.176200E+01
354	  0.090741485	-7.304000E+00	  0.090741485	9.963300E+01	  0.090741485	3.059200E+01	  0.090741485	3.196200E+01
355	  0.090941884	-7.335000E+00	  0.090941884	9.906500E+01	  0.090941884	3.087900E+01	  0.090941884	3.214800E+01
356	  0.091142282	-7.359000E+00	  0.091142282	9.846100E+01	  0.091142282	3.116200E+01	  0.091142282	3.236400E+01
357	  0.091342688	-7.395000E+00	  0.091342688	9.787000E+01	  0.091342688	3.147800E+01	  0.091342688	3.254500E+01
358	  0.091543086	-7.420000E+00	  0.091543086	9.728100E+01	  0.091543086	3.176400E+01	  0.091543086	3.275000E+01
359	  0.091743484	-7.455000E+00	  0.091743484	9.665300E+01	  0.091743484	3.209600E+01	  0.091743484	3.294700E+01
360	  0.091943890	-7.484000E+00	  0.091943890	9.610600E+01	  0.091943890	3.238600E+01	  0.091943890	3.311700E+01
361	  0.092144288	-7.519000E+00	  0.092144288	9.555300E+01	  0.092144288	3.269700E+01	  0.092144288	3.327600E+01
362	  0.092344686	-7.545000E+00	  0.092344686	9.500800E+01	  0.092344686	3.298300E+01	  0.092344686	3.345100E+01
363	  0.092545092	-7.575000E+00	  0.092545092	9.443600E+01	  0.092545092	3.329000E+01	  0.092545092	3.362700E+01
364	  0.092745490	-7.605000E+00	  0.092745490	9.386600E+01	  0.092745490	3.360200E+01	  0.092745490	3.380000E+01
365	  0.092945889	-7.643000E+00	  0.092945889	9.330800E+01	  0.092945889	3.393500E+01	  0.092945889	3.394300E+01
366	  0.093146294	-7.677000E+00	  0.093146294	9.276500E+01	  0.093146294	3.425100E+01	  0.093146294	3.409000E+01
367	  0.093346693	-7.715000E+00	  0.093346693	9.225400E+01	  0.093346693	3.457100E+01	  0.093346693	3.420700E+01
368	  0.093547091	-7.755000E+00	  0.093547091	9.169000E+01	  0.093547091	3.491700E+01	  0.093547091	3.434300E+01
369	  0.093747497	-7.785000E+00	  0.093747497	9.112700E+01	  0.093747497	3.523900E+01	  0.093747497	3.450000E+01
370	  0.093947895	-7.821000E+00	  0.093947895	9.052700E+01	  0.093947895	3.559700E+01	  0.093947895	3.465400E+01
371	  0.094148301	-7.857000E+00	  0.094148301	8.995100E+01	  0.094148301	3.594900E+01	  0.094148301	3.479300E+01
372	  0.094348699	-7.895000E+00	  0.094348699	8.938800E+01	  0.094348699	3.629900E+01	  0.094348699	3.492200E+01
373	  0.094549097	-7.924000E+00	  0.094549097	8.880500E+01	  0.094549097	3.663900E+01	  0.094549097	3.508100E+01
374	  0.094749503	-7.951000E+00	  0.094749503	8.821100E+01	  0.094749503	3.698300E+01	  0.094749503	3.524600E+01
375	  0.094949901	-7.974000E+00	  0.094949901	8.767300E+01	  0.094949901	3.729200E+01	  0.094949901	3.539900E+01
376	  0.095150299	-7.998000E+00	  0.095150299	8.711500E+01	  0.095150299	3.761500E+01	  0.095150299	3.555500E+01
377	  0.095350705	-8.022000E+00	  0.095350705	8.658500E+01	  0.095350705	3.793000E+01	  0.095350705	3.569700E+01
378	  0.095551103	-8.043000E+00	  0.095551103	8.604300E+01	  0.095551103	3.824500E+01	  0.095551103	3.585000E+01
379	  0.095751502	-8.064000E+00	  0.095751502	8.555000E+01	  0.095751502	3.853700E+01	  0.095751502	3.598400E+01
380	  0.095951907	-8.083000E+00	  0.095951907	8.506600E+01	  0.095951907	3.882300E+01	  0.095951907	3.611800E+01
381	  0.096152306	-8.103000E+00	  0.096152306	8.463100E+01	  0.096152306	3.909000E+01	  0.096152306	3.622600E+01
382	  0.096352704	-8.121000E+00	  0.096352704	8.416800E+01	  0.096352704	3.936700E+01	  0.096352704	3.635100E+01
383	  0.096553110	-8.145000E+00	  0.096553110	8.370100E+01	  0.096553110	3.966500E+01	  0.096553110	3.645500E+01
384	  0.096753508	-8.167000E+00	  0.096753508	8.329100E+01	  0.096753508	3.992900E+01	  0.096753508	3.654400E+01
385	  0.096953906	-8.180000E+00	  0.096953906	8.285100E+01	  0.096953906	4.018800E+01	  0.096953906	3.667200E+01
386	  0.097154312	-8.198000E+00	  0.097154312	8.247000E+01	  0.097154312	4.043100E+01	  0.097154312	3.675700E+01
387	  0.097354710	-8.214000E+00	  0.097354710	8.211700E+01	  0.097354710	4.065500E+01	  0.097354710	3.683900E+01
388	  0.097555116	-8.230000E+00	  0.097555116	8.173100E+01	  0.097555116	4.089800E+01	  0.097555116	3.693300E+01
389	  0.097755514	-8.244000E+00	  0.097755514	8.138100E+01	  0.097755514	4.111800E+01	  0.097755514	3.701800E+01
390	  0.097955912	-8.265000E+00	  0.097955912	8.102900E+01	  0.097955912	4.135800E+01	  0.097955912	3.707800E+01
391	  0.098156318	-8.286000E+00	  0.098156318	8.068000E+01	  0.098156318	4.160000E+01	  0.098156318	3.713200E+01
392	  0.098356716	-8.311000E+00	  0.098356716	8.032800E+01	  0.098356716	4.185100E+01	  0.098356716	3.717500E+01
393	  0.098557115	-8.331000E+00	  0.098557115	8.002700E+01	  0.098557115	4.206400E+01	  0.098557115	3.721300E+01
394	  0.098757520	-8.358000E+00	  0.098757520	7.966000E+01	  0.098757520	4.233100E+01	  0.098757520	3.725200E+01
395	  0.098957919	-8.377000E+00	  0.098957919	7.934000E+01	  0.098957919	4.255300E+01	  0.098957919	3.729800E+01
396	  0.099158317	-8.403000E+00	  0.099158317	7.894600E+01	  0.099158317	4.283300E+01	  0.099158317	3.734700E+01
397	  0.099358723	-8.433000E+00	  0.099358723	7.857500E+01	  0.099358723	4.311200E+01	  0.099358723	3.737000E+01
398	  0.099559121	-8.455000E+00	  0.099559121	7.817400E+01	  0.099559121	4.339100E+01	  0.099559121	3.742700E+01
399	  0.099759519	-8.474000E+00	  0.099759519	7.777000E+01	  0.099759519	4.366500E+01	  0.099759519	3.749700E+01
400	  0.099959925	-8.494000E+00	  0.099959925	7.734100E+01	  0.099959925	4.395600E+01	  0.099959925	3.757300E+01
401	  0.100160323	-8.505000E+00	  0.100160323	7.697300E+01	  0.100160323	4.419300E+01	  0.100160323	3.765700E+01
402	  0.100360721	-8.517000E+00	  0.100360721	7.655300E+01	  0.100360721	4.446600E+01	  0.100360721	3.775300E+01
403	  0.100561127	-8.542000E+00	  0.100561127	7.604600E+01	  0.100561127	4.482000E+01	  0.100561127	3.782900E+01
404	  0.100761525	-8.532000E+00	  0.100761525	7.559100E+01	  0.100761525	4.506900E+01	  0.100761525	3.801900E+01
405	  0.100961931	-8.548000E+00	  0.100961931	7.520400E+01	  0.100961931	4.533700E+01	  0.100961931	3.808500E+01
406	  0.101162329	-8.554000E+00	  0.101162329	7.473400E+01	  0.101162329	4.563400E+01	  0.101162329	3.821700E+01
407	  0.101362728	-8.555000E+00	  0.101362728	7.431700E+01	  0.101362728	4.589300E+01	  0.101362728	3.834600E+01
408	  0.101563133	-8.555000E+00	  0.101563133	7.388000E+01	  0.101563133	4.616200E+01	  0.101563133	3.848900E+01
409	  0.101763532	-8.552000E+00	  0.101763532	7.344700E+01	  0.101763532	4.642400E+01	  0.101763532	3.864300E+01
410	  0.101963930	-8.553000E+00	  0.101963930	7.309300E+01	  0.101963930	4.665000E+01	  0.101963930	3.875000E+01
411	  0.102164336	-8.537000E+00	  0.102164336	7.257100E+01	  0.102164336	4.694600E+01	  0.102164336	3.898500E+01
412	  0.102364734	-8.527000E+00	  0.102364734	7.224200E+01	  0.102364734	4.713700E+01	  0.102364734	3.913100E+01
413	  0.102565132	-8.536000E+00	  0.102565132	7.187800E+01	  0.102565132	4.739200E+01	  0.102565132	3.920400E+01
414	  0.102765530	-8.528000E+00	  0.102765530	7.145800E+01	  0.102765530	4.764800E+01	  0.102765530	3.937300E+01
415	  0.102965929	-8.530000E+00	  0.102965929	7.102400E+01	  0.102965929	4.793800E+01	  0.102965929	3.949500E+01
416	  0.103166327	-8.514000E+00	  0.103166327	7.071800E+01	  0.103166327	4.810900E+01	  0.103166327	3.965900E+01
417	  0.103366733	-8.503000E+00	  0.103366733	7.029400E+01	  0.103366733	4.837100E+01	  0.103366733	3.983800E+01
418	  0.103567131	-8.494000E+00	  0.103567131	6.990000E+01	  0.103567131	4.861800E+01	  0.103567131	4.000000E+01
419	  0.103767529	-8.497000E+00	  0.103767529	6.954800E+01	  0.103767529	4.886500E+01	  0.103767529	4.008900E+01
420	  0.103967935	-8.494000E+00	  0.103967935	6.917600E+01	  0.103967935	4.911300E+01	  0.103967935	4.021800E+01
421	  0.104168333	-8.489000E+00	  0.104168333	6.873000E+01	  0.104168333	4.941200E+01	  0.104168333	4.037200E+01
422	  0.104368731	-8.489000E+00	  0.104368731	6.835700E+01	  0.104368731	4.967400E+01	  0.104368731	4.047900E+01
423	  0.104569137	-8.485000E+00	  0.104569137	6.794100E+01	  0.104569137	4.995900E+01	  0.104569137	4.062000E+01
424	  0.104769535	-8.488000E+00	  0.104769535	6.746500E+01	  0.104769535	5.030500E+01	  0.104769535	4.074000E+01
425	  0.104969934	-8.475000E+00	  0.104969934	6.702000E+01	  0.104969934	5.059900E+01	  0.104969934	4.093200E+01
426	  0.105170339	-8.481000E+00	  0.105170339	6.650500E+01	  0.105170339	5.098500E+01	  0.105170339	4.104600E+01
427	  0.105370738	-8.482000E+00	  0.105370738	6.604400E+01	  0.105370738	5.132600E+01	  0.105370738	4.116500E+01
428	  0.105571143	-8.479000E+00	  0.105571143	6.554900E+01	  0.105571143	5.168700E+01	  0.105571143	4.131600E+01
429	  0.105771542	-8.475000E+00	  0.105771542	6.504600E+01	  0.105771542	5.205600E+01	  0.105771542	4.147000E+01
430	  0.105971940	-8.466000E+00	  0.105971940	6.449100E+01	  0.105971940	5.246200E+01	  0.105971940	4.165800E+01
431	  0.106172346	-8.455000E+00	  0.106172346	6.398900E+01	  0.106172346	5.282900E+01	  0.106172346	4.184200E+01
432	  0.106372744	-8.453000E+00	  0.106372744	6.349400E+01	  0.106372744	5.321000E+01	  0.106372744	4.197500E+01
433	  0.106573142	-8.444000E+00	  0.106573142	6.290200E+01	  0.106573142	5.365900E+01	  0.106573142	4.216900E+01
434	  0.106773548	-8.435000E+00	  0.106773548	6.237900E+01	  0.106773548	5.406000E+01	  0.106773548	4.234400E+01
435	  0.106973946	-8.421000E+00	  0.106973946	6.180400E+01	  0.106973946	5.450100E+01	  0.106973946	4.255600E+01
436	  0.107174344	-8.402000E+00	  0.107174344	6.131800E+01	  0.107174344	5.486900E+01	  0.107174344	4.276700E+01
437	  0.107374750	-8.381000E+00	  0.107374750	6.075700E+01	  0.107374750	5.529900E+01	  0.107374750	4.301100E+01
438	  0.107575148	-8.371000E+00	  0.107575148	6.022800E+01	  0.107575148	5.572600E+01	  0.107575148	4.318600E+01
439	  0.107775547	-8.361000E+00	  0.107775547	5.976400E+01	  0.107775547	5.610300E+01	  0.107775547	4.334100E+01
440	  0.107975952	-8.344000E+00	  0.107975952	5.920700E+01	  0.107975952	5.655600E+01	  0.107975952	4.355300E+01
441	  0.108176351	-8.331000E+00	  0.108176351	5.862200E+01	  0.108176351	5.704400E+01	  0.108176351	4.375000E+01
442	  0.108376749	-8.320000E+00	  0.108376749	5.823900E+01	  0.108376749	5.736400E+01	  0.108376749	4.389100E+01
443	  0.108577155	-8.294000E+00	  0.108577155	5.767700E+01	  0.108577155	5.782900E+01	  0.108577155	4.414900E+01
444	  0.108777553	-8.282000E+00	  0.108777553	5.719600E+01	  0.108777553	5.824500E+01	  0.108777553	4.431300E+01
445	  0.108977959	-8.270000E+00	  0.108977959	5.675600E+01	  0.108977959	5.862900E+01	  0.108977959	4.446500E+01
446	  0.109178357	-8.269000E+00	  0.109178357	5.621800E+01	  0.109178357	5.911900E+01	  0.109178357	4.456700E+01
447	  0.109378755	-8.256000E+00	  0.109378755	5.566500E+01	  0.109378755	5.961600E+01	  0.109378755	4.474200E+01
448	  0.109579161	-8.247000E+00	  0.109579161	5.518200E+01	  0.109579161	6.005900E+01	  0.109579161	4.487500E+01
449	  0.109779559	-8.240000E+00	  0.109779559	5.464700E+01	  0.109779559	6.055900E+01	  0.109779559	4.499800E+01
450	  0.109979957	-8.236000E+00	  0.109979957	5.410900E+01	  0.109979957	6.106900E+01	  0.109979957	4.510200E+01
451	  0.110180363	-8.234000E+00	  0.110180363	5.356800E+01	  0.110180363	6.159000E+01	  0.110180363	4.519100E+01
452	  0.110380761	-8.221000E+00	  0.110380761	5.300900E+01	  0.110380761	6.212600E+01	  0.110380761	4.534400E+01
453	  0.110581160	-8.220000E+00	  0.110581160	5.240100E+01	  0.110581160	6.272600E+01	  0.110581160	4.542300E+01
454	  0.110781565	-8.224000E+00	  0.110781565	5.176500E+01	  0.110781565	6.336500E+01	  0.110781565	4.546200E+01
455	  0.110981964	-8.213000E+00	  0.110981964	5.110000E+01	  0.110981964	6.403100E+01	  0.110981964	4.559600E+01
456	  0.111182362	-8.206000E+00	  0.111182362	5.048000E+01	  0.111182362	6.466400E+01	  0.111182362	4.568600E+01
457	  0.111382768	-8.196000E+00	  0.111382768	4.983900E+01	  0.111382768	6.532500E+01	  0.111382768	4.579600E+01
458	  0.111583166	-8.195000E+00	  0.111583166	4.915500E+01	  0.111583166	6.604300E+01	  0.111583166	4.583900E+01
459	  0.111783572	-8.185000E+00	  0.111783572	4.841100E+01	  0.111783572	6.683200E+01	  0.111783572	4.593600E+01
460	  0.111983970	-8.176000E+00	  0.111983970	4.776100E+01	  0.111983970	6.753200E+01	  0.111983970	4.601100E+01
461	  0.112184368	-8.162000E+00	  0.112184368	4.705500E+01	  0.112184368	6.830200E+01	  0.112184368	4.610900E+01
462	  0.112384774	-8.155000E+00	  0.112384774	4.633700E+01	  0.112384774	6.909800E+01	  0.112384774	4.615200E+01
463	  0.112585172	-8.140000E+00	  0.112585172	4.557800E+01	  0.112585172	6.995300E+01	  0.112585172	4.623400E+01
464	  0.112785570	-8.134000E+00	  0.112785570	4.487100E+01	  0.112785570	7.075700E+01	  0.112785570	4.623900E+01
465	  0.112985976	-8.126000E+00	  0.112985976	4.414900E+01	  0.112985976	7.159100E+01	  0.112985976	4.625000E+01
466	  0.113186374	-8.115000E+00	  0.113186374	4.335000E+01	  0.113186374	7.252800E+01	  0.113186374	4.625700E+01
467	  0.113386773	-8.115000E+00	  0.113386773	4.263000E+01	  0.113386773	7.337500E+01	  0.113386773	4.617400E+01
468	  0.113587178	-8.100000E+00	  0.113587178	4.183900E+01	  0.113587178	7.433000E+01	  0.113587178	4.617300E+01
469	  0.113787577	-8.102000E+00	  0.113787577	4.105700E+01	  0.113787577	7.526900E+01	  0.113787577	4.602200E+01
470	  0.113987975	-8.094000E+00	  0.113987975	4.035900E+01	  0.113987975	7.612900E+01	  0.113987975	4.595800E+01
471	  0.114188381	-8.088000E+00	  0.114188381	3.958300E+01	  0.114188381	7.708900E+01	  0.114188381	4.583000E+01
472	  0.114388779	-8.085000E+00	  0.114388779	3.881900E+01	  0.114388779	7.803900E+01	  0.114388779	4.566300E+01
473	  0.114589177	-8.086000E+00	  0.114589177	3.801000E+01	  0.114589177	7.904800E+01	  0.114589177	4.543100E+01
474	  0.114789583	-8.089000E+00	  0.114789583	3.718400E+01	  0.114789583	8.008200E+01	  0.114789583	4.515300E+01
475	  0.114989981	-8.089000E+00	  0.114989981	3.640000E+01	  0.114989981	8.107400E+01	  0.114989981	4.488100E+01
476	  0.115190387	-8.101000E+00	  0.115190387	3.561100E+01	  0.115190387	8.204800E+01	  0.115190387	4.448300E+01
477	  0.115390785	-8.103000E+00	  0.115390785	3.476800E+01	  0.115390785	8.311800E+01	  0.115390785	4.411800E+01
478	  0.115591183	-8.113000E+00	  0.115591183	3.388400E+01	  0.115591183	8.422400E+01	  0.115591183	4.364300E+01
479	  0.115791589	-8.133000E+00	  0.115791589	3.304800E+01	  0.115791589	8.523100E+01	  0.115791589	4.306400E+01
480	  0.115991987	-8.155000E+00	  0.115991987	3.218500E+01	  0.115991987	8.625800E+01	  0.115991987	4.242000E+01
481	  0.116192386	-8.164000E+00	  0.116192386	3.130000E+01	  0.116192386	8.735600E+01	  0.116192386	4.184500E+01
482	  0.116392791	-8.175000E+00	  0.116392791	3.034200E+01	  0.116392791	8.852900E+01	  0.116392791	4.116000E+01
483	  0.116593190	-8.202000E+00	  0.116593190	2.943100E+01	  0.116593190	8.956700E+01	  0.116593190	4.033600E+01
484	  0.116793588	-8.221000E+00	  0.116793588	2.845900E+01	  0.116793588	9.069900E+01	  0.116793588	3.949200E+01
485	  0.116993994	-8.252000E+00	  0.116993994	2.753000E+01	  0.116993994	9.169900E+01	  0.116993994	3.854200E+01
486	  0.117194392	-8.275000E+00	  0.117194392	2.656200E+01	  0.117194392	9.276900E+01	  0.117194392	3.759200E+01
487	  0.117394790	-8.304000E+00	  0.117394790	2.558800E+01	  0.117394790	9.378100E+01	  0.117394790	3.653700E+01
488	  0.117595196	-8.330000E+00	  0.117595196	2.457600E+01	  0.117595196	9.482700E+01	  0.117595196	3.543400E+01
489	  0.117795594	-8.369000E+00	  0.117795594	2.357200E+01	  0.117795594	9.574900E+01	  0.117795594	3.419600E+01
490	  0.117995992	-8.402000E+00	  0.117995992	2.251500E+01	  0.117995992	9.672600E+01	  0.117995992	3.290900E+01
491	  0.118196398	-8.434000E+00	  0.118196398	2.144900E+01	  0.118196398	9.767700E+01	  0.118196398	3.158200E+01
492	  0.118396796	-8.473000E+00	  0.118396796	2.047700E+01	  0.118396796	9.842600E+01	  0.118396796	3.026100E+01
493	  0.118597202	-8.515000E+00	  0.118597202	1.937200E+01	  0.118597202	9.924000E+01	  0.118597202	2.874400E+01
494	  0.118797600	-8.562000E+00	  0.118797600	1.826600E+01	  0.118797600	9.996300E+01	  0.118797600	2.716700E+01
495	  0.118997999	-8.614000E+00	  0.118997999	1.714500E+01	  0.118997999	1.005800E+02	  0.118997999	2.550400E+01
496	  0.119198404	-8.660000E+00	  0.119198404	1.601300E+01	  0.119198404	1.011880E+02	  0.119198404	2.384200E+01
497	  0.119398803	-8.713000E+00	  0.119398803	1.488300E+01	  0.119398803	1.016710E+02	  0.119398803	2.213000E+01
498	  0.119599201	-8.781000E+00	  0.119599201	1.372300E+01	  0.119599201	1.019630E+02	  0.119599201	2.028800E+01
499	  0.119799607	-8.837000E+00	  0.119799607	1.260300E+01	  0.119799607	1.022490E+02	  0.119799607	1.855600E+01
500	  0.120000005	-8.906000E+00	  0.120000005	1.140800E+01	  0.120000005	1.023930E+02	  0.120000005	1.667200E+01
