! Anritsu VNA Master:             	Model: MS2036C/10/77
! SN:             	1601066
! /card0/usr/18may27.balun/252b.r50.txt
! Existing Calibration Information:
! TYPE:             	Current Settings	Active Cal Settings
! TIME:             	05/27/2018 12:06:58 PM	05/27/2018 11:54:56 AM
! INTERNAL TEMP:    	51.3 C	49.3 C
! # POINTS:         	500	500
! START FREQ:       	20.000 MHz	20.000 MHz
! STOP FREQ:        	120.000 MHz	120.000 MHz
! SOURCE POWER:     	High	High
! IFBW:             	50 Hz	50 Hz
! AVG FACTOR:       	  1 	  1 
! REF PLANE 1:      	0 mm	0 mm
! REF PLANE 2:      	0 mm	0 mm
! CAL TYPE:         	Full S11	Full S11
! CAL METHOD:       	SOLT	SOLT
! CAL LINE TYPE:    	Coax	Coax
! DUT PORT 1:       	K-Conn(M)	K-Conn(M)
! DUT PORT 2:       	K-Conn(M)	K-Conn(M)
! CAL STATUS:       	OK: Accuracy High	--
! PROP-V:       	0.700
! CABLE LOSS:       	0.000 dB/m
! REF IMPEDANCE:       	50.0
! Trace Specific Parameters:	TR1	TR2	TR3	TR4
! TRACE.#.Y (GRAPH TYPE)	LOG MAG	PHASE	REAL IMPEDANCE	IMAGINARY IMPEDANCE
! TRACE.#.X 	FREQ.GHZ	FREQ.GHZ	FREQ.GHZ	FREQ.GHZ
! S-PARAMETER	S11	S11	S11	S11
! SMOOTH/APERTURE %	0	0	0	0
! WINDOW	NSL	NSL	NSL	NSL
! GATING	OFF	OFF	OFF	OFF
! FGTD	OFF	OFF	OFF	OFF
Marker Information per Trace:	TR1	TR2	TR3	TR4
!MK1	--	--	--	"MK1 TR4:  70.100 200 MHz,Z:(52.519 ohm, 1.210 ohm)"
!MK2	--	--	--	--
!MK3	--	--	--	--
!MK4	--	--	--	--
!MK5	--	--	--	--
!MK6	--	--	--	--
!MK7	--	--	--	--
!MK8	--	--	--	--
PNT	TR1.FREQ.GHZ	TR1.LOG MAG.dB	TR2.FREQ.GHZ	TR2.PHASE.deg	TR3.FREQ.GHZ	TR3.REAL IMPEDANCE.ohm	TR4.FREQ.GHZ	TR4.IMAGINARY IMPEDANCE.ohm
1	  0.020000000	-3.949600E+01	  0.020000000	5.320400E+01	  0.020000000	5.063100E+01	  0.020000000	8.590000E-01
2	  0.020200402	-3.910200E+01	  0.020200402	5.247900E+01	  0.020200402	5.067200E+01	  0.020200402	8.910000E-01
3	  0.020400802	-3.895800E+01	  0.020400802	5.164500E+01	  0.020400802	5.069600E+01	  0.020400802	8.960000E-01
4	  0.020601204	-3.866800E+01	  0.020601204	5.213500E+01	  0.020601204	5.071200E+01	  0.020601204	9.330000E-01
5	  0.020801604	-3.857900E+01	  0.020801604	5.250600E+01	  0.020801604	5.071300E+01	  0.020801604	9.470000E-01
6	  0.021002004	-3.835600E+01	  0.021002004	5.292300E+01	  0.021002004	5.072400E+01	  0.021002004	9.780000E-01
7	  0.021202406	-3.818400E+01	  0.021202406	5.331100E+01	  0.021202406	5.073100E+01	  0.021202406	1.002000E+00
8	  0.021402806	-3.811100E+01	  0.021402806	5.457400E+01	  0.021402806	5.071500E+01	  0.021402806	1.027000E+00
9	  0.021603208	-3.799400E+01	  0.021603208	5.569100E+01	  0.021603208	5.070400E+01	  0.021603208	1.055000E+00
10	  0.021803608	-3.800500E+01	  0.021803608	5.641100E+01	  0.021803608	5.068900E+01	  0.021803608	1.062000E+00
11	  0.022004008	-3.800200E+01	  0.022004008	5.719200E+01	  0.022004008	5.067500E+01	  0.022004008	1.072000E+00
12	  0.022204408	-3.806700E+01	  0.022204408	5.892400E+01	  0.022204408	5.063700E+01	  0.022204408	1.083000E+00
13	  0.022404809	-3.796100E+01	  0.022404809	5.925300E+01	  0.022404809	5.063800E+01	  0.022404809	1.100000E+00
14	  0.022605211	-3.810600E+01	  0.022605211	6.026300E+01	  0.022605211	5.060800E+01	  0.022605211	1.093000E+00
15	  0.022805611	-3.818600E+01	  0.022805611	6.034100E+01	  0.022805611	5.060100E+01	  0.022805611	1.083000E+00
16	  0.023006011	-3.824700E+01	  0.023006011	6.008200E+01	  0.023006011	5.060200E+01	  0.023006011	1.073000E+00
17	  0.023206413	-3.845500E+01	  0.023206413	6.078000E+01	  0.023206413	5.057500E+01	  0.023206413	1.054000E+00
18	  0.023406813	-3.853100E+01	  0.023406813	6.035400E+01	  0.023406813	5.057800E+01	  0.023406813	1.041000E+00
19	  0.023607215	-3.863300E+01	  0.023607215	5.927000E+01	  0.023607215	5.059100E+01	  0.023607215	1.018000E+00
20	  0.023807615	-3.885900E+01	  0.023807615	5.941100E+01	  0.023807615	5.057300E+01	  0.023807615	9.920000E-01
21	  0.024008015	-3.889800E+01	  0.024008015	5.751900E+01	  0.024008015	5.060400E+01	  0.024008015	9.690000E-01
22	  0.024208417	-3.894900E+01	  0.024208417	5.655200E+01	  0.024208417	5.061600E+01	  0.024208417	9.530000E-01
23	  0.024408817	-3.899700E+01	  0.024408817	5.458700E+01	  0.024408817	5.064600E+01	  0.024408817	9.260000E-01
24	  0.024609219	-3.892200E+01	  0.024609219	5.371300E+01	  0.024609219	5.066500E+01	  0.024609219	9.240000E-01
25	  0.024809619	-3.877100E+01	  0.024809619	5.173700E+01	  0.024809619	5.071000E+01	  0.024809619	9.170000E-01
26	  0.025010020	-3.868200E+01	  0.025010020	5.022800E+01	  0.025010020	5.074100E+01	  0.025010020	9.070000E-01
27	  0.025210422	-3.849900E+01	  0.025210422	4.952900E+01	  0.025210422	5.076900E+01	  0.025210422	9.180000E-01
28	  0.025410822	-3.816100E+01	  0.025410822	4.896000E+01	  0.025410822	5.080900E+01	  0.025410822	9.470000E-01
29	  0.025611224	-3.805000E+01	  0.025611224	4.876800E+01	  0.025611224	5.082200E+01	  0.025611224	9.560000E-01
30	  0.025811624	-3.775500E+01	  0.025811624	4.850100E+01	  0.025811624	5.085500E+01	  0.025811624	9.860000E-01
31	  0.026012026	-3.749300E+01	  0.026012026	4.859700E+01	  0.026012026	5.088000E+01	  0.026012026	1.018000E+00
32	  0.026212426	-3.736800E+01	  0.026212426	4.921400E+01	  0.026212426	5.088100E+01	  0.026212426	1.043000E+00
33	  0.026412826	-3.716600E+01	  0.026412826	4.965400E+01	  0.026412826	5.089300E+01	  0.026412826	1.075000E+00
34	  0.026613226	-3.695500E+01	  0.026613226	5.019100E+01	  0.026613226	5.090500E+01	  0.026613226	1.110000E+00
35	  0.026813626	-3.685000E+01	  0.026813626	5.143000E+01	  0.026813626	5.089100E+01	  0.026813626	1.143000E+00
36	  0.027014028	-3.678600E+01	  0.027014028	5.277800E+01	  0.027014028	5.086900E+01	  0.027014028	1.173000E+00
37	  0.027214428	-3.676800E+01	  0.027214428	5.376300E+01	  0.027214428	5.085000E+01	  0.027214428	1.190000E+00
38	  0.027414829	-3.679500E+01	  0.027414829	5.467700E+01	  0.027414829	5.082800E+01	  0.027414829	1.199000E+00
39	  0.027615231	-3.678500E+01	  0.027615231	5.546600E+01	  0.027615231	5.081200E+01	  0.027615231	1.212000E+00
40	  0.027815631	-3.684000E+01	  0.027815631	5.640500E+01	  0.027815631	5.078700E+01	  0.027815631	1.217000E+00
41	  0.028016033	-3.697400E+01	  0.028016033	5.741800E+01	  0.028016033	5.075400E+01	  0.028016033	1.212000E+00
42	  0.028216433	-3.716100E+01	  0.028216433	5.773000E+01	  0.028216433	5.073100E+01	  0.028216433	1.189000E+00
43	  0.028416833	-3.726600E+01	  0.028416833	5.754100E+01	  0.028416833	5.072600E+01	  0.028416833	1.172000E+00
44	  0.028617235	-3.738100E+01	  0.028617235	5.782500E+01	  0.028617235	5.071100E+01	  0.028617235	1.160000E+00
45	  0.028817635	-3.755900E+01	  0.028817635	5.721600E+01	  0.028817635	5.070900E+01	  0.028817635	1.129000E+00
46	  0.029018037	-3.787900E+01	  0.029018037	5.656400E+01	  0.029018037	5.069600E+01	  0.029018037	1.080000E+00
47	  0.029218437	-3.796800E+01	  0.029218437	5.517900E+01	  0.029218437	5.071500E+01	  0.029218437	1.052000E+00
48	  0.029418837	-3.809700E+01	  0.029418837	5.387100E+01	  0.029418837	5.072900E+01	  0.029418837	1.020000E+00
49	  0.029619239	-3.812600E+01	  0.029619239	5.256800E+01	  0.029619239	5.074900E+01	  0.029619239	1.000000E+00
50	  0.029819639	-3.819900E+01	  0.029819639	4.983800E+01	  0.029819639	5.079000E+01	  0.029819639	9.550000E-01
51	  0.030020041	-3.803700E+01	  0.030020041	4.781200E+01	  0.030020041	5.084000E+01	  0.030020041	9.440000E-01
52	  0.030220442	-3.798500E+01	  0.030220442	4.622800E+01	  0.030220442	5.087100E+01	  0.030220442	9.260000E-01
53	  0.030420844	-3.782300E+01	  0.030420844	4.467700E+01	  0.030420844	5.091300E+01	  0.030420844	9.200000E-01
54	  0.030621244	-3.756000E+01	  0.030621244	4.309400E+01	  0.030621244	5.096700E+01	  0.030621244	9.220000E-01
55	  0.030821644	-3.729100E+01	  0.030821644	4.272000E+01	  0.030821644	5.100400E+01	  0.030821644	9.450000E-01
56	  0.031022044	-3.692400E+01	  0.031022044	4.145800E+01	  0.031022044	5.107000E+01	  0.031022044	9.630000E-01
57	  0.031222444	-3.664000E+01	  0.031222444	4.153000E+01	  0.031222444	5.110400E+01	  0.031222444	9.970000E-01
58	  0.031422846	-3.632300E+01	  0.031422846	4.186100E+01	  0.031422846	5.113900E+01	  0.031422846	1.042000E+00
59	  0.031623244	-3.602800E+01	  0.031623244	4.207600E+01	  0.031623244	5.117400E+01	  0.031623244	1.083000E+00
60	  0.031823646	-3.583700E+01	  0.031823646	4.259900E+01	  0.031823646	5.119000E+01	  0.031823646	1.119000E+00
61	  0.032024048	-3.558000E+01	  0.032024048	4.386200E+01	  0.032024048	5.120000E+01	  0.032024048	1.180000E+00
62	  0.032224450	-3.545700E+01	  0.032224450	4.506300E+01	  0.032224450	5.119100E+01	  0.032224450	1.223000E+00
63	  0.032424849	-3.526200E+01	  0.032424849	4.574000E+01	  0.032424849	5.120200E+01	  0.032424849	1.265000E+00
64	  0.032625251	-3.518800E+01	  0.032625251	4.746300E+01	  0.032625251	5.117300E+01	  0.032625251	1.312000E+00
65	  0.032825653	-3.512200E+01	  0.032825653	4.850800E+01	  0.032825653	5.115700E+01	  0.032825653	1.344000E+00
66	  0.033026051	-3.511600E+01	  0.033026051	4.954900E+01	  0.033026051	5.113300E+01	  0.033026051	1.365000E+00
67	  0.033226453	-3.512100E+01	  0.033226453	5.125700E+01	  0.033226453	5.109000E+01	  0.033226453	1.397000E+00
68	  0.033426855	-3.516500E+01	  0.033426855	5.252700E+01	  0.033426855	5.105300E+01	  0.033426855	1.414000E+00
69	  0.033627257	-3.520000E+01	  0.033627257	5.314200E+01	  0.033627257	5.103300E+01	  0.033627257	1.419000E+00
70	  0.033827655	-3.535400E+01	  0.033827655	5.421900E+01	  0.033827655	5.098800E+01	  0.033827655	1.412000E+00
71	  0.034028057	-3.560200E+01	  0.034028057	5.457600E+01	  0.034028057	5.095200E+01	  0.034028057	1.378000E+00
72	  0.034228459	-3.567400E+01	  0.034228459	5.537800E+01	  0.034228459	5.092400E+01	  0.034228459	1.379000E+00
73	  0.034428857	-3.586200E+01	  0.034428857	5.572200E+01	  0.034428857	5.089600E+01	  0.034428857	1.354000E+00
74	  0.034629259	-3.609900E+01	  0.034629259	5.523400E+01	  0.034629259	5.088400E+01	  0.034629259	1.310000E+00
75	  0.034829661	-3.630700E+01	  0.034829661	5.503000E+01	  0.034829661	5.086800E+01	  0.034829661	1.275000E+00
76	  0.035030060	-3.648400E+01	  0.035030060	5.414600E+01	  0.035030060	5.087000E+01	  0.035030060	1.236000E+00
77	  0.035230462	-3.660700E+01	  0.035230462	5.324300E+01	  0.035230462	5.087700E+01	  0.035230462	1.205000E+00
78	  0.035430863	-3.668400E+01	  0.035430863	5.241900E+01	  0.035430863	5.088700E+01	  0.035430863	1.181000E+00
79	  0.035631265	-3.675900E+01	  0.035631265	5.086300E+01	  0.035631265	5.091100E+01	  0.035631265	1.147000E+00
80	  0.035831664	-3.676500E+01	  0.035831664	4.860400E+01	  0.035831664	5.095600E+01	  0.035831664	1.109000E+00
81	  0.036032066	-3.678100E+01	  0.036032066	4.712100E+01	  0.036032066	5.098300E+01	  0.036032066	1.082000E+00
82	  0.036232468	-3.670600E+01	  0.036232468	4.634400E+01	  0.036232468	5.100700E+01	  0.036232468	1.078000E+00
83	  0.036432866	-3.666400E+01	  0.036432866	4.470500E+01	  0.036432866	5.104300E+01	  0.036432866	1.054000E+00
84	  0.036633268	-3.644700E+01	  0.036633268	4.347300E+01	  0.036633268	5.109300E+01	  0.036633268	1.058000E+00
85	  0.036833670	-3.626300E+01	  0.036833670	4.235700E+01	  0.036833670	5.113800E+01	  0.036833670	1.059000E+00
86	  0.037034072	-3.611100E+01	  0.037034072	4.180300E+01	  0.037034072	5.116800E+01	  0.037034072	1.067000E+00
87	  0.037234470	-3.598200E+01	  0.037234470	4.067900E+01	  0.037234470	5.120700E+01	  0.037234470	1.060000E+00
88	  0.037434869	-3.568600E+01	  0.037434869	4.114900E+01	  0.037434869	5.124000E+01	  0.037434869	1.108000E+00
89	  0.037635271	-3.556200E+01	  0.037635271	4.129900E+01	  0.037635271	5.125500E+01	  0.037635271	1.128000E+00
90	  0.037835669	-3.530300E+01	  0.037835669	4.142100E+01	  0.037835669	5.129100E+01	  0.037835669	1.165000E+00
91	  0.038036071	-3.525100E+01	  0.038036071	4.164100E+01	  0.038036071	5.129400E+01	  0.038036071	1.177000E+00
92	  0.038236473	-3.513100E+01	  0.038236473	4.176000E+01	  0.038236473	5.130900E+01	  0.038236473	1.197000E+00
93	  0.038436871	-3.502400E+01	  0.038436871	4.223600E+01	  0.038436871	5.131500E+01	  0.038436871	1.223000E+00
94	  0.038637273	-3.495300E+01	  0.038637273	4.244300E+01	  0.038637273	5.132100E+01	  0.038637273	1.238000E+00
95	  0.038837675	-3.484300E+01	  0.038837675	4.259000E+01	  0.038837675	5.133500E+01	  0.038837675	1.258000E+00
96	  0.039038073	-3.481900E+01	  0.039038073	4.305600E+01	  0.039038073	5.132800E+01	  0.039038073	1.272000E+00
97	  0.039238475	-3.475400E+01	  0.039238475	4.340100E+01	  0.039238475	5.133000E+01	  0.039238475	1.290000E+00
98	  0.039438877	-3.467200E+01	  0.039438877	4.381800E+01	  0.039438877	5.133300E+01	  0.039438877	1.313000E+00
99	  0.039639279	-3.463300E+01	  0.039639279	4.377500E+01	  0.039639279	5.134000E+01	  0.039639279	1.318000E+00
100	  0.039839678	-3.457600E+01	  0.039839678	4.385100E+01	  0.039839678	5.134700E+01	  0.039839678	1.328000E+00
101	  0.040040080	-3.457300E+01	  0.040040080	4.397900E+01	  0.040040080	5.134400E+01	  0.040040080	1.332000E+00
102	  0.040240481	-3.449800E+01	  0.040240481	4.442800E+01	  0.040240481	5.134500E+01	  0.040240481	1.354000E+00
103	  0.040440880	-3.459200E+01	  0.040440880	4.438500E+01	  0.040440880	5.133200E+01	  0.040440880	1.338000E+00
104	  0.040641282	-3.452400E+01	  0.040641282	4.500900E+01	  0.040641282	5.132700E+01	  0.040641282	1.364000E+00
105	  0.040841684	-3.450100E+01	  0.040841684	4.499300E+01	  0.040841684	5.133100E+01	  0.040841684	1.367000E+00
106	  0.041042086	-3.444200E+01	  0.041042086	4.505900E+01	  0.041042086	5.133800E+01	  0.041042086	1.378000E+00
107	  0.041242484	-3.434000E+01	  0.041242484	4.539300E+01	  0.041242484	5.134600E+01	  0.041242484	1.403000E+00
108	  0.041442886	-3.433200E+01	  0.041442886	4.541700E+01	  0.041442886	5.134600E+01	  0.041442886	1.405000E+00
109	  0.041643288	-3.433800E+01	  0.041643288	4.564600E+01	  0.041643288	5.134000E+01	  0.041643288	1.409000E+00
110	  0.041843686	-3.433000E+01	  0.041843686	4.662800E+01	  0.041843686	5.131600E+01	  0.041843686	1.433000E+00
111	  0.042044088	-3.427900E+01	  0.042044088	4.697000E+01	  0.042044088	5.131500E+01	  0.042044088	1.450000E+00
112	  0.042244490	-3.424700E+01	  0.042244490	4.706100E+01	  0.042244490	5.131700E+01	  0.042244490	1.457000E+00
113	  0.042444889	-3.430600E+01	  0.042444889	4.772100E+01	  0.042444889	5.129100E+01	  0.042444889	1.462000E+00
114	  0.042645290	-3.439200E+01	  0.042645290	4.851900E+01	  0.042645290	5.125800E+01	  0.042645290	1.465000E+00
115	  0.042845692	-3.442600E+01	  0.042845692	4.925500E+01	  0.042845692	5.123300E+01	  0.042845692	1.475000E+00
116	  0.043046094	-3.451800E+01	  0.043046094	4.945300E+01	  0.043046094	5.121500E+01	  0.043046094	1.463000E+00
117	  0.043246493	-3.460000E+01	  0.043246493	4.988400E+01	  0.043246493	5.119300E+01	  0.043246493	1.458000E+00
118	  0.043446895	-3.482100E+01	  0.043446895	5.037500E+01	  0.043446895	5.115100E+01	  0.043446895	1.430000E+00
119	  0.043647297	-3.493200E+01	  0.043647297	5.031200E+01	  0.043647297	5.113800E+01	  0.043647297	1.410000E+00
120	  0.043847695	-3.515900E+01	  0.043847695	5.025900E+01	  0.043847695	5.111000E+01	  0.043847695	1.372000E+00
121	  0.044048097	-3.531000E+01	  0.044048097	4.926200E+01	  0.044048097	5.111400E+01	  0.044048097	1.329000E+00
122	  0.044248499	-3.551700E+01	  0.044248499	4.810700E+01	  0.044248499	5.111500E+01	  0.044248499	1.275000E+00
123	  0.044448901	-3.568300E+01	  0.044448901	4.725600E+01	  0.044448901	5.111300E+01	  0.044448901	1.234000E+00
124	  0.044649299	-3.585500E+01	  0.044649299	4.543700E+01	  0.044649299	5.112900E+01	  0.044649299	1.174000E+00
125	  0.044849701	-3.601400E+01	  0.044849701	4.375400E+01	  0.044849701	5.114300E+01	  0.044849701	1.119000E+00
126	  0.045050103	-3.609300E+01	  0.045050103	4.206000E+01	  0.045050103	5.116600E+01	  0.045050103	1.075000E+00
127	  0.045250501	-3.604400E+01	  0.045250501	3.956400E+01	  0.045250501	5.121900E+01	  0.045250501	1.029000E+00
128	  0.045450903	-3.590300E+01	  0.045450903	3.731600E+01	  0.045450903	5.128100E+01	  0.045450903	9.960000E-01
129	  0.045651305	-3.578700E+01	  0.045651305	3.482100E+01	  0.045651305	5.134200E+01	  0.045651305	9.520000E-01
130	  0.045851704	-3.555500E+01	  0.045851704	3.343900E+01	  0.045851704	5.140200E+01	  0.045851704	9.450000E-01
131	  0.046052106	-3.524900E+01	  0.046052106	3.122000E+01	  0.046052106	5.149100E+01	  0.046052106	9.220000E-01
132	  0.046252504	-3.498700E+01	  0.046252504	2.954300E+01	  0.046252504	5.156500E+01	  0.046252504	9.050000E-01
133	  0.046452906	-3.467500E+01	  0.046452906	2.872100E+01	  0.046452906	5.163700E+01	  0.046452906	9.160000E-01
134	  0.046653304	-3.432900E+01	  0.046653304	2.842500E+01	  0.046653304	5.170900E+01	  0.046653304	9.460000E-01
135	  0.046853706	-3.392400E+01	  0.046853706	2.842500E+01	  0.046853706	5.179200E+01	  0.046853706	9.920000E-01
136	  0.047054108	-3.359500E+01	  0.047054108	2.855400E+01	  0.047054108	5.186000E+01	  0.047054108	1.036000E+00
137	  0.047254506	-3.335800E+01	  0.047254506	2.917400E+01	  0.047254506	5.189900E+01	  0.047254506	1.087000E+00
138	  0.047454908	-3.305800E+01	  0.047454908	2.973000E+01	  0.047454908	5.195600E+01	  0.047454908	1.146000E+00
139	  0.047655310	-3.278000E+01	  0.047655310	3.112700E+01	  0.047655310	5.198900E+01	  0.047655310	1.234000E+00
140	  0.047855709	-3.255300E+01	  0.047855709	3.283900E+01	  0.047855709	5.200200E+01	  0.047855709	1.329000E+00
141	  0.048056111	-3.237700E+01	  0.048056111	3.417300E+01	  0.048056111	5.201000E+01	  0.048056111	1.406000E+00
142	  0.048256513	-3.223300E+01	  0.048256513	3.565700E+01	  0.048256513	5.200500E+01	  0.048256513	1.483000E+00
143	  0.048456915	-3.212000E+01	  0.048456915	3.707400E+01	  0.048456915	5.199200E+01	  0.048456915	1.553000E+00
144	  0.048657313	-3.206900E+01	  0.048657313	3.881100E+01	  0.048657313	5.195400E+01	  0.048657313	1.623000E+00
145	  0.048857715	-3.203900E+01	  0.048857715	4.048500E+01	  0.048857715	5.191000E+01	  0.048857715	1.686000E+00
146	  0.049058117	-3.202600E+01	  0.049058117	4.226200E+01	  0.049058117	5.185800E+01	  0.049058117	1.747000E+00
147	  0.049258515	-3.211500E+01	  0.049258515	4.356100E+01	  0.049258515	5.179800E+01	  0.049258515	1.770000E+00
148	  0.049458917	-3.221900E+01	  0.049458917	4.544700E+01	  0.049458917	5.171600E+01	  0.049458917	1.806000E+00
149	  0.049659319	-3.246500E+01	  0.049659319	4.649700E+01	  0.049659319	5.163400E+01	  0.049659319	1.784000E+00
150	  0.049859721	-3.258800E+01	  0.049859721	4.748900E+01	  0.049859721	5.158000E+01	  0.049859721	1.786000E+00
151	  0.050060119	-3.285500E+01	  0.050060119	4.856600E+01	  0.050060119	5.149800E+01	  0.050060119	1.758000E+00
152	  0.050260521	-3.303200E+01	  0.050260521	4.881200E+01	  0.050260521	5.146100E+01	  0.050260521	1.728000E+00
153	  0.050460923	-3.331500E+01	  0.050460923	4.965900E+01	  0.050460923	5.138900E+01	  0.050460923	1.692000E+00
154	  0.050661322	-3.352100E+01	  0.050661322	4.948600E+01	  0.050661322	5.136100E+01	  0.050661322	1.647000E+00
155	  0.050861724	-3.378400E+01	  0.050861724	4.860100E+01	  0.050861724	5.134600E+01	  0.050861724	1.576000E+00
156	  0.051062126	-3.403100E+01	  0.051062126	4.793800E+01	  0.051062126	5.132700E+01	  0.051062126	1.515000E+00
157	  0.051262524	-3.420600E+01	  0.051262524	4.724300E+01	  0.051262524	5.131900E+01	  0.051262524	1.468000E+00
158	  0.051462926	-3.438400E+01	  0.051462926	4.596800E+01	  0.051462926	5.132400E+01	  0.051462926	1.409000E+00
159	  0.051663328	-3.446200E+01	  0.051663328	4.343700E+01	  0.051663328	5.137500E+01	  0.051663328	1.336000E+00
160	  0.051863730	-3.456200E+01	  0.051863730	4.178900E+01	  0.051863730	5.139700E+01	  0.051863730	1.281000E+00
161	  0.052064128	-3.458800E+01	  0.052064128	4.041600E+01	  0.052064128	5.142400E+01	  0.052064128	1.243000E+00
162	  0.052264530	-3.455900E+01	  0.052264530	3.849100E+01	  0.052264530	5.147100E+01	  0.052264530	1.199000E+00
163	  0.052464932	-3.452900E+01	  0.052464932	3.714500E+01	  0.052464932	5.150500E+01	  0.052464932	1.168000E+00
164	  0.052665330	-3.429400E+01	  0.052665330	3.535400E+01	  0.052665330	5.158500E+01	  0.052665330	1.151000E+00
165	  0.052865732	-3.415100E+01	  0.052865732	3.457800E+01	  0.052865732	5.162700E+01	  0.052865732	1.149000E+00
166	  0.053066134	-3.397100E+01	  0.053066134	3.333400E+01	  0.053066134	5.168800E+01	  0.053066134	1.137000E+00
167	  0.053266536	-3.379200E+01	  0.053266536	3.318700E+01	  0.053266536	5.172600E+01	  0.053266536	1.157000E+00
168	  0.053466935	-3.354300E+01	  0.053466935	3.257800E+01	  0.053466935	5.179000E+01	  0.053466935	1.173000E+00
169	  0.053667337	-3.335700E+01	  0.053667337	3.266000E+01	  0.053667337	5.182700E+01	  0.053667337	1.202000E+00
170	  0.053867739	-3.317800E+01	  0.053867739	3.300500E+01	  0.053867739	5.185800E+01	  0.053867739	1.239000E+00
171	  0.054068137	-3.298100E+01	  0.054068137	3.361600E+01	  0.054068137	5.188700E+01	  0.054068137	1.289000E+00
172	  0.054268539	-3.297300E+01	  0.054268539	3.393000E+01	  0.054268539	5.188100E+01	  0.054268539	1.301000E+00
173	  0.054468941	-3.279400E+01	  0.054468941	3.452400E+01	  0.054468941	5.190700E+01	  0.054468941	1.349000E+00
174	  0.054669339	-3.278000E+01	  0.054669339	3.510100E+01	  0.054669339	5.189500E+01	  0.054669339	1.371000E+00
175	  0.054869737	-3.280600E+01	  0.054869737	3.581800E+01	  0.054869737	5.187200E+01	  0.054869737	1.390000E+00
176	  0.055070139	-3.270600E+01	  0.055070139	3.601700E+01	  0.055070139	5.188900E+01	  0.055070139	1.413000E+00
177	  0.055270538	-3.275700E+01	  0.055270538	3.644600E+01	  0.055270538	5.186700E+01	  0.055270538	1.419000E+00
178	  0.055470940	-3.277600E+01	  0.055470940	3.620800E+01	  0.055470940	5.186800E+01	  0.055470940	1.408000E+00
179	  0.055671342	-3.285000E+01	  0.055671342	3.688000E+01	  0.055671342	5.183500E+01	  0.055671342	1.417000E+00
180	  0.055871744	-3.297300E+01	  0.055871744	3.742500E+01	  0.055871744	5.179600E+01	  0.055871744	1.414000E+00
181	  0.056072142	-3.297700E+01	  0.056072142	3.717400E+01	  0.056072142	5.180100E+01	  0.056072142	1.405000E+00
182	  0.056272544	-3.306500E+01	  0.056272544	3.632100E+01	  0.056272544	5.180400E+01	  0.056272544	1.364000E+00
183	  0.056472946	-3.310200E+01	  0.056472946	3.622600E+01	  0.056472946	5.179900E+01	  0.056472946	1.355000E+00
184	  0.056673344	-3.311000E+01	  0.056673344	3.537700E+01	  0.056673344	5.181800E+01	  0.056673344	1.326000E+00
185	  0.056873746	-3.321900E+01	  0.056873746	3.483400E+01	  0.056873746	5.180700E+01	  0.056873746	1.292000E+00
186	  0.057074148	-3.317800E+01	  0.057074148	3.393800E+01	  0.057074148	5.183700E+01	  0.057074148	1.270000E+00
187	  0.057274550	-3.304800E+01	  0.057274550	3.337300E+01	  0.057274550	5.187800E+01	  0.057274550	1.271000E+00
188	  0.057474948	-3.296000E+01	  0.057474948	3.288400E+01	  0.057474948	5.190900E+01	  0.057474948	1.268000E+00
189	  0.057675350	-3.294200E+01	  0.057675350	3.173200E+01	  0.057675350	5.193900E+01	  0.057675350	1.231000E+00
190	  0.057875752	-3.282200E+01	  0.057875752	3.154200E+01	  0.057875752	5.197000E+01	  0.057875752	1.243000E+00
191	  0.058076151	-3.266100E+01	  0.058076151	3.100700E+01	  0.058076151	5.202000E+01	  0.058076151	1.248000E+00
192	  0.058276553	-3.255700E+01	  0.058276553	3.088300E+01	  0.058276553	5.204700E+01	  0.058276553	1.259000E+00
193	  0.058476955	-3.236800E+01	  0.058476955	3.081000E+01	  0.058476955	5.209500E+01	  0.058476955	1.285000E+00
194	  0.058677353	-3.222900E+01	  0.058677353	3.111400E+01	  0.058677353	5.212200E+01	  0.058677353	1.318000E+00
195	  0.058877755	-3.212100E+01	  0.058877755	3.203200E+01	  0.058877755	5.212600E+01	  0.058877755	1.370000E+00
196	  0.059078157	-3.203900E+01	  0.059078157	3.219500E+01	  0.059078157	5.214200E+01	  0.059078157	1.390000E+00
197	  0.059278559	-3.193200E+01	  0.059278559	3.292000E+01	  0.059278559	5.215000E+01	  0.059278559	1.435000E+00
198	  0.059478957	-3.190000E+01	  0.059478957	3.357400E+01	  0.059478957	5.214100E+01	  0.059478957	1.466000E+00
199	  0.059679359	-3.182100E+01	  0.059679359	3.384800E+01	  0.059679359	5.215300E+01	  0.059679359	1.490000E+00
200	  0.059879761	-3.178700E+01	  0.059879761	3.500300E+01	  0.059879761	5.213000E+01	  0.059879761	1.540000E+00
201	  0.060080159	-3.185300E+01	  0.060080159	3.575700E+01	  0.060080159	5.209300E+01	  0.060080159	1.556000E+00
202	  0.060280561	-3.180700E+01	  0.060280561	3.674800E+01	  0.060280561	5.207500E+01	  0.060280561	1.601000E+00
203	  0.060480963	-3.190700E+01	  0.060480963	3.741100E+01	  0.060480963	5.203200E+01	  0.060480963	1.606000E+00
204	  0.060681365	-3.198500E+01	  0.060681365	3.791800E+01	  0.060681365	5.199900E+01	  0.060681365	1.609000E+00
205	  0.060881764	-3.208400E+01	  0.060881764	3.878600E+01	  0.060881764	5.195100E+01	  0.060881764	1.620000E+00
206	  0.061082166	-3.220100E+01	  0.061082166	3.913100E+01	  0.061082166	5.191500E+01	  0.061082166	1.609000E+00
207	  0.061282568	-3.234000E+01	  0.061282568	3.935700E+01	  0.061282568	5.187800E+01	  0.061282568	1.590000E+00
208	  0.061482966	-3.252200E+01	  0.061482966	3.945600E+01	  0.061482966	5.183600E+01	  0.061482966	1.559000E+00
209	  0.061683368	-3.271300E+01	  0.061683368	3.915300E+01	  0.061683368	5.180400E+01	  0.061683368	1.514000E+00
210	  0.061883770	-3.283300E+01	  0.061883770	3.870800E+01	  0.061883770	5.179100E+01	  0.061883770	1.478000E+00
211	  0.062084168	-3.300600E+01	  0.062084168	3.816000E+01	  0.062084168	5.177000E+01	  0.062084168	1.431000E+00
212	  0.062284570	-3.312400E+01	  0.062284570	3.698300E+01	  0.062284570	5.177500E+01	  0.062284570	1.375000E+00
213	  0.062484972	-3.317300E+01	  0.062484972	3.601000E+01	  0.062484972	5.178900E+01	  0.062484972	1.336000E+00
214	  0.062685370	-3.330500E+01	  0.062685370	3.456700E+01	  0.062685370	5.179600E+01	  0.062685370	1.270000E+00
215	  0.062885776	-3.329800E+01	  0.062885776	3.273000E+01	  0.062885776	5.183800E+01	  0.062885776	1.213000E+00
216	  0.063086174	-3.322700E+01	  0.063086174	3.173300E+01	  0.063086174	5.187500E+01	  0.063086174	1.190000E+00
217	  0.063286573	-3.318900E+01	  0.063286573	3.028500E+01	  0.063286573	5.191500E+01	  0.063286573	1.147000E+00
218	  0.063486971	-3.313300E+01	  0.063486971	2.949200E+01	  0.063486971	5.194300E+01	  0.063486971	1.128000E+00
219	  0.063687377	-3.308800E+01	  0.063687377	2.838600E+01	  0.063687377	5.197600E+01	  0.063687377	1.095000E+00
220	  0.063887775	-3.294800E+01	  0.063887775	2.733100E+01	  0.063887775	5.203000E+01	  0.063887775	1.076000E+00
221	  0.064088173	-3.274400E+01	  0.064088173	2.596600E+01	  0.064088173	5.210500E+01	  0.064088173	1.052000E+00
222	  0.064288579	-3.258800E+01	  0.064288579	2.664400E+01	  0.064288579	5.213100E+01	  0.064288579	1.098000E+00
223	  0.064488977	-3.240300E+01	  0.064488977	2.579100E+01	  0.064488977	5.219500E+01	  0.064488977	1.089000E+00
224	  0.064689375	-3.227500E+01	  0.064689375	2.562200E+01	  0.064689375	5.223100E+01	  0.064689375	1.099000E+00
225	  0.064889781	-3.213700E+01	  0.064889781	2.566800E+01	  0.064889781	5.226600E+01	  0.064889781	1.120000E+00
226	  0.065090179	-3.192600E+01	  0.065090179	2.606400E+01	  0.065090179	5.231500E+01	  0.065090179	1.165000E+00
227	  0.065290578	-3.184000E+01	  0.065290578	2.617500E+01	  0.065290578	5.233600E+01	  0.065290578	1.182000E+00
228	  0.065490983	-3.174700E+01	  0.065490983	2.718700E+01	  0.065490983	5.233900E+01	  0.065490983	1.237000E+00
229	  0.065691382	-3.168900E+01	  0.065691382	2.745700E+01	  0.065691382	5.234900E+01	  0.065691382	1.257000E+00
230	  0.065891780	-3.161700E+01	  0.065891780	2.803200E+01	  0.065891780	5.235500E+01	  0.065891780	1.292000E+00
231	  0.066092186	-3.158500E+01	  0.066092186	2.851100E+01	  0.066092186	5.235300E+01	  0.066092186	1.317000E+00
232	  0.066292584	-3.159700E+01	  0.066292584	2.868400E+01	  0.066292584	5.234500E+01	  0.066292584	1.323000E+00
233	  0.066492982	-3.159400E+01	  0.066492982	2.903900E+01	  0.066492982	5.233700E+01	  0.066492982	1.338000E+00
234	  0.066693388	-3.165000E+01	  0.066693388	2.973400E+01	  0.066693388	5.230500E+01	  0.066693388	1.357000E+00
235	  0.066893786	-3.168900E+01	  0.066893786	2.968300E+01	  0.066893786	5.229600E+01	  0.066893786	1.349000E+00
236	  0.067094192	-3.171400E+01	  0.067094192	3.020000E+01	  0.067094192	5.227600E+01	  0.067094192	1.366000E+00
237	  0.067294590	-3.172800E+01	  0.067294590	2.990600E+01	  0.067294590	5.228000E+01	  0.067294590	1.351000E+00
238	  0.067494988	-3.183700E+01	  0.067494988	2.940100E+01	  0.067494988	5.226300E+01	  0.067494988	1.314000E+00
239	  0.067695394	-3.188700E+01	  0.067695394	2.963200E+01	  0.067695394	5.224500E+01	  0.067695394	1.315000E+00
240	  0.067895792	-3.187700E+01	  0.067895792	2.923300E+01	  0.067895792	5.225700E+01	  0.067895792	1.301000E+00
241	  0.068096191	-3.200700E+01	  0.068096191	2.909600E+01	  0.068096191	5.222600E+01	  0.068096191	1.275000E+00
242	  0.068296596	-3.199600E+01	  0.068296596	2.826500E+01	  0.068296596	5.224800E+01	  0.068296596	1.244000E+00
243	  0.068496995	-3.197400E+01	  0.068496995	2.766600E+01	  0.068496995	5.226700E+01	  0.068496995	1.223000E+00
244	  0.068697393	-3.196600E+01	  0.068697393	2.684100E+01	  0.068697393	5.228700E+01	  0.068697393	1.191000E+00
245	  0.068897791	-3.185600E+01	  0.068897791	2.624100E+01	  0.068897791	5.233000E+01	  0.068897791	1.182000E+00
246	  0.069098189	-3.180600E+01	  0.069098189	2.630200E+01	  0.069098189	5.234200E+01	  0.069098189	1.192000E+00
247	  0.069298595	-3.173900E+01	  0.069298595	2.545600E+01	  0.069298595	5.237900E+01	  0.069298595	1.166000E+00
248	  0.069498993	-3.157200E+01	  0.069498993	2.518400E+01	  0.069498993	5.243200E+01	  0.069498993	1.178000E+00
249	  0.069699399	-3.147400E+01	  0.069699399	2.439300E+01	  0.069699399	5.247700E+01	  0.069699399	1.157000E+00
250	  0.069899797	-3.139700E+01	  0.069899797	2.486900E+01	  0.069899797	5.248900E+01	  0.069899797	1.189000E+00
251	  0.070100196	-3.129100E+01	  0.070100196	2.498000E+01	  0.070100196	5.251800E+01	  0.070100196	1.209000E+00
252	  0.070300601	-3.106400E+01	  0.070300601	2.545400E+01	  0.070300601	5.257500E+01	  0.070300601	1.265000E+00
253	  0.070501000	-3.105000E+01	  0.070501000	2.530000E+01	  0.070501000	5.258300E+01	  0.070501000	1.260000E+00
254	  0.070701398	-3.092300E+01	  0.070701398	2.566300E+01	  0.070701398	5.261300E+01	  0.070701398	1.296000E+00
255	  0.070901804	-3.084300E+01	  0.070901804	2.618600E+01	  0.070901804	5.262500E+01	  0.070901804	1.333000E+00
256	  0.071102202	-3.077200E+01	  0.071102202	2.690800E+01	  0.071102202	5.262900E+01	  0.071102202	1.379000E+00
257	  0.071302600	-3.073700E+01	  0.071302600	2.763200E+01	  0.071302600	5.262100E+01	  0.071302600	1.419000E+00
258	  0.071503006	-3.075700E+01	  0.071503006	2.835900E+01	  0.071503006	5.259600E+01	  0.071503006	1.449000E+00
259	  0.071703404	-3.077400E+01	  0.071703404	2.901200E+01	  0.071703404	5.257300E+01	  0.071703404	1.476000E+00
260	  0.071903802	-3.083400E+01	  0.071903802	2.975500E+01	  0.071903802	5.253500E+01	  0.071903802	1.499000E+00
261	  0.072104208	-3.082800E+01	  0.072104208	3.032600E+01	  0.072104208	5.252100E+01	  0.072104208	1.525000E+00
262	  0.072304606	-3.088800E+01	  0.072304606	3.125500E+01	  0.072304606	5.247700E+01	  0.072304606	1.555000E+00
263	  0.072505005	-3.105400E+01	  0.072505005	3.170100E+01	  0.072505005	5.241700E+01	  0.072505005	1.544000E+00
264	  0.072705410	-3.116600E+01	  0.072705410	3.237000E+01	  0.072705410	5.236700E+01	  0.072705410	1.551000E+00
265	  0.072905809	-3.129800E+01	  0.072905809	3.189900E+01	  0.072905809	5.234400E+01	  0.072905809	1.507000E+00
266	  0.073106214	-3.142300E+01	  0.073106214	3.241000E+01	  0.073106214	5.229600E+01	  0.073106214	1.505000E+00
267	  0.073306613	-3.152700E+01	  0.073306613	3.209500E+01	  0.073306613	5.227700E+01	  0.073306613	1.474000E+00
268	  0.073507011	-3.175100E+01	  0.073507011	3.198700E+01	  0.073507011	5.222100E+01	  0.073507011	1.431000E+00
269	  0.073707417	-3.187200E+01	  0.073707417	3.127700E+01	  0.073707417	5.220800E+01	  0.073707417	1.382000E+00
270	  0.073907815	-3.202900E+01	  0.073907815	3.054700E+01	  0.073907815	5.218600E+01	  0.073907815	1.328000E+00
271	  0.074108213	-3.210800E+01	  0.074108213	2.926600E+01	  0.074108213	5.219600E+01	  0.074108213	1.266000E+00
272	  0.074308619	-3.219400E+01	  0.074308619	2.839300E+01	  0.074308619	5.219300E+01	  0.074308619	1.219000E+00
273	  0.074509017	-3.229400E+01	  0.074509017	2.742400E+01	  0.074509017	5.218900E+01	  0.074509017	1.167000E+00
274	  0.074709415	-3.224800E+01	  0.074709415	2.593500E+01	  0.074709415	5.223200E+01	  0.074709415	1.115000E+00
275	  0.074909821	-3.226200E+01	  0.074909821	2.465400E+01	  0.074909821	5.225400E+01	  0.074909821	1.063000E+00
276	  0.075110219	-3.217400E+01	  0.075110219	2.303000E+01	  0.075110219	5.230800E+01	  0.075110219	1.008000E+00
277	  0.075310618	-3.216300E+01	  0.075310618	2.173600E+01	  0.075310618	5.233400E+01	  0.075310618	9.560000E-01
278	  0.075511023	-3.198700E+01	  0.075511023	2.084400E+01	  0.075511023	5.239800E+01	  0.075511023	9.380000E-01
279	  0.075711422	-3.178600E+01	  0.075711422	2.032200E+01	  0.075711422	5.246500E+01	  0.075711422	9.380000E-01
280	  0.075911827	-3.167000E+01	  0.075911827	1.919000E+01	  0.075911827	5.251800E+01	  0.075911827	9.010000E-01
281	  0.076112226	-3.154700E+01	  0.076112226	1.939900E+01	  0.076112226	5.255100E+01	  0.076112226	9.240000E-01
282	  0.076312624	-3.122900E+01	  0.076312624	1.873700E+01	  0.076312624	5.266000E+01	  0.076312624	9.290000E-01
283	  0.076513030	-3.112100E+01	  0.076513030	1.830300E+01	  0.076513030	5.270100E+01	  0.076513030	9.200000E-01
284	  0.076713428	-3.095900E+01	  0.076713428	1.880700E+01	  0.076713428	5.274500E+01	  0.076713428	9.630000E-01
285	  0.076913826	-3.077500E+01	  0.076913826	1.882400E+01	  0.076913826	5.280500E+01	  0.076913826	9.860000E-01
286	  0.077114232	-3.069100E+01	  0.077114232	1.894300E+01	  0.077114232	5.283000E+01	  0.077114232	1.002000E+00
287	  0.077314630	-3.060800E+01	  0.077314630	1.996200E+01	  0.077314630	5.283900E+01	  0.077314630	1.064000E+00
288	  0.077515028	-3.049300E+01	  0.077515028	2.069500E+01	  0.077515028	5.286200E+01	  0.077515028	1.117000E+00
289	  0.077715434	-3.034900E+01	  0.077715434	2.100900E+01	  0.077715434	5.290500E+01	  0.077715434	1.153000E+00
290	  0.077915832	-3.033400E+01	  0.077915832	2.198700E+01	  0.077915832	5.288900E+01	  0.077915832	1.206000E+00
291	  0.078116231	-3.031700E+01	  0.078116231	2.291300E+01	  0.078116231	5.287400E+01	  0.078116231	1.256000E+00
292	  0.078316636	-3.033500E+01	  0.078316636	2.351700E+01	  0.078316636	5.285300E+01	  0.078316636	1.284000E+00
293	  0.078517035	-3.030300E+01	  0.078517035	2.456200E+01	  0.078517035	5.283900E+01	  0.078517035	1.342000E+00
294	  0.078717433	-3.034200E+01	  0.078717433	2.496600E+01	  0.078717433	5.281600E+01	  0.078717433	1.356000E+00
295	  0.078917839	-3.042500E+01	  0.078917839	2.605700E+01	  0.078917839	5.276100E+01	  0.078917839	1.397000E+00
296	  0.079118237	-3.046500E+01	  0.079118237	2.631600E+01	  0.079118237	5.274100E+01	  0.079118237	1.402000E+00
297	  0.079318643	-3.055100E+01	  0.079318643	2.660100E+01	  0.079318643	5.270600E+01	  0.079318643	1.402000E+00
298	  0.079519041	-3.066500E+01	  0.079519041	2.725100E+01	  0.079519041	5.265400E+01	  0.079519041	1.413000E+00
299	  0.079719439	-3.074700E+01	  0.079719439	2.738500E+01	  0.079719439	5.262500E+01	  0.079719439	1.405000E+00
300	  0.079919845	-3.083500E+01	  0.079919845	2.687300E+01	  0.079919845	5.261100E+01	  0.079919845	1.367000E+00
301	  0.080120243	-3.097200E+01	  0.080120243	2.680300E+01	  0.080120243	5.257100E+01	  0.080120243	1.341000E+00
302	  0.080320641	-3.103100E+01	  0.080320641	2.685900E+01	  0.080320641	5.255200E+01	  0.080320641	1.334000E+00
303	  0.080521047	-3.112300E+01	  0.080521047	2.643500E+01	  0.080521047	5.253500E+01	  0.080521047	1.300000E+00
304	  0.080721445	-3.121200E+01	  0.080721445	2.560200E+01	  0.080721445	5.252800E+01	  0.080721445	1.249000E+00
305	  0.080921844	-3.130300E+01	  0.080921844	2.548100E+01	  0.080921844	5.250300E+01	  0.080921844	1.230000E+00
306	  0.081122249	-3.127900E+01	  0.081122249	2.432800E+01	  0.081122249	5.253600E+01	  0.081122249	1.182000E+00
307	  0.081322648	-3.125700E+01	  0.081322648	2.355400E+01	  0.081322648	5.255900E+01	  0.081322648	1.150000E+00
308	  0.081523046	-3.133500E+01	  0.081523046	2.304300E+01	  0.081523046	5.254700E+01	  0.081523046	1.116000E+00
309	  0.081723452	-3.132300E+01	  0.081723452	2.224100E+01	  0.081723452	5.256600E+01	  0.081723452	1.081000E+00
310	  0.081923850	-3.129700E+01	  0.081923850	2.130000E+01	  0.081923850	5.259200E+01	  0.081923850	1.041000E+00
311	  0.082124248	-3.124500E+01	  0.082124248	2.079400E+01	  0.082124248	5.261800E+01	  0.082124248	1.024000E+00
312	  0.082324654	-3.121700E+01	  0.082324654	2.017800E+01	  0.082324654	5.263800E+01	  0.082324654	9.980000E-01
313	  0.082525052	-3.114400E+01	  0.082525052	1.963700E+01	  0.082525052	5.267100E+01	  0.082525052	9.820000E-01
314	  0.082725458	-3.103600E+01	  0.082725458	1.919100E+01	  0.082725458	5.271300E+01	  0.082725458	9.730000E-01
315	  0.082925856	-3.089300E+01	  0.082925856	1.909300E+01	  0.082925856	5.276100E+01	  0.082925856	9.850000E-01
316	  0.083126254	-3.083000E+01	  0.083126254	1.901600E+01	  0.083126254	5.278300E+01	  0.083126254	9.890000E-01
317	  0.083326660	-3.076800E+01	  0.083326660	1.951500E+01	  0.083326660	5.279400E+01	  0.083326660	1.021000E+00
318	  0.083527058	-3.073800E+01	  0.083527058	1.966000E+01	  0.083527058	5.280100E+01	  0.083527058	1.032000E+00
319	  0.083727457	-3.055900E+01	  0.083727457	2.030100E+01	  0.083727457	5.284800E+01	  0.083727457	1.088000E+00
320	  0.083927862	-3.056600E+01	  0.083927862	1.993400E+01	  0.083927862	5.285300E+01	  0.083927862	1.068000E+00
321	  0.084128261	-3.050500E+01	  0.084128261	2.043800E+01	  0.084128261	5.286400E+01	  0.084128261	1.102000E+00
322	  0.084328659	-3.046700E+01	  0.084328659	2.062700E+01	  0.084328659	5.287300E+01	  0.084328659	1.117000E+00
323	  0.084529065	-3.046800E+01	  0.084529065	2.143100E+01	  0.084529065	5.285600E+01	  0.084529065	1.158000E+00
324	  0.084729463	-3.051300E+01	  0.084729463	2.191600E+01	  0.084729463	5.283000E+01	  0.084729463	1.176000E+00
325	  0.084929861	-3.055100E+01	  0.084929861	2.218900E+01	  0.084929861	5.281100E+01	  0.084929861	1.184000E+00
326	  0.085130267	-3.059000E+01	  0.085130267	2.295200E+01	  0.085130267	5.278200E+01	  0.085130267	1.217000E+00
327	  0.085330658	-3.060200E+01	  0.085330658	2.264600E+01	  0.085330658	5.278500E+01	  0.085330658	1.200000E+00
328	  0.085531056	-3.069100E+01	  0.085531056	2.287100E+01	  0.085531056	5.275100E+01	  0.085531056	1.198000E+00
329	  0.085731462	-3.069100E+01	  0.085731462	2.317000E+01	  0.085731462	5.274400E+01	  0.085731462	1.213000E+00
330	  0.085931860	-3.083100E+01	  0.085931860	2.331400E+01	  0.085931860	5.269600E+01	  0.085931860	1.199000E+00
331	  0.086132258	-3.089900E+01	  0.086132258	2.311800E+01	  0.086132258	5.267900E+01	  0.086132258	1.180000E+00
332	  0.086332664	-3.097100E+01	  0.086332664	2.311100E+01	  0.086332664	5.265600E+01	  0.086332664	1.169000E+00
333	  0.086533062	-3.118400E+01	  0.086533062	2.278500E+01	  0.086533062	5.259700E+01	  0.086533062	1.124000E+00
334	  0.086733460	-3.123600E+01	  0.086733460	2.236500E+01	  0.086733460	5.259000E+01	  0.086733460	1.098000E+00
335	  0.086933866	-3.127000E+01	  0.086933866	2.154800E+01	  0.086933866	5.259600E+01	  0.086933866	1.056000E+00
336	  0.087134264	-3.128000E+01	  0.087134264	2.105300E+01	  0.087134264	5.260200E+01	  0.087134264	1.032000E+00
337	  0.087334670	-3.137900E+01	  0.087334670	2.010800E+01	  0.087334670	5.258900E+01	  0.087334670	9.760000E-01
338	  0.087535068	-3.137400E+01	  0.087535068	1.962700E+01	  0.087535068	5.259900E+01	  0.087535068	9.540000E-01
339	  0.087735467	-3.144100E+01	  0.087735467	1.851300E+01	  0.087735467	5.259800E+01	  0.087735467	8.950000E-01
340	  0.087935872	-3.143500E+01	  0.087935872	1.806300E+01	  0.087935872	5.260700E+01	  0.087935872	8.750000E-01
341	  0.088136271	-3.142400E+01	  0.088136271	1.709900E+01	  0.088136271	5.262600E+01	  0.088136271	8.310000E-01
342	  0.088336669	-3.137800E+01	  0.088336669	1.619200E+01	  0.088336669	5.265300E+01	  0.088336669	7.920000E-01
343	  0.088537075	-3.137500E+01	  0.088537075	1.510800E+01	  0.088537075	5.267000E+01	  0.088537075	7.410000E-01
344	  0.088737473	-3.121400E+01	  0.088737473	1.455200E+01	  0.088737473	5.272900E+01	  0.088737473	7.290000E-01
345	  0.088937871	-3.110900E+01	  0.088937871	1.384700E+01	  0.088937871	5.277200E+01	  0.088937871	7.030000E-01
346	  0.089138277	-3.105500E+01	  0.089138277	1.356700E+01	  0.089138277	5.279300E+01	  0.089138277	6.940000E-01
347	  0.089338675	-3.095800E+01	  0.089338675	1.283900E+01	  0.089338675	5.283500E+01	  0.089338675	6.650000E-01
348	  0.089539073	-3.084200E+01	  0.089539073	1.189400E+01	  0.089539073	5.288500E+01	  0.089539073	6.260000E-01
349	  0.089739479	-3.073300E+01	  0.089739479	1.230100E+01	  0.089739479	5.291800E+01	  0.089739479	6.550000E-01
350	  0.089939877	-3.057300E+01	  0.089939877	1.206400E+01	  0.089939877	5.297600E+01	  0.089939877	6.560000E-01
351	  0.090140276	-3.045700E+01	  0.090140276	1.232000E+01	  0.090140276	5.301400E+01	  0.090140276	6.790000E-01
352	  0.090340681	-3.032400E+01	  0.090340681	1.229400E+01	  0.090340681	5.306300E+01	  0.090340681	6.890000E-01
353	  0.090541080	-3.030600E+01	  0.090541080	1.249900E+01	  0.090541080	5.306700E+01	  0.090541080	7.010000E-01
354	  0.090741485	-3.019100E+01	  0.090741485	1.299600E+01	  0.090741485	5.310200E+01	  0.090741485	7.390000E-01
355	  0.090941884	-3.007700E+01	  0.090941884	1.341000E+01	  0.090941884	5.313800E+01	  0.090941884	7.730000E-01
356	  0.091142282	-3.001000E+01	  0.091142282	1.397700E+01	  0.091142282	5.315500E+01	  0.091142282	8.110000E-01
357	  0.091342688	-2.991400E+01	  0.091342688	1.448000E+01	  0.091342688	5.318300E+01	  0.091342688	8.500000E-01
358	  0.091543086	-2.987300E+01	  0.091543086	1.533600E+01	  0.091543086	5.318500E+01	  0.091543086	9.030000E-01
359	  0.091743484	-2.991100E+01	  0.091743484	1.581600E+01	  0.091743484	5.316200E+01	  0.091743484	9.260000E-01
360	  0.091943890	-2.983100E+01	  0.091943890	1.658000E+01	  0.091943890	5.317900E+01	  0.091943890	9.790000E-01
361	  0.092144288	-2.985200E+01	  0.092144288	1.709000E+01	  0.092144288	5.316200E+01	  0.092144288	1.006000E+00
362	  0.092344686	-2.990000E+01	  0.092344686	1.792500E+01	  0.092344686	5.312800E+01	  0.092344686	1.047000E+00
363	  0.092545092	-2.992300E+01	  0.092545092	1.881000E+01	  0.092545092	5.310200E+01	  0.092545092	1.093000E+00
364	  0.092745490	-3.007300E+01	  0.092745490	1.939200E+01	  0.092745490	5.303600E+01	  0.092745490	1.105000E+00
365	  0.092945889	-3.015200E+01	  0.092945889	1.964400E+01	  0.092945889	5.300200E+01	  0.092945889	1.108000E+00
366	  0.093146294	-3.024100E+01	  0.093146294	2.029700E+01	  0.093146294	5.295700E+01	  0.093146294	1.131000E+00
367	  0.093346693	-3.040200E+01	  0.093346693	2.077400E+01	  0.093346693	5.289200E+01	  0.093346693	1.133000E+00
368	  0.093547091	-3.055200E+01	  0.093547091	2.068400E+01	  0.093547091	5.284300E+01	  0.093547091	1.108000E+00
369	  0.093747497	-3.066900E+01	  0.093747497	2.081300E+01	  0.093747497	5.280200E+01	  0.093747497	1.099000E+00
370	  0.093947895	-3.078700E+01	  0.093947895	2.060100E+01	  0.093947895	5.276700E+01	  0.093947895	1.073000E+00
371	  0.094148301	-3.099700E+01	  0.094148301	2.063300E+01	  0.094148301	5.269900E+01	  0.094148301	1.047000E+00
372	  0.094348699	-3.112800E+01	  0.094348699	2.036200E+01	  0.094348699	5.266200E+01	  0.094348699	1.018000E+00
373	  0.094549097	-3.126900E+01	  0.094549097	1.934100E+01	  0.094549097	5.263700E+01	  0.094549097	9.530000E-01
374	  0.094749503	-3.144500E+01	  0.094749503	1.850300E+01	  0.094749503	5.259700E+01	  0.094749503	8.940000E-01
375	  0.094949901	-3.153100E+01	  0.094949901	1.697300E+01	  0.094949901	5.259500E+01	  0.094949901	8.140000E-01
376	  0.095150299	-3.165700E+01	  0.095150299	1.625400E+01	  0.095150299	5.256700E+01	  0.095150299	7.690000E-01
377	  0.095350705	-3.172300E+01	  0.095350705	1.535100E+01	  0.095350705	5.255900E+01	  0.095350705	7.220000E-01
378	  0.095551103	-3.177300E+01	  0.095551103	1.386600E+01	  0.095551103	5.256300E+01	  0.095551103	6.500000E-01
379	  0.095751502	-3.181400E+01	  0.095751502	1.217600E+01	  0.095751502	5.256900E+01	  0.095751502	5.690000E-01
380	  0.095951907	-3.171000E+01	  0.095951907	1.076100E+01	  0.095951907	5.261500E+01	  0.095951907	5.100000E-01
381	  0.096152306	-3.166900E+01	  0.096152306	9.549000E+00	  0.096152306	5.263900E+01	  0.096152306	4.560000E-01
382	  0.096352704	-3.156500E+01	  0.096352704	8.095000E+00	  0.096352704	5.268300E+01	  0.096352704	3.920000E-01
383	  0.096553110	-3.147600E+01	  0.096553110	7.152000E+00	  0.096553110	5.271800E+01	  0.096553110	3.500000E-01
384	  0.096753508	-3.124000E+01	  0.096753508	6.034000E+00	  0.096753508	5.280100E+01	  0.096753508	3.040000E-01
385	  0.096953906	-3.112400E+01	  0.096953906	5.436000E+00	  0.096953906	5.284300E+01	  0.096953906	2.780000E-01
386	  0.097154312	-3.094200E+01	  0.097154312	4.649000E+00	  0.097154312	5.290900E+01	  0.097154312	2.430000E-01
387	  0.097354710	-3.080800E+01	  0.097354710	4.491000E+00	  0.097354710	5.295600E+01	  0.097354710	2.390000E-01
388	  0.097555116	-3.059800E+01	  0.097555116	4.498000E+00	  0.097555116	5.303100E+01	  0.097555116	2.450000E-01
389	  0.097755514	-3.042100E+01	  0.097755514	4.740000E+00	  0.097755514	5.309400E+01	  0.097755514	2.640000E-01
390	  0.097955912	-3.035600E+01	  0.097955912	4.617000E+00	  0.097955912	5.311900E+01	  0.097955912	2.590000E-01
391	  0.098156318	-3.019300E+01	  0.098156318	5.042000E+00	  0.098156318	5.317700E+01	  0.098156318	2.890000E-01
392	  0.098356716	-3.005100E+01	  0.098356716	5.276000E+00	  0.098356716	5.323000E+01	  0.098356716	3.080000E-01
393	  0.098557115	-2.995700E+01	  0.098557115	5.734000E+00	  0.098557115	5.326300E+01	  0.098557115	3.380000E-01
394	  0.098757520	-2.990900E+01	  0.098757520	6.349000E+00	  0.098757520	5.327800E+01	  0.098757520	3.760000E-01
395	  0.098957919	-2.985500E+01	  0.098957919	7.019000E+00	  0.098957919	5.329400E+01	  0.098957919	4.190000E-01
396	  0.099158317	-2.981400E+01	  0.099158317	7.314000E+00	  0.099158317	5.330800E+01	  0.099158317	4.380000E-01
397	  0.099358723	-2.978600E+01	  0.099358723	7.849000E+00	  0.099358723	5.331500E+01	  0.099358723	4.720000E-01
398	  0.099559121	-2.977500E+01	  0.099559121	8.401000E+00	  0.099559121	5.331400E+01	  0.099559121	5.060000E-01
399	  0.099759519	-2.975000E+01	  0.099759519	8.891000E+00	  0.099759519	5.331900E+01	  0.099759519	5.370000E-01
400	  0.099959925	-2.973800E+01	  0.099959925	9.484000E+00	  0.099959925	5.331800E+01	  0.099959925	5.730000E-01
401	  0.100160323	-2.982800E+01	  0.100160323	9.870000E+00	  0.100160323	5.327800E+01	  0.100160323	5.890000E-01
402	  0.100360721	-2.995600E+01	  0.100360721	9.410000E+00	  0.100360721	5.323300E+01	  0.100360721	5.530000E-01
403	  0.100561127	-2.989900E+01	  0.100561127	9.991000E+00	  0.100561127	5.324900E+01	  0.100561127	5.910000E-01
404	  0.100761525	-2.994000E+01	  0.100761525	1.051800E+01	  0.100761525	5.322800E+01	  0.100761525	6.190000E-01
405	  0.100961931	-2.999900E+01	  0.100961931	1.025200E+01	  0.100961931	5.320800E+01	  0.100961931	5.990000E-01
406	  0.101162329	-3.002200E+01	  0.101162329	1.009400E+01	  0.101162329	5.320100E+01	  0.101162329	5.880000E-01
407	  0.101362728	-3.007700E+01	  0.101362728	9.402000E+00	  0.101362728	5.318700E+01	  0.101362728	5.450000E-01
408	  0.101563133	-3.009700E+01	  0.101563133	1.008800E+01	  0.101563133	5.317300E+01	  0.101563133	5.830000E-01
409	  0.101763532	-3.013300E+01	  0.101763532	9.391000E+00	  0.101763532	5.316600E+01	  0.101763532	5.400000E-01
410	  0.101963930	-3.010200E+01	  0.101963930	9.508000E+00	  0.101963930	5.317700E+01	  0.101963930	5.490000E-01
411	  0.102164336	-3.010700E+01	  0.102164336	9.418000E+00	  0.102164336	5.317600E+01	  0.102164336	5.440000E-01
412	  0.102364734	-3.012100E+01	  0.102364734	9.093000E+00	  0.102364734	5.317400E+01	  0.102364734	5.240000E-01
413	  0.102565132	-3.010600E+01	  0.102565132	9.793000E+00	  0.102565132	5.317200E+01	  0.102565132	5.650000E-01
414	  0.102765530	-3.017200E+01	  0.102765530	8.366000E+00	  0.102765530	5.316200E+01	  0.102765530	4.800000E-01
415	  0.102965929	-3.011100E+01	  0.102965929	8.823000E+00	  0.102965929	5.318000E+01	  0.102965929	5.090000E-01
416	  0.103166327	-3.014300E+01	  0.103166327	8.857000E+00	  0.103166327	5.316800E+01	  0.103166327	5.090000E-01
417	  0.103366733	-3.007400E+01	  0.103366733	9.026000E+00	  0.103366733	5.319200E+01	  0.103366733	5.230000E-01
418	  0.103567131	-3.008800E+01	  0.103567131	8.627000E+00	  0.103567131	5.319100E+01	  0.103567131	5.000000E-01
419	  0.103767529	-2.998700E+01	  0.103767529	8.542000E+00	  0.103767529	5.323000E+01	  0.103767529	5.010000E-01
420	  0.103967935	-3.017800E+01	  0.103967935	8.958000E+00	  0.103967935	5.315400E+01	  0.103967935	5.130000E-01
421	  0.104168333	-3.015200E+01	  0.104168333	9.714000E+00	  0.104168333	5.315600E+01	  0.104168333	5.570000E-01
422	  0.104368731	-3.012500E+01	  0.104368731	9.752000E+00	  0.104368731	5.316600E+01	  0.104368731	5.610000E-01
423	  0.104569137	-3.010400E+01	  0.104569137	9.222000E+00	  0.104569137	5.317900E+01	  0.104569137	5.330000E-01
424	  0.104769535	-3.017700E+01	  0.104769535	9.306000E+00	  0.104769535	5.315100E+01	  0.104769535	5.330000E-01
425	  0.104969934	-3.019400E+01	  0.104969934	9.257000E+00	  0.104969934	5.314500E+01	  0.104969934	5.290000E-01
426	  0.105170339	-3.027700E+01	  0.105170339	9.545000E+00	  0.105170339	5.311100E+01	  0.105170339	5.400000E-01
427	  0.105370738	-3.036900E+01	  0.105370738	9.622000E+00	  0.105370738	5.307700E+01	  0.105370738	5.380000E-01
428	  0.105571143	-3.044700E+01	  0.105571143	9.515000E+00	  0.105571143	5.304900E+01	  0.105571143	5.270000E-01
429	  0.105771542	-3.044700E+01	  0.105771542	9.170000E+00	  0.105771542	5.305300E+01	  0.105771542	5.080000E-01
430	  0.105971940	-3.052400E+01	  0.105971940	9.918000E+00	  0.105971940	5.301800E+01	  0.105971940	5.440000E-01
431	  0.106172346	-3.062600E+01	  0.106172346	8.567000E+00	  0.106172346	5.299400E+01	  0.106172346	4.640000E-01
432	  0.106372744	-3.064400E+01	  0.106372744	8.320000E+00	  0.106372744	5.299000E+01	  0.106372744	4.500000E-01
433	  0.106573142	-3.063200E+01	  0.106573142	7.744000E+00	  0.106573142	5.299800E+01	  0.106573142	4.200000E-01
434	  0.106773548	-3.074000E+01	  0.106773548	6.230000E+00	  0.106773548	5.297100E+01	  0.106773548	3.340000E-01
435	  0.106973946	-3.072100E+01	  0.106973946	6.256000E+00	  0.106973946	5.297700E+01	  0.106973946	3.360000E-01
436	  0.107174344	-3.068800E+01	  0.107174344	5.383000E+00	  0.107174344	5.299400E+01	  0.107174344	2.900000E-01
437	  0.107374750	-3.068900E+01	  0.107374750	5.052000E+00	  0.107374750	5.299600E+01	  0.107374750	2.720000E-01
438	  0.107575148	-3.074300E+01	  0.107575148	3.893000E+00	  0.107575148	5.298100E+01	  0.107575148	2.090000E-01
439	  0.107775547	-3.071800E+01	  0.107775547	4.134000E+00	  0.107775547	5.299000E+01	  0.107775547	2.220000E-01
440	  0.107975952	-3.068100E+01	  0.107975952	3.436000E+00	  0.107975952	5.300500E+01	  0.107975952	1.850000E-01
441	  0.108176351	-3.053500E+01	  0.108176351	2.431000E+00	  0.108176351	5.306100E+01	  0.108176351	1.330000E-01
442	  0.108376749	-3.050300E+01	  0.108376749	2.352000E+00	  0.108376749	5.307200E+01	  0.108376749	1.300000E-01
443	  0.108577155	-3.037300E+01	  0.108577155	1.441000E+00	  0.108577155	5.312200E+01	  0.108577155	8.100000E-02
444	  0.108777553	-3.035000E+01	  0.108777553	1.582000E+00	  0.108777553	5.313000E+01	  0.108777553	8.900000E-02
445	  0.108977959	-3.018000E+01	  0.108977959	2.096000E+00	  0.108977959	5.319300E+01	  0.108977959	1.200000E-01
446	  0.109178357	-3.016200E+01	  0.109178357	1.569000E+00	  0.109178357	5.320100E+01	  0.109178357	9.000000E-02
447	  0.109378755	-3.008700E+01	  0.109378755	1.898000E+00	  0.109378755	5.322900E+01	  0.109378755	1.100000E-01
448	  0.109579161	-3.002400E+01	  0.109579161	1.071000E+00	  0.109579161	5.325500E+01	  0.109579161	6.200000E-02
449	  0.109779559	-3.003500E+01	  0.109779559	1.524000E+00	  0.109779559	5.325000E+01	  0.109779559	8.900000E-02
450	  0.109979957	-3.005800E+01	  0.109979957	2.060000E+00	  0.109979957	5.324000E+01	  0.109979957	1.200000E-01
451	  0.110180363	-3.001400E+01	  0.110180363	2.209000E+00	  0.110180363	5.325700E+01	  0.110180363	1.290000E-01
452	  0.110380761	-3.000400E+01	  0.110380761	2.924000E+00	  0.110380761	5.325900E+01	  0.110380761	1.710000E-01
453	  0.110581160	-2.995900E+01	  0.110581160	2.227000E+00	  0.110581160	5.327800E+01	  0.110581160	1.310000E-01
454	  0.110781565	-2.993600E+01	  0.110781565	2.652000E+00	  0.110781565	5.328600E+01	  0.110781565	1.570000E-01
455	  0.110981964	-3.008400E+01	  0.110981964	2.525000E+00	  0.110981964	5.322900E+01	  0.110981964	1.470000E-01
456	  0.111182362	-3.006900E+01	  0.111182362	2.750000E+00	  0.111182362	5.323400E+01	  0.111182362	1.600000E-01
457	  0.111382768	-3.008500E+01	  0.111382768	2.780000E+00	  0.111382768	5.322800E+01	  0.111382768	1.610000E-01
458	  0.111583166	-3.009200E+01	  0.111583166	2.544000E+00	  0.111583166	5.322600E+01	  0.111583166	1.480000E-01
459	  0.111783572	-3.006800E+01	  0.111783572	2.246000E+00	  0.111783572	5.323600E+01	  0.111783572	1.310000E-01
460	  0.111983970	-3.012000E+01	  0.111983970	2.223000E+00	  0.111983970	5.321600E+01	  0.111983970	1.280000E-01
461	  0.112184368	-3.015200E+01	  0.112184368	2.949000E+00	  0.112184368	5.320200E+01	  0.112184368	1.700000E-01
462	  0.112384774	-3.013900E+01	  0.112384774	1.602000E+00	  0.112384774	5.321000E+01	  0.112384774	9.200000E-02
463	  0.112585172	-3.012600E+01	  0.112585172	1.557000E+00	  0.112585172	5.321500E+01	  0.112585172	9.000000E-02
464	  0.112785570	-3.019200E+01	  0.112785570	1.338000E+00	  0.112785570	5.319000E+01	  0.112785570	7.600000E-02
465	  0.112985976	-3.015200E+01	  0.112985976	1.109000E+00	  0.112985976	5.320600E+01	  0.112985976	6.400000E-02
466	  0.113186374	-3.013200E+01	  0.113186374	1.469000E+00	  0.113186374	5.321300E+01	  0.113186374	8.500000E-02
467	  0.113386773	-3.012000E+01	  0.113386773	4.960000E-01	  0.113386773	5.321900E+01	  0.113386773	2.800000E-02
468	  0.113587178	-3.003000E+01	  0.113587178	5.230000E-01	  0.113587178	5.325300E+01	  0.113587178	3.000000E-02
469	  0.113787577	-3.012500E+01	  0.113787577	6.180000E-01	  0.113787577	5.321700E+01	  0.113787577	3.500000E-02
470	  0.113987975	-3.005600E+01	  0.113987975	9.940000E-01	  0.113987975	5.324300E+01	  0.113987975	5.800000E-02
471	  0.114188381	-3.000400E+01	  0.114188381	6.980000E-01	  0.114188381	5.326300E+01	  0.114188381	4.100000E-02
472	  0.114388779	-3.001900E+01	  0.114388779	5.540000E-01	  0.114388779	5.325700E+01	  0.114388779	3.200000E-02
473	  0.114589177	-2.998300E+01	  0.114589177	8.180000E-01	  0.114589177	5.327100E+01	  0.114589177	4.800000E-02
474	  0.114789583	-3.000000E+01	  0.114789583	8.850000E-01	  0.114789583	5.326500E+01	  0.114789583	5.200000E-02
475	  0.114989981	-3.001000E+01	  0.114989981	1.141000E+00	  0.114989981	5.326000E+01	  0.114989981	6.700000E-02
476	  0.115190387	-3.001200E+01	  0.115190387	1.659000E+00	  0.115190387	5.325900E+01	  0.115190387	9.700000E-02
477	  0.115390785	-3.004800E+01	  0.115390785	1.549000E+00	  0.115390785	5.324500E+01	  0.115390785	9.000000E-02
478	  0.115591183	-3.016900E+01	  0.115591183	1.609000E+00	  0.115591183	5.319900E+01	  0.115591183	9.200000E-02
479	  0.115791589	-3.024000E+01	  0.115791589	1.302000E+00	  0.115791589	5.317200E+01	  0.115791589	7.400000E-02
480	  0.115991987	-3.027800E+01	  0.115991987	1.534000E+00	  0.115991987	5.315800E+01	  0.115991987	8.700000E-02
481	  0.116192386	-3.027200E+01	  0.116192386	1.129000E+00	  0.116192386	5.316000E+01	  0.116192386	6.400000E-02
482	  0.116392791	-3.035500E+01	  0.116392791	6.800000E-01	  0.116392791	5.313000E+01	  0.116392791	3.800000E-02
483	  0.116593190	-3.038800E+01	  0.116593190	3.880000E-01	  0.116593190	5.311800E+01	  0.116593190	2.100000E-02
484	  0.116793588	-3.045300E+01	  0.116793588	-1.450000E-01	  0.116793588	5.309400E+01	  0.116793588	-8.000000E-03
485	  0.116993994	-3.052200E+01	  0.116993994	-7.060000E-01	  0.116993994	5.306800E+01	  0.116993994	-3.900000E-02
486	  0.117194392	-3.051500E+01	  0.117194392	-9.770000E-01	  0.117194392	5.307000E+01	  0.117194392	-5.400000E-02
487	  0.117394790	-3.057400E+01	  0.117394790	-1.373000E+00	  0.117394790	5.304900E+01	  0.117394790	-7.500000E-02
488	  0.117595196	-3.059000E+01	  0.117595196	-2.191000E+00	  0.117595196	5.304200E+01	  0.117595196	-1.190000E-01
489	  0.117795594	-3.065000E+01	  0.117795594	-3.187000E+00	  0.117795594	5.301700E+01	  0.117795594	-1.730000E-01
490	  0.117995992	-3.059100E+01	  0.117995992	-3.289000E+00	  0.117995992	5.303800E+01	  0.117995992	-1.790000E-01
491	  0.118196398	-3.052400E+01	  0.118196398	-4.104000E+00	  0.118196398	5.305900E+01	  0.118196398	-2.260000E-01
492	  0.118396796	-3.052400E+01	  0.118396796	-4.908000E+00	  0.118396796	5.305600E+01	  0.118396796	-2.700000E-01
493	  0.118597202	-3.035700E+01	  0.118597202	-5.506000E+00	  0.118597202	5.311300E+01	  0.118597202	-3.090000E-01
494	  0.118797600	-3.034400E+01	  0.118797600	-5.773000E+00	  0.118797600	5.311600E+01	  0.118797600	-3.250000E-01
495	  0.118997999	-3.022600E+01	  0.118997999	-6.433000E+00	  0.118997999	5.315600E+01	  0.118997999	-3.670000E-01
496	  0.119198404	-3.020400E+01	  0.119198404	-6.733000E+00	  0.119198404	5.316300E+01	  0.119198404	-3.850000E-01
497	  0.119398803	-3.007400E+01	  0.119398803	-6.693000E+00	  0.119398803	5.321200E+01	  0.119398803	-3.890000E-01
498	  0.119599201	-2.995100E+01	  0.119599201	-6.684000E+00	  0.119599201	5.325900E+01	  0.119599201	-3.940000E-01
499	  0.119799607	-2.986500E+01	  0.119799607	-6.728000E+00	  0.119799607	5.329200E+01	  0.119799607	-4.010000E-01
500	  0.120000005	-2.981300E+01	  0.120000005	-6.165000E+00	  0.120000005	5.331700E+01	  0.120000005	-3.700000E-01
