! Anritsu VNA Master:             	Model: MS2036C/10/77
! SN:             	1601066
! /card0/usr/18may27.balun/252b.r20.txt
! Existing Calibration Information:
! TYPE:             	Current Settings	Active Cal Settings
! TIME:             	05/27/2018 12:04:42 PM	05/27/2018 11:54:56 AM
! INTERNAL TEMP:    	51.0 C	49.3 C
! # POINTS:         	500	500
! START FREQ:       	20.000 MHz	20.000 MHz
! STOP FREQ:        	120.000 MHz	120.000 MHz
! SOURCE POWER:     	High	High
! IFBW:             	50 Hz	50 Hz
! AVG FACTOR:       	  1 	  1 
! REF PLANE 1:      	0 mm	0 mm
! REF PLANE 2:      	0 mm	0 mm
! CAL TYPE:         	Full S11	Full S11
! CAL METHOD:       	SOLT	SOLT
! CAL LINE TYPE:    	Coax	Coax
! DUT PORT 1:       	K-Conn(M)	K-Conn(M)
! DUT PORT 2:       	K-Conn(M)	K-Conn(M)
! CAL STATUS:       	OK: Accuracy High	--
! PROP-V:       	0.700
! CABLE LOSS:       	0.000 dB/m
! REF IMPEDANCE:       	50.0
! Trace Specific Parameters:	TR1	TR2	TR3	TR4
! TRACE.#.Y (GRAPH TYPE)	LOG MAG	PHASE	REAL IMPEDANCE	IMAGINARY IMPEDANCE
! TRACE.#.X 	FREQ.GHZ	FREQ.GHZ	FREQ.GHZ	FREQ.GHZ
! S-PARAMETER	S11	S11	S11	S11
! SMOOTH/APERTURE %	0	0	0	0
! WINDOW	NSL	NSL	NSL	NSL
! GATING	OFF	OFF	OFF	OFF
! FGTD	OFF	OFF	OFF	OFF
Marker Information per Trace:	TR1	TR2	TR3	TR4
!MK1	--	--	--	"MK1 TR4:  70.100 200 MHz,Z:(31.831 ohm, 33.877 ohm)"
!MK2	--	--	--	--
!MK3	--	--	--	--
!MK4	--	--	--	--
!MK5	--	--	--	--
!MK6	--	--	--	--
!MK7	--	--	--	--
!MK8	--	--	--	--
PNT	TR1.FREQ.GHZ	TR1.LOG MAG.dB	TR2.FREQ.GHZ	TR2.PHASE.deg	TR3.FREQ.GHZ	TR3.REAL IMPEDANCE.ohm	TR4.FREQ.GHZ	TR4.IMAGINARY IMPEDANCE.ohm
1	  0.020000000	-7.304000E+00	  0.020000000	1.553330E+02	  0.020000000	2.066000E+01	  0.020000000	9.137000E+00
2	  0.020200402	-7.311000E+00	  0.020200402	1.550390E+02	  0.020200402	2.069700E+01	  0.020200402	9.244000E+00
3	  0.020400802	-7.315000E+00	  0.020400802	1.547830E+02	  0.020400802	2.072400E+01	  0.020400802	9.339000E+00
4	  0.020601204	-7.312000E+00	  0.020601204	1.544840E+02	  0.020601204	2.073700E+01	  0.020601204	9.453000E+00
5	  0.020801604	-7.312000E+00	  0.020801604	1.542180E+02	  0.020801604	2.075500E+01	  0.020801604	9.553000E+00
6	  0.021002004	-7.306000E+00	  0.021002004	1.539300E+02	  0.021002004	2.076100E+01	  0.021002004	9.665000E+00
7	  0.021202406	-7.307000E+00	  0.021202406	1.536410E+02	  0.021202406	2.078300E+01	  0.021202406	9.773000E+00
8	  0.021402806	-7.302000E+00	  0.021402806	1.534100E+02	  0.021402806	2.078700E+01	  0.021402806	9.863000E+00
9	  0.021603208	-7.304000E+00	  0.021603208	1.531710E+02	  0.021603208	2.080900E+01	  0.021603208	9.952000E+00
10	  0.021803608	-7.303000E+00	  0.021803608	1.529160E+02	  0.021803608	2.082500E+01	  0.021803608	1.004900E+01
11	  0.022004008	-7.301000E+00	  0.022004008	1.526960E+02	  0.022004008	2.083700E+01	  0.022004008	1.013300E+01
12	  0.022204408	-7.296000E+00	  0.022204408	1.524960E+02	  0.022204408	2.083800E+01	  0.022204408	1.021200E+01
13	  0.022404809	-7.292000E+00	  0.022404809	1.522330E+02	  0.022404809	2.084900E+01	  0.022404809	1.031300E+01
14	  0.022605211	-7.294000E+00	  0.022605211	1.520480E+02	  0.022605211	2.086700E+01	  0.022605211	1.038300E+01
15	  0.022805611	-7.292000E+00	  0.022805611	1.518030E+02	  0.022805611	2.088200E+01	  0.022805611	1.047600E+01
16	  0.023006011	-7.287000E+00	  0.023006011	1.516210E+02	  0.023006011	2.088400E+01	  0.023006011	1.054800E+01
17	  0.023206413	-7.286000E+00	  0.023206413	1.513860E+02	  0.023206413	2.089700E+01	  0.023206413	1.063800E+01
18	  0.023406813	-7.287000E+00	  0.023406813	1.511660E+02	  0.023406813	2.091700E+01	  0.023406813	1.072100E+01
19	  0.023607215	-7.286000E+00	  0.023607215	1.509480E+02	  0.023607215	2.093200E+01	  0.023607215	1.080400E+01
20	  0.023807615	-7.289000E+00	  0.023807615	1.507340E+02	  0.023807615	2.095600E+01	  0.023807615	1.088400E+01
21	  0.024008015	-7.293000E+00	  0.024008015	1.505040E+02	  0.024008015	2.098600E+01	  0.024008015	1.096900E+01
22	  0.024208417	-7.294000E+00	  0.024208417	1.503070E+02	  0.024208417	2.100400E+01	  0.024208417	1.104400E+01
23	  0.024408817	-7.302000E+00	  0.024408817	1.500920E+02	  0.024408817	2.104200E+01	  0.024408817	1.112100E+01
24	  0.024609219	-7.309000E+00	  0.024609219	1.498810E+02	  0.024609219	2.107700E+01	  0.024609219	1.119800E+01
25	  0.024809619	-7.315000E+00	  0.024809619	1.496460E+02	  0.024809619	2.111100E+01	  0.024809619	1.128400E+01
26	  0.025010020	-7.319000E+00	  0.025010020	1.493980E+02	  0.025010020	2.114200E+01	  0.025010020	1.137600E+01
27	  0.025210422	-7.329000E+00	  0.025210422	1.491170E+02	  0.025210422	2.119000E+01	  0.025210422	1.147800E+01
28	  0.025410822	-7.332000E+00	  0.025410822	1.488170E+02	  0.025410822	2.122400E+01	  0.025410822	1.159000E+01
29	  0.025611224	-7.332000E+00	  0.025611224	1.485420E+02	  0.025611224	2.124700E+01	  0.025611224	1.169500E+01
30	  0.025811624	-7.331000E+00	  0.025811624	1.482130E+02	  0.025811624	2.127400E+01	  0.025811624	1.182100E+01
31	  0.026012026	-7.329000E+00	  0.026012026	1.479240E+02	  0.026012026	2.129300E+01	  0.026012026	1.193300E+01
32	  0.026212426	-7.323000E+00	  0.026212426	1.476170E+02	  0.026212426	2.130600E+01	  0.026212426	1.205400E+01
33	  0.026412826	-7.320000E+00	  0.026412826	1.473300E+02	  0.026412826	2.132400E+01	  0.026412826	1.216500E+01
34	  0.026613226	-7.314000E+00	  0.026613226	1.470520E+02	  0.026613226	2.133500E+01	  0.026613226	1.227500E+01
35	  0.026813626	-7.309000E+00	  0.026813626	1.468380E+02	  0.026813626	2.134100E+01	  0.026813626	1.236100E+01
36	  0.027014028	-7.306000E+00	  0.027014028	1.466220E+02	  0.027014028	2.135400E+01	  0.027014028	1.244500E+01
37	  0.027214428	-7.301000E+00	  0.027214428	1.464440E+02	  0.027214428	2.135700E+01	  0.027214428	1.251700E+01
38	  0.027414829	-7.298000E+00	  0.027414829	1.462720E+02	  0.027414829	2.136600E+01	  0.027414829	1.258500E+01
39	  0.027615231	-7.295000E+00	  0.027615231	1.460460E+02	  0.027615231	2.138100E+01	  0.027615231	1.267300E+01
40	  0.027815631	-7.296000E+00	  0.027815631	1.458520E+02	  0.027815631	2.140000E+01	  0.027815631	1.274800E+01
41	  0.028016033	-7.295000E+00	  0.028016033	1.456310E+02	  0.028016033	2.141900E+01	  0.028016033	1.283300E+01
42	  0.028216433	-7.296000E+00	  0.028216433	1.454160E+02	  0.028216433	2.144200E+01	  0.028216433	1.291500E+01
43	  0.028416833	-7.292000E+00	  0.028416833	1.451990E+02	  0.028416833	2.145400E+01	  0.028416833	1.300100E+01
44	  0.028617235	-7.296000E+00	  0.028617235	1.449710E+02	  0.028617235	2.148600E+01	  0.028617235	1.308700E+01
45	  0.028817635	-7.294000E+00	  0.028817635	1.447420E+02	  0.028817635	2.150500E+01	  0.028817635	1.317600E+01
46	  0.029018037	-7.299000E+00	  0.029018037	1.445260E+02	  0.029018037	2.153900E+01	  0.029018037	1.325600E+01
47	  0.029218437	-7.299000E+00	  0.029218437	1.443010E+02	  0.029218437	2.156100E+01	  0.029218437	1.334300E+01
48	  0.029418837	-7.301000E+00	  0.029418837	1.441070E+02	  0.029418837	2.158500E+01	  0.029418837	1.341700E+01
49	  0.029619239	-7.301000E+00	  0.029619239	1.439250E+02	  0.029619239	2.160400E+01	  0.029619239	1.348700E+01
50	  0.029819639	-7.307000E+00	  0.029819639	1.437650E+02	  0.029819639	2.163500E+01	  0.029819639	1.354500E+01
51	  0.030020041	-7.312000E+00	  0.030020041	1.435720E+02	  0.030020041	2.166800E+01	  0.030020041	1.361600E+01
52	  0.030220442	-7.321000E+00	  0.030220442	1.433560E+02	  0.030220442	2.171300E+01	  0.030220442	1.369400E+01
53	  0.030420844	-7.336000E+00	  0.030420844	1.431200E+02	  0.030420844	2.177700E+01	  0.030420844	1.377400E+01
54	  0.030621244	-7.350000E+00	  0.030621244	1.428320E+02	  0.030621244	2.184300E+01	  0.030621244	1.387600E+01
55	  0.030821644	-7.357000E+00	  0.030821644	1.425050E+02	  0.030821644	2.189400E+01	  0.030821644	1.399800E+01
56	  0.031022044	-7.363000E+00	  0.031022044	1.421540E+02	  0.031022044	2.194800E+01	  0.031022044	1.412900E+01
57	  0.031222444	-7.356000E+00	  0.031222444	1.418350E+02	  0.031222444	2.196600E+01	  0.031222444	1.425800E+01
58	  0.031422846	-7.353000E+00	  0.031422846	1.414920E+02	  0.031422846	2.199600E+01	  0.031422846	1.439300E+01
59	  0.031623244	-7.356000E+00	  0.031623244	1.411700E+02	  0.031623244	2.203700E+01	  0.031623244	1.451600E+01
60	  0.031823646	-7.344000E+00	  0.031823646	1.408470E+02	  0.031823646	2.204400E+01	  0.031823646	1.465000E+01
61	  0.032024048	-7.335000E+00	  0.032024048	1.405750E+02	  0.032024048	2.205000E+01	  0.032024048	1.476300E+01
62	  0.032224450	-7.324000E+00	  0.032224450	1.402890E+02	  0.032224450	2.205600E+01	  0.032224450	1.488200E+01
63	  0.032424849	-7.309000E+00	  0.032424849	1.400460E+02	  0.032424849	2.204500E+01	  0.032424849	1.498900E+01
64	  0.032625251	-7.297000E+00	  0.032625251	1.398270E+02	  0.032625251	2.203800E+01	  0.032625251	1.508400E+01
65	  0.032825653	-7.292000E+00	  0.032825653	1.396010E+02	  0.032825653	2.205300E+01	  0.032825653	1.517600E+01
66	  0.033026051	-7.287000E+00	  0.033026051	1.394360E+02	  0.033026051	2.206000E+01	  0.033026051	1.524400E+01
67	  0.033226453	-7.282000E+00	  0.033226453	1.392350E+02	  0.033226453	2.206900E+01	  0.033226453	1.532800E+01
68	  0.033426855	-7.277000E+00	  0.033426855	1.390100E+02	  0.033426855	2.208200E+01	  0.033426855	1.542000E+01
69	  0.033627257	-7.277000E+00	  0.033627257	1.388070E+02	  0.033627257	2.210700E+01	  0.033627257	1.550000E+01
70	  0.033827655	-7.277000E+00	  0.033827655	1.386240E+02	  0.033827655	2.212900E+01	  0.033827655	1.557100E+01
71	  0.034028057	-7.278000E+00	  0.034028057	1.384050E+02	  0.034028057	2.215700E+01	  0.034028057	1.565700E+01
72	  0.034228459	-7.278000E+00	  0.034228459	1.381900E+02	  0.034228459	2.218500E+01	  0.034228459	1.574100E+01
73	  0.034428857	-7.280000E+00	  0.034428857	1.379900E+02	  0.034428857	2.221300E+01	  0.034428857	1.581900E+01
74	  0.034629259	-7.283000E+00	  0.034629259	1.377800E+02	  0.034629259	2.224900E+01	  0.034629259	1.589900E+01
75	  0.034829661	-7.283000E+00	  0.034829661	1.375990E+02	  0.034829661	2.227100E+01	  0.034829661	1.597000E+01
76	  0.035030060	-7.279000E+00	  0.035030060	1.373900E+02	  0.035030060	2.228600E+01	  0.035030060	1.605600E+01
77	  0.035230462	-7.278000E+00	  0.035230462	1.371830E+02	  0.035230462	2.230900E+01	  0.035230462	1.613800E+01
78	  0.035430863	-7.274000E+00	  0.035430863	1.369910E+02	  0.035430863	2.232400E+01	  0.035430863	1.621700E+01
79	  0.035631265	-7.281000E+00	  0.035631265	1.368200E+02	  0.035631265	2.236200E+01	  0.035631265	1.627900E+01
80	  0.035831664	-7.287000E+00	  0.035831664	1.366590E+02	  0.035831664	2.240000E+01	  0.035831664	1.633800E+01
81	  0.036032066	-7.298000E+00	  0.036032066	1.364280E+02	  0.036032066	2.245800E+01	  0.036032066	1.642000E+01
82	  0.036232468	-7.309000E+00	  0.036232468	1.361850E+02	  0.036232468	2.251800E+01	  0.036232468	1.650600E+01
83	  0.036432866	-7.324000E+00	  0.036432866	1.359220E+02	  0.036432866	2.259100E+01	  0.036432866	1.659800E+01
84	  0.036633268	-7.335000E+00	  0.036633268	1.356060E+02	  0.036633268	2.266200E+01	  0.036633268	1.671200E+01
85	  0.036833670	-7.345000E+00	  0.036833670	1.352850E+02	  0.036833670	2.273000E+01	  0.036833670	1.683100E+01
86	  0.037034072	-7.349000E+00	  0.037034072	1.349810E+02	  0.037034072	2.278000E+01	  0.037034072	1.694800E+01
87	  0.037234470	-7.352000E+00	  0.037234470	1.346610E+02	  0.037234470	2.283100E+01	  0.037234470	1.707200E+01
88	  0.037434869	-7.343000E+00	  0.037434869	1.343490E+02	  0.037434869	2.285300E+01	  0.037434869	1.720400E+01
89	  0.037635271	-7.336000E+00	  0.037635271	1.340630E+02	  0.037635271	2.287200E+01	  0.037635271	1.732400E+01
90	  0.037835669	-7.329000E+00	  0.037835669	1.337810E+02	  0.037835669	2.289200E+01	  0.037835669	1.744300E+01
91	  0.038036071	-7.319000E+00	  0.038036071	1.335490E+02	  0.038036071	2.289900E+01	  0.038036071	1.754400E+01
92	  0.038236473	-7.313000E+00	  0.038236473	1.333260E+02	  0.038236473	2.291500E+01	  0.038236473	1.763800E+01
93	  0.038436871	-7.311000E+00	  0.038436871	1.331190E+02	  0.038436871	2.294000E+01	  0.038436871	1.772200E+01
94	  0.038637273	-7.312000E+00	  0.038637273	1.328910E+02	  0.038637273	2.297300E+01	  0.038637273	1.781300E+01
95	  0.038837675	-7.314000E+00	  0.038837675	1.326340E+02	  0.038837675	2.301700E+01	  0.038837675	1.791400E+01
96	  0.039038073	-7.316000E+00	  0.039038073	1.323880E+02	  0.039038073	2.305600E+01	  0.039038073	1.801100E+01
97	  0.039238475	-7.320000E+00	  0.039238475	1.321260E+02	  0.039238475	2.310500E+01	  0.039238475	1.811200E+01
98	  0.039438877	-7.323000E+00	  0.039438877	1.318610E+02	  0.039438877	2.315200E+01	  0.039438877	1.821500E+01
99	  0.039639279	-7.325000E+00	  0.039639279	1.316160E+02	  0.039639279	2.319300E+01	  0.039639279	1.831100E+01
100	  0.039839678	-7.320000E+00	  0.039839678	1.313730E+02	  0.039839678	2.321700E+01	  0.039839678	1.841300E+01
101	  0.040040080	-7.318000E+00	  0.040040080	1.311260E+02	  0.040040080	2.324900E+01	  0.040040080	1.851400E+01
102	  0.040240481	-7.311000E+00	  0.040240481	1.308620E+02	  0.040240481	2.327100E+01	  0.040240481	1.862700E+01
103	  0.040440880	-7.307000E+00	  0.040440880	1.306060E+02	  0.040440880	2.329900E+01	  0.040440880	1.873500E+01
104	  0.040641282	-7.294000E+00	  0.040641282	1.303470E+02	  0.040641282	2.330300E+01	  0.040641282	1.885200E+01
105	  0.040841684	-7.287000E+00	  0.040841684	1.301420E+02	  0.040841684	2.331600E+01	  0.040841684	1.894200E+01
106	  0.041042086	-7.283000E+00	  0.041042086	1.299540E+02	  0.041042086	2.333500E+01	  0.041042086	1.902200E+01
107	  0.041242484	-7.281000E+00	  0.041242484	1.297470E+02	  0.041242484	2.336200E+01	  0.041242484	1.910800E+01
108	  0.041442886	-7.287000E+00	  0.041442886	1.295740E+02	  0.041442886	2.340400E+01	  0.041442886	1.917200E+01
109	  0.041643288	-7.293000E+00	  0.041643288	1.293540E+02	  0.041643288	2.345400E+01	  0.041643288	1.925500E+01
110	  0.041843686	-7.293000E+00	  0.041843686	1.291090E+02	  0.041843686	2.349200E+01	  0.041843686	1.935400E+01
111	  0.042044088	-7.296000E+00	  0.042044088	1.288590E+02	  0.042044088	2.354100E+01	  0.042044088	1.945200E+01
112	  0.042244490	-7.299000E+00	  0.042244490	1.286190E+02	  0.042244490	2.358900E+01	  0.042244490	1.954600E+01
113	  0.042444889	-7.295000E+00	  0.042444889	1.283840E+02	  0.042444889	2.361400E+01	  0.042444889	1.964700E+01
114	  0.042645290	-7.291000E+00	  0.042645290	1.281440E+02	  0.042645290	2.364400E+01	  0.042645290	1.974800E+01
115	  0.042845692	-7.281000E+00	  0.042845692	1.279160E+02	  0.042845692	2.365400E+01	  0.042845692	1.985200E+01
116	  0.043046094	-7.275000E+00	  0.043046094	1.276750E+02	  0.043046094	2.367600E+01	  0.043046094	1.995700E+01
117	  0.043246493	-7.268000E+00	  0.043246493	1.274840E+02	  0.043246493	2.369100E+01	  0.043246493	2.004200E+01
118	  0.043446895	-7.259000E+00	  0.043446895	1.273430E+02	  0.043446895	2.369000E+01	  0.043446895	2.010900E+01
119	  0.043647297	-7.257000E+00	  0.043647297	1.271800E+02	  0.043647297	2.371200E+01	  0.043647297	2.017800E+01
120	  0.043847695	-7.263000E+00	  0.043847695	1.270560E+02	  0.043847695	2.374900E+01	  0.043847695	2.022200E+01
121	  0.044048097	-7.273000E+00	  0.044048097	1.269050E+02	  0.044048097	2.380200E+01	  0.044048097	2.027300E+01
122	  0.044248499	-7.286000E+00	  0.044248499	1.267080E+02	  0.044248499	2.386900E+01	  0.044248499	2.033900E+01
123	  0.044448901	-7.295000E+00	  0.044448901	1.265140E+02	  0.044448901	2.392600E+01	  0.044448901	2.040900E+01
124	  0.044649299	-7.307000E+00	  0.044649299	1.263020E+02	  0.044649299	2.399400E+01	  0.044649299	2.048200E+01
125	  0.044849701	-7.319000E+00	  0.044849701	1.260820E+02	  0.044849701	2.406400E+01	  0.044849701	2.055800E+01
126	  0.045050103	-7.330000E+00	  0.045050103	1.258410E+02	  0.045050103	2.413700E+01	  0.045050103	2.064400E+01
127	  0.045250501	-7.336000E+00	  0.045250501	1.255720E+02	  0.045250501	2.420000E+01	  0.045250501	2.074700E+01
128	  0.045450903	-7.350000E+00	  0.045450903	1.252610E+02	  0.045450903	2.429200E+01	  0.045450903	2.085900E+01
129	  0.045651305	-7.352000E+00	  0.045651305	1.249510E+02	  0.045651305	2.435200E+01	  0.045651305	2.098300E+01
130	  0.045851704	-7.352000E+00	  0.045851704	1.246110E+02	  0.045851704	2.441300E+01	  0.045851704	2.112300E+01
131	  0.046052106	-7.356000E+00	  0.046052106	1.242880E+02	  0.046052106	2.448300E+01	  0.046052106	2.125000E+01
132	  0.046252504	-7.360000E+00	  0.046252504	1.239890E+02	  0.046252504	2.454700E+01	  0.046252504	2.136900E+01
133	  0.046452906	-7.361000E+00	  0.046452906	1.237030E+02	  0.046452906	2.460300E+01	  0.046452906	2.148500E+01
134	  0.046653304	-7.362000E+00	  0.046653304	1.234220E+02	  0.046653304	2.465700E+01	  0.046653304	2.159900E+01
135	  0.046853706	-7.367000E+00	  0.046853706	1.231110E+02	  0.046853706	2.473100E+01	  0.046853706	2.172000E+01
136	  0.047054108	-7.370000E+00	  0.047054108	1.227570E+02	  0.047054108	2.480300E+01	  0.047054108	2.186300E+01
137	  0.047254506	-7.372000E+00	  0.047254506	1.224300E+02	  0.047254506	2.487100E+01	  0.047254506	2.199600E+01
138	  0.047454908	-7.368000E+00	  0.047454908	1.220990E+02	  0.047454908	2.492600E+01	  0.047454908	2.213700E+01
139	  0.047655310	-7.361000E+00	  0.047655310	1.217500E+02	  0.047655310	2.497200E+01	  0.047655310	2.229100E+01
140	  0.047855709	-7.347000E+00	  0.047855709	1.214410E+02	  0.047855709	2.499600E+01	  0.047855709	2.243600E+01
141	  0.048056111	-7.332000E+00	  0.048056111	1.211000E+02	  0.048056111	2.502000E+01	  0.048056111	2.259800E+01
142	  0.048256513	-7.317000E+00	  0.048256513	1.208140E+02	  0.048256513	2.503600E+01	  0.048256513	2.273700E+01
143	  0.048456915	-7.296000E+00	  0.048456915	1.205480E+02	  0.048456915	2.503100E+01	  0.048456915	2.287600E+01
144	  0.048657313	-7.277000E+00	  0.048657313	1.203240E+02	  0.048657313	2.502500E+01	  0.048657313	2.299400E+01
145	  0.048857715	-7.259000E+00	  0.048857715	1.201440E+02	  0.048857715	2.501200E+01	  0.048857715	2.309300E+01
146	  0.049058117	-7.245000E+00	  0.049058117	1.199960E+02	  0.049058117	2.500100E+01	  0.049058117	2.317500E+01
147	  0.049258515	-7.242000E+00	  0.049258515	1.198700E+02	  0.049258515	2.501800E+01	  0.049258515	2.323200E+01
148	  0.049458917	-7.235000E+00	  0.049458917	1.197210E+02	  0.049458917	2.502800E+01	  0.049458917	2.330400E+01
149	  0.049659319	-7.229000E+00	  0.049659319	1.196130E+02	  0.049659319	2.503600E+01	  0.049659319	2.335700E+01
150	  0.049859721	-7.229000E+00	  0.049859721	1.194700E+02	  0.049859721	2.506400E+01	  0.049859721	2.341800E+01
151	  0.050060119	-7.231000E+00	  0.050060119	1.193630E+02	  0.050060119	2.509000E+01	  0.050060119	2.346100E+01
152	  0.050260521	-7.236000E+00	  0.050260521	1.192210E+02	  0.050260521	2.513500E+01	  0.050260521	2.351400E+01
153	  0.050460923	-7.238000E+00	  0.050460923	1.190880E+02	  0.050460923	2.516800E+01	  0.050460923	2.356700E+01
154	  0.050661322	-7.243000E+00	  0.050661322	1.189270E+02	  0.050661322	2.521500E+01	  0.050661322	2.362800E+01
155	  0.050861724	-7.247000E+00	  0.050861724	1.187030E+02	  0.050861724	2.527400E+01	  0.050861724	2.371700E+01
156	  0.051062126	-7.250000E+00	  0.051062126	1.185120E+02	  0.051062126	2.532200E+01	  0.051062126	2.379400E+01
157	  0.051262524	-7.254000E+00	  0.051262524	1.183110E+02	  0.051262524	2.537500E+01	  0.051262524	2.387400E+01
158	  0.051462926	-7.259000E+00	  0.051462926	1.181160E+02	  0.051462926	2.543100E+01	  0.051462926	2.394900E+01
159	  0.051663328	-7.269000E+00	  0.051663328	1.178830E+02	  0.051663328	2.550800E+01	  0.051663328	2.403400E+01
160	  0.051863730	-7.277000E+00	  0.051863730	1.177060E+02	  0.051863730	2.556800E+01	  0.051863730	2.409800E+01
161	  0.052064128	-7.281000E+00	  0.052064128	1.174810E+02	  0.052064128	2.562900E+01	  0.052064128	2.418700E+01
162	  0.052264530	-7.295000E+00	  0.052264530	1.172520E+02	  0.052264530	2.571700E+01	  0.052264530	2.426400E+01
163	  0.052464932	-7.306000E+00	  0.052464932	1.169950E+02	  0.052464932	2.580300E+01	  0.052464932	2.435800E+01
164	  0.052665330	-7.318000E+00	  0.052665330	1.166810E+02	  0.052665330	2.590700E+01	  0.052665330	2.447300E+01
165	  0.052865732	-7.326000E+00	  0.052865732	1.163850E+02	  0.052865732	2.599500E+01	  0.052865732	2.458600E+01
166	  0.053066134	-7.329000E+00	  0.053066134	1.160500E+02	  0.053066134	2.607700E+01	  0.053066134	2.472500E+01
167	  0.053266536	-7.327000E+00	  0.053266536	1.157310E+02	  0.053266536	2.614400E+01	  0.053266536	2.486300E+01
168	  0.053466935	-7.321000E+00	  0.053466935	1.153940E+02	  0.053466935	2.620400E+01	  0.053466935	2.501500E+01
169	  0.053667337	-7.313000E+00	  0.053667337	1.150340E+02	  0.053667337	2.626500E+01	  0.053667337	2.518000E+01
170	  0.053867739	-7.306000E+00	  0.053867739	1.147710E+02	  0.053867739	2.630500E+01	  0.053867739	2.530400E+01
171	  0.054068137	-7.293000E+00	  0.054068137	1.144760E+02	  0.054068137	2.633900E+01	  0.054068137	2.544900E+01
172	  0.054268539	-7.284000E+00	  0.054268539	1.142640E+02	  0.054268539	2.636200E+01	  0.054268539	2.555400E+01
173	  0.054468941	-7.279000E+00	  0.054468941	1.140410E+02	  0.054468941	2.640200E+01	  0.054468941	2.565700E+01
174	  0.054669339	-7.278000E+00	  0.054669339	1.138260E+02	  0.054669339	2.644800E+01	  0.054669339	2.575200E+01
175	  0.054869737	-7.271000E+00	  0.054869737	1.136280E+02	  0.054869737	2.647600E+01	  0.054869737	2.584800E+01
176	  0.055070139	-7.268000E+00	  0.055070139	1.134330E+02	  0.055070139	2.651400E+01	  0.055070139	2.593700E+01
177	  0.055270538	-7.270000E+00	  0.055270538	1.132330E+02	  0.055270538	2.656800E+01	  0.055270538	2.602000E+01
178	  0.055470940	-7.273000E+00	  0.055470940	1.130250E+02	  0.055470940	2.662700E+01	  0.055470940	2.610500E+01
179	  0.055671342	-7.276000E+00	  0.055671342	1.128310E+02	  0.055671342	2.668200E+01	  0.055671342	2.618400E+01
180	  0.055871744	-7.272000E+00	  0.055871744	1.126510E+02	  0.055871744	2.671600E+01	  0.055871744	2.626800E+01
181	  0.056072142	-7.273000E+00	  0.056072142	1.124000E+02	  0.056072142	2.678000E+01	  0.056072142	2.637500E+01
182	  0.056272544	-7.277000E+00	  0.056272544	1.121550E+02	  0.056272544	2.685300E+01	  0.056272544	2.647400E+01
183	  0.056472946	-7.278000E+00	  0.056472946	1.119130E+02	  0.056472946	2.691500E+01	  0.056472946	2.657700E+01
184	  0.056673344	-7.279000E+00	  0.056673344	1.116520E+02	  0.056673344	2.698200E+01	  0.056673344	2.668900E+01
185	  0.056873746	-7.283000E+00	  0.056873746	1.114600E+02	  0.056873746	2.704500E+01	  0.056873746	2.676500E+01
186	  0.057074148	-7.284000E+00	  0.057074148	1.112220E+02	  0.057074148	2.710700E+01	  0.057074148	2.686700E+01
187	  0.057274550	-7.285000E+00	  0.057274550	1.109720E+02	  0.057274550	2.717400E+01	  0.057274550	2.697300E+01
188	  0.057474948	-7.288000E+00	  0.057474948	1.107340E+02	  0.057474948	2.724200E+01	  0.057474948	2.707300E+01
189	  0.057675350	-7.297000E+00	  0.057675350	1.104860E+02	  0.057675350	2.733400E+01	  0.057675350	2.716400E+01
190	  0.057875752	-7.298000E+00	  0.057875752	1.102170E+02	  0.057875752	2.740600E+01	  0.057875752	2.728000E+01
191	  0.058076151	-7.308000E+00	  0.058076151	1.099080E+02	  0.058076151	2.751400E+01	  0.058076151	2.739800E+01
192	  0.058276553	-7.304000E+00	  0.058276553	1.096540E+02	  0.058276553	2.757100E+01	  0.058276553	2.751500E+01
193	  0.058476955	-7.306000E+00	  0.058476955	1.093380E+02	  0.058476955	2.766100E+01	  0.058476955	2.764900E+01
194	  0.058677353	-7.298000E+00	  0.058677353	1.090240E+02	  0.058677353	2.772300E+01	  0.058677353	2.780000E+01
195	  0.058877755	-7.288000E+00	  0.058877755	1.087440E+02	  0.058877755	2.776700E+01	  0.058877755	2.794200E+01
196	  0.059078157	-7.283000E+00	  0.059078157	1.084390E+02	  0.059078157	2.783600E+01	  0.059078157	2.808400E+01
197	  0.059278559	-7.272000E+00	  0.059278559	1.081830E+02	  0.059278559	2.787400E+01	  0.059278559	2.821600E+01
198	  0.059478957	-7.263000E+00	  0.059478957	1.079630E+02	  0.059478957	2.790900E+01	  0.059478957	2.832900E+01
199	  0.059679359	-7.254000E+00	  0.059679359	1.077710E+02	  0.059679359	2.793700E+01	  0.059679359	2.843000E+01
200	  0.059879761	-7.240000E+00	  0.059879761	1.075830E+02	  0.059879761	2.794900E+01	  0.059879761	2.853800E+01
201	  0.060080159	-7.233000E+00	  0.060080159	1.074160E+02	  0.060080159	2.797500E+01	  0.060080159	2.862500E+01
202	  0.060280561	-7.226000E+00	  0.060280561	1.072210E+02	  0.060280561	2.800900E+01	  0.060280561	2.872400E+01
203	  0.060480963	-7.225000E+00	  0.060480963	1.070760E+02	  0.060480963	2.804500E+01	  0.060480963	2.879200E+01
204	  0.060681365	-7.224000E+00	  0.060681365	1.069400E+02	  0.060681365	2.808200E+01	  0.060681365	2.885200E+01
205	  0.060881764	-7.219000E+00	  0.060881764	1.067940E+02	  0.060881764	2.810800E+01	  0.060881764	2.892800E+01
206	  0.061082166	-7.222000E+00	  0.061082166	1.066310E+02	  0.061082166	2.816200E+01	  0.061082166	2.899500E+01
207	  0.061282568	-7.227000E+00	  0.061282568	1.064410E+02	  0.061282568	2.823300E+01	  0.061282568	2.906900E+01
208	  0.061482966	-7.227000E+00	  0.061482966	1.062370E+02	  0.061482966	2.829100E+01	  0.061482966	2.916000E+01
209	  0.061683368	-7.229000E+00	  0.061683368	1.060660E+02	  0.061683368	2.834500E+01	  0.061683368	2.923300E+01
210	  0.061883770	-7.231000E+00	  0.061883770	1.058610E+02	  0.061883770	2.841300E+01	  0.061883770	2.931900E+01
211	  0.062084168	-7.238000E+00	  0.062084168	1.056730E+02	  0.062084168	2.848600E+01	  0.062084168	2.939100E+01
212	  0.062284570	-7.242000E+00	  0.062284570	1.054420E+02	  0.062284570	2.856600E+01	  0.062284570	2.948500E+01
213	  0.062484972	-7.242000E+00	  0.062484972	1.052630E+02	  0.062484972	2.862000E+01	  0.062484972	2.956400E+01
214	  0.062685370	-7.249000E+00	  0.062685370	1.050620E+02	  0.062685370	2.869800E+01	  0.062685370	2.964200E+01
215	  0.062885776	-7.260000E+00	  0.062885776	1.048210E+02	  0.062885776	2.880500E+01	  0.062885776	2.972600E+01
216	  0.063086174	-7.271000E+00	  0.063086174	1.045850E+02	  0.063086174	2.890600E+01	  0.063086174	2.981000E+01
217	  0.063286573	-7.281000E+00	  0.063286573	1.043230E+02	  0.063286573	2.901600E+01	  0.063286573	2.990700E+01
218	  0.063486971	-7.285000E+00	  0.063486971	1.040500E+02	  0.063486971	2.911000E+01	  0.063486971	3.002100E+01
219	  0.063687377	-7.296000E+00	  0.063687377	1.037680E+02	  0.063687377	2.923000E+01	  0.063687377	3.012300E+01
220	  0.063887775	-7.300000E+00	  0.063887775	1.034700E+02	  0.063887775	2.933100E+01	  0.063887775	3.025000E+01
221	  0.064088173	-7.307000E+00	  0.064088173	1.031050E+02	  0.064088173	2.946600E+01	  0.064088173	3.039700E+01
222	  0.064288579	-7.298000E+00	  0.064288579	1.027820E+02	  0.064288579	2.954100E+01	  0.064288579	3.056000E+01
223	  0.064488977	-7.296000E+00	  0.064488977	1.024650E+02	  0.064488977	2.963700E+01	  0.064488977	3.070600E+01
224	  0.064689375	-7.291000E+00	  0.064689375	1.021440E+02	  0.064689375	2.972300E+01	  0.064689375	3.086100E+01
225	  0.064889781	-7.291000E+00	  0.064889781	1.018550E+02	  0.064889781	2.981500E+01	  0.064889781	3.099100E+01
226	  0.065090179	-7.284000E+00	  0.065090179	1.015880E+02	  0.065090179	2.988100E+01	  0.065090179	3.112600E+01
227	  0.065290578	-7.272000E+00	  0.065290578	1.013110E+02	  0.065290578	2.993600E+01	  0.065290578	3.127600E+01
228	  0.065490983	-7.259000E+00	  0.065490983	1.011090E+02	  0.065490983	2.996400E+01	  0.065490983	3.139500E+01
229	  0.065691382	-7.258000E+00	  0.065691382	1.008670E+02	  0.065691382	3.004200E+01	  0.065691382	3.150600E+01
230	  0.065891780	-7.246000E+00	  0.065891780	1.006710E+02	  0.065891780	3.007100E+01	  0.065891780	3.162000E+01
231	  0.066092186	-7.241000E+00	  0.066092186	1.004490E+02	  0.066092186	3.012900E+01	  0.066092186	3.173200E+01
232	  0.066292584	-7.244000E+00	  0.066292584	1.002570E+02	  0.066292584	3.020200E+01	  0.066292584	3.181300E+01
233	  0.066492982	-7.240000E+00	  0.066492982	1.000630E+02	  0.066492982	3.025600E+01	  0.066492982	3.190900E+01
234	  0.066693388	-7.235000E+00	  0.066693388	9.983600E+01	  0.066693388	3.031800E+01	  0.066693388	3.202300E+01
235	  0.066893786	-7.233000E+00	  0.066893786	9.963400E+01	  0.066893786	3.038000E+01	  0.066893786	3.212000E+01
236	  0.067094192	-7.233000E+00	  0.067094192	9.942000E+01	  0.067094192	3.045400E+01	  0.067094192	3.221700E+01
237	  0.067294590	-7.232000E+00	  0.067294590	9.919200E+01	  0.067294590	3.052700E+01	  0.067294590	3.232600E+01
238	  0.067494988	-7.231000E+00	  0.067494988	9.902100E+01	  0.067494988	3.058400E+01	  0.067494988	3.240400E+01
239	  0.067695394	-7.234000E+00	  0.067695394	9.880900E+01	  0.067695394	3.066700E+01	  0.067695394	3.249400E+01
240	  0.067895792	-7.236000E+00	  0.067895792	9.857800E+01	  0.067895792	3.075200E+01	  0.067895792	3.259600E+01
241	  0.068096191	-7.241000E+00	  0.068096191	9.840300E+01	  0.068096191	3.083100E+01	  0.068096191	3.266300E+01
242	  0.068296596	-7.240000E+00	  0.068296596	9.818600E+01	  0.068296596	3.090200E+01	  0.068296596	3.276600E+01
243	  0.068496995	-7.244000E+00	  0.068496995	9.798800E+01	  0.068496995	3.098400E+01	  0.068496995	3.284700E+01
244	  0.068697393	-7.256000E+00	  0.068697393	9.773900E+01	  0.068697393	3.111000E+01	  0.068697393	3.293200E+01
245	  0.068897791	-7.255000E+00	  0.068897791	9.747000E+01	  0.068897791	3.120500E+01	  0.068897791	3.305700E+01
246	  0.069098189	-7.254000E+00	  0.069098189	9.718200E+01	  0.069098189	3.130600E+01	  0.069098189	3.319100E+01
247	  0.069298595	-7.257000E+00	  0.069298595	9.692300E+01	  0.069298595	3.140800E+01	  0.069298595	3.330200E+01
248	  0.069498993	-7.260000E+00	  0.069498993	9.660400E+01	  0.069498993	3.153300E+01	  0.069498993	3.344300E+01
249	  0.069699399	-7.263000E+00	  0.069699399	9.630000E+01	  0.069699399	3.165600E+01	  0.069699399	3.357300E+01
250	  0.069899797	-7.260000E+00	  0.069899797	9.603400E+01	  0.069899797	3.174600E+01	  0.069899797	3.370300E+01
251	  0.070100196	-7.249000E+00	  0.070100196	9.571700E+01	  0.070100196	3.183100E+01	  0.070100196	3.387600E+01
252	  0.070300601	-7.243000E+00	  0.070300601	9.545900E+01	  0.070300601	3.190900E+01	  0.070300601	3.401100E+01
253	  0.070501000	-7.237000E+00	  0.070501000	9.520700E+01	  0.070501000	3.198600E+01	  0.070501000	3.414200E+01
254	  0.070701398	-7.229000E+00	  0.070701398	9.494600E+01	  0.070701398	3.206200E+01	  0.070701398	3.428200E+01
255	  0.070901804	-7.218000E+00	  0.070901804	9.471600E+01	  0.070901804	3.211700E+01	  0.070901804	3.441600E+01
256	  0.071102202	-7.207000E+00	  0.071102202	9.452300E+01	  0.071102202	3.215900E+01	  0.071102202	3.453300E+01
257	  0.071302600	-7.197000E+00	  0.071302600	9.432600E+01	  0.071302600	3.220600E+01	  0.071302600	3.464900E+01
258	  0.071503006	-7.189000E+00	  0.071503006	9.414100E+01	  0.071503006	3.225400E+01	  0.071503006	3.475600E+01
259	  0.071703404	-7.180000E+00	  0.071703404	9.396000E+01	  0.071703404	3.229400E+01	  0.071703404	3.486600E+01
260	  0.071903802	-7.177000E+00	  0.071903802	9.380200E+01	  0.071903802	3.235000E+01	  0.071903802	3.494500E+01
261	  0.072104208	-7.177000E+00	  0.072104208	9.358900E+01	  0.072104208	3.243200E+01	  0.072104208	3.504600E+01
262	  0.072304606	-7.165000E+00	  0.072304606	9.342000E+01	  0.072304606	3.246300E+01	  0.072304606	3.515600E+01
263	  0.072505005	-7.166000E+00	  0.072505005	9.327100E+01	  0.072505005	3.252700E+01	  0.072505005	3.522200E+01
264	  0.072705410	-7.163000E+00	  0.072705410	9.312800E+01	  0.072705410	3.257300E+01	  0.072705410	3.529900E+01
265	  0.072905809	-7.167000E+00	  0.072905809	9.292900E+01	  0.072905809	3.266600E+01	  0.072905809	3.538100E+01
266	  0.073106214	-7.166000E+00	  0.073106214	9.277400E+01	  0.073106214	3.272700E+01	  0.073106214	3.545500E+01
267	  0.073306613	-7.175000E+00	  0.073306613	9.260300E+01	  0.073306613	3.282400E+01	  0.073306613	3.551100E+01
268	  0.073507011	-7.171000E+00	  0.073507011	9.247200E+01	  0.073507011	3.286400E+01	  0.073507011	3.558400E+01
269	  0.073707417	-7.181000E+00	  0.073707417	9.233100E+01	  0.073707417	3.295100E+01	  0.073707417	3.562400E+01
270	  0.073907815	-7.192000E+00	  0.073907815	9.214200E+01	  0.073907815	3.306400E+01	  0.073907815	3.568100E+01
271	  0.074108213	-7.200000E+00	  0.074108213	9.191800E+01	  0.074108213	3.318200E+01	  0.074108213	3.576400E+01
272	  0.074308619	-7.211000E+00	  0.074308619	9.169400E+01	  0.074308619	3.330900E+01	  0.074308619	3.583900E+01
273	  0.074509017	-7.225000E+00	  0.074509017	9.148000E+01	  0.074509017	3.344100E+01	  0.074509017	3.590000E+01
274	  0.074709415	-7.236000E+00	  0.074709415	9.120000E+01	  0.074709415	3.359300E+01	  0.074709415	3.600000E+01
275	  0.074909821	-7.250000E+00	  0.074909821	9.090000E+01	  0.074909821	3.376300E+01	  0.074909821	3.610000E+01
276	  0.075110219	-7.262000E+00	  0.075110219	9.060100E+01	  0.075110219	3.392800E+01	  0.075110219	3.620600E+01
277	  0.075310618	-7.269000E+00	  0.075310618	9.032200E+01	  0.075310618	3.406900E+01	  0.075310618	3.631500E+01
278	  0.075511023	-7.276000E+00	  0.075511023	9.000700E+01	  0.075511023	3.422700E+01	  0.075511023	3.644200E+01
279	  0.075711422	-7.272000E+00	  0.075711422	8.963600E+01	  0.075711422	3.437600E+01	  0.075711422	3.662700E+01
280	  0.075911827	-7.273000E+00	  0.075911827	8.930700E+01	  0.075911827	3.452400E+01	  0.075911827	3.677600E+01
281	  0.076112226	-7.265000E+00	  0.076112226	8.903700E+01	  0.076112226	3.462000E+01	  0.076112226	3.692500E+01
282	  0.076312624	-7.259000E+00	  0.076312624	8.870200E+01	  0.076312624	3.475200E+01	  0.076312624	3.709700E+01
283	  0.076513030	-7.254000E+00	  0.076513030	8.842600E+01	  0.076513030	3.486200E+01	  0.076513030	3.724000E+01
284	  0.076713428	-7.243000E+00	  0.076713428	8.817200E+01	  0.076713428	3.494400E+01	  0.076713428	3.739200E+01
285	  0.076913826	-7.232000E+00	  0.076913826	8.787300E+01	  0.076913826	3.504600E+01	  0.076913826	3.756600E+01
286	  0.077114232	-7.229000E+00	  0.077114232	8.758700E+01	  0.077114232	3.516800E+01	  0.077114232	3.771000E+01
287	  0.077314630	-7.219000E+00	  0.077314630	8.731800E+01	  0.077314630	3.526400E+01	  0.077314630	3.786500E+01
288	  0.077515028	-7.204000E+00	  0.077515028	8.709300E+01	  0.077515028	3.532100E+01	  0.077515028	3.801900E+01
289	  0.077715434	-7.199000E+00	  0.077715434	8.683600E+01	  0.077715434	3.542600E+01	  0.077715434	3.815600E+01
290	  0.077915832	-7.192000E+00	  0.077915832	8.664000E+01	  0.077915832	3.549700E+01	  0.077915832	3.826900E+01
291	  0.078116231	-7.172000E+00	  0.078116231	8.641100E+01	  0.078116231	3.554400E+01	  0.078116231	3.843900E+01
292	  0.078316636	-7.168000E+00	  0.078316636	8.621600E+01	  0.078316636	3.562300E+01	  0.078316636	3.854600E+01
293	  0.078517035	-7.153000E+00	  0.078517035	8.599000E+01	  0.078517035	3.568600E+01	  0.078517035	3.870000E+01
294	  0.078717433	-7.148000E+00	  0.078717433	8.583100E+01	  0.078717433	3.574800E+01	  0.078717433	3.879100E+01
295	  0.078917839	-7.137000E+00	  0.078917839	8.573000E+01	  0.078917839	3.576200E+01	  0.078917839	3.887500E+01
296	  0.079118237	-7.133000E+00	  0.079118237	8.557500E+01	  0.079118237	3.582400E+01	  0.079118237	3.896200E+01
297	  0.079318643	-7.131000E+00	  0.079318643	8.543400E+01	  0.079318643	3.588600E+01	  0.079318643	3.903600E+01
298	  0.079519041	-7.129000E+00	  0.079519041	8.528900E+01	  0.079519041	3.595300E+01	  0.079519041	3.910900E+01
299	  0.079719439	-7.132000E+00	  0.079719439	8.515200E+01	  0.079719439	3.603000E+01	  0.079719439	3.916500E+01
300	  0.079919845	-7.141000E+00	  0.079919845	8.495300E+01	  0.079919845	3.615600E+01	  0.079919845	3.923100E+01
301	  0.080120243	-7.148000E+00	  0.080120243	8.478800E+01	  0.080120243	3.626000E+01	  0.080120243	3.928700E+01
302	  0.080320641	-7.157000E+00	  0.080320641	8.459300E+01	  0.080320641	3.638500E+01	  0.080320641	3.935100E+01
303	  0.080521047	-7.165000E+00	  0.080521047	8.440200E+01	  0.080521047	3.650600E+01	  0.080521047	3.941400E+01
304	  0.080721445	-7.175000E+00	  0.080721445	8.420300E+01	  0.080721445	3.663700E+01	  0.080721445	3.947700E+01
305	  0.080921844	-7.180000E+00	  0.080921844	8.395500E+01	  0.080921844	3.677800E+01	  0.080921844	3.957800E+01
306	  0.081122249	-7.184000E+00	  0.081122249	8.371100E+01	  0.081122249	3.691600E+01	  0.081122249	3.967900E+01
307	  0.081322648	-7.187000E+00	  0.081322648	8.344500E+01	  0.081322648	3.706200E+01	  0.081322648	3.979400E+01
308	  0.081523046	-7.187000E+00	  0.081523046	8.322000E+01	  0.081523046	3.717700E+01	  0.081523046	3.990200E+01
309	  0.081723452	-7.188000E+00	  0.081723452	8.298100E+01	  0.081723452	3.730400E+01	  0.081723452	4.001200E+01
310	  0.081923850	-7.193000E+00	  0.081923850	8.274100E+01	  0.081923850	3.744400E+01	  0.081923850	4.010900E+01
311	  0.082124248	-7.194000E+00	  0.082124248	8.244100E+01	  0.082124248	3.760800E+01	  0.082124248	4.024400E+01
312	  0.082324654	-7.197000E+00	  0.082324654	8.218700E+01	  0.082324654	3.775100E+01	  0.082324654	4.035500E+01
313	  0.082525052	-7.201000E+00	  0.082525052	8.193000E+01	  0.082525052	3.790100E+01	  0.082525052	4.046000E+01
314	  0.082725458	-7.199000E+00	  0.082725458	8.166000E+01	  0.082725458	3.803900E+01	  0.082725458	4.059600E+01
315	  0.082925856	-7.193000E+00	  0.082925856	8.137500E+01	  0.082925856	3.817300E+01	  0.082925856	4.075400E+01
316	  0.083126254	-7.191000E+00	  0.083126254	8.113600E+01	  0.083126254	3.829900E+01	  0.083126254	4.087100E+01
317	  0.083326660	-7.187000E+00	  0.083326660	8.085500E+01	  0.083326660	3.844000E+01	  0.083326660	4.102000E+01
318	  0.083527058	-7.177000E+00	  0.083527058	8.061100E+01	  0.083527058	3.854400E+01	  0.083527058	4.117100E+01
319	  0.083727457	-7.167000E+00	  0.083727457	8.030800E+01	  0.083727457	3.868200E+01	  0.083727457	4.135000E+01
320	  0.083927862	-7.171000E+00	  0.083927862	8.009000E+01	  0.083927862	3.881400E+01	  0.083927862	4.144100E+01
321	  0.084128261	-7.157000E+00	  0.084128261	7.985900E+01	  0.084128261	3.890300E+01	  0.084128261	4.160000E+01
322	  0.084328659	-7.150000E+00	  0.084328659	7.964400E+01	  0.084328659	3.900200E+01	  0.084328659	4.172800E+01
323	  0.084529065	-7.137000E+00	  0.084529065	7.945900E+01	  0.084529065	3.906500E+01	  0.084529065	4.186800E+01
324	  0.084729463	-7.133000E+00	  0.084729463	7.930200E+01	  0.084729463	3.914400E+01	  0.084729463	4.195500E+01
325	  0.084929861	-7.130000E+00	  0.084929861	7.910700E+01	  0.084929861	3.924600E+01	  0.084929861	4.206100E+01
326	  0.085130267	-7.127000E+00	  0.085130267	7.895600E+01	  0.085130267	3.932300E+01	  0.085130267	4.214400E+01
327	  0.085330658	-7.131000E+00	  0.085330658	7.875100E+01	  0.085330658	3.945600E+01	  0.085330658	4.222500E+01
328	  0.085531056	-7.138000E+00	  0.085531056	7.859100E+01	  0.085531056	3.957000E+01	  0.085531056	4.227500E+01
329	  0.085731462	-7.138000E+00	  0.085731462	7.838400E+01	  0.085731462	3.969100E+01	  0.085731462	4.237400E+01
330	  0.085931860	-7.144000E+00	  0.085931860	7.822600E+01	  0.085931860	3.980300E+01	  0.085931860	4.242500E+01
331	  0.086132258	-7.146000E+00	  0.086132258	7.801100E+01	  0.086132258	3.993700E+01	  0.086132258	4.251900E+01
332	  0.086332664	-7.152000E+00	  0.086332664	7.777300E+01	  0.086332664	4.009800E+01	  0.086332664	4.260600E+01
333	  0.086533062	-7.157000E+00	  0.086533062	7.761000E+01	  0.086533062	4.020900E+01	  0.086533062	4.266600E+01
334	  0.086733460	-7.156000E+00	  0.086733460	7.740700E+01	  0.086733460	4.033000E+01	  0.086733460	4.276400E+01
335	  0.086933866	-7.155000E+00	  0.086933866	7.718200E+01	  0.086933866	4.046300E+01	  0.086933866	4.287400E+01
336	  0.087134264	-7.164000E+00	  0.087134264	7.697000E+01	  0.087134264	4.061900E+01	  0.087134264	4.293800E+01
337	  0.087334670	-7.169000E+00	  0.087334670	7.674400E+01	  0.087334670	4.077200E+01	  0.087334670	4.302400E+01
338	  0.087535068	-7.170000E+00	  0.087535068	7.652700E+01	  0.087535068	4.090800E+01	  0.087535068	4.312300E+01
339	  0.087735467	-7.179000E+00	  0.087735467	7.631600E+01	  0.087735467	4.106600E+01	  0.087735467	4.318500E+01
340	  0.087935872	-7.185000E+00	  0.087935872	7.603900E+01	  0.087935872	4.125800E+01	  0.087935872	4.328700E+01
341	  0.088136271	-7.195000E+00	  0.088136271	7.580100E+01	  0.088136271	4.143500E+01	  0.088136271	4.336000E+01
342	  0.088336669	-7.194000E+00	  0.088336669	7.551800E+01	  0.088336669	4.161200E+01	  0.088336669	4.349400E+01
343	  0.088537075	-7.204000E+00	  0.088537075	7.524400E+01	  0.088537075	4.181500E+01	  0.088537075	4.358000E+01
344	  0.088737473	-7.202000E+00	  0.088737473	7.491400E+01	  0.088737473	4.202100E+01	  0.088737473	4.374100E+01
345	  0.088937871	-7.204000E+00	  0.088937871	7.464200E+01	  0.088937871	4.220300E+01	  0.088937871	4.385700E+01
346	  0.089138277	-7.202000E+00	  0.089138277	7.438200E+01	  0.089138277	4.236500E+01	  0.089138277	4.398400E+01
347	  0.089338675	-7.199000E+00	  0.089338675	7.407300E+01	  0.089338675	4.255800E+01	  0.089338675	4.413900E+01
348	  0.089539073	-7.196000E+00	  0.089539073	7.378500E+01	  0.089539073	4.273700E+01	  0.089539073	4.428800E+01
349	  0.089739479	-7.190000E+00	  0.089739479	7.352800E+01	  0.089739479	4.288800E+01	  0.089739479	4.443300E+01
350	  0.089939877	-7.181000E+00	  0.089939877	7.322300E+01	  0.089939877	4.306700E+01	  0.089939877	4.460900E+01
351	  0.090140276	-7.175000E+00	  0.090140276	7.297700E+01	  0.090140276	4.321400E+01	  0.090140276	4.475000E+01
352	  0.090340681	-7.167000E+00	  0.090340681	7.272200E+01	  0.090340681	4.336200E+01	  0.090340681	4.490400E+01
353	  0.090541080	-7.163000E+00	  0.090541080	7.248500E+01	  0.090541080	4.351100E+01	  0.090541080	4.503100E+01
354	  0.090741485	-7.153000E+00	  0.090741485	7.227700E+01	  0.090741485	4.362400E+01	  0.090741485	4.517100E+01
355	  0.090941884	-7.145000E+00	  0.090941884	7.205300E+01	  0.090941884	4.375500E+01	  0.090941884	4.531000E+01
356	  0.091142282	-7.137000E+00	  0.091142282	7.181100E+01	  0.091142282	4.389800E+01	  0.091142282	4.545800E+01
357	  0.091342688	-7.135000E+00	  0.091342688	7.158800E+01	  0.091342688	4.404800E+01	  0.091342688	4.557100E+01
358	  0.091543086	-7.124000E+00	  0.091543086	7.136600E+01	  0.091543086	4.417000E+01	  0.091543086	4.572400E+01
359	  0.091743484	-7.120000E+00	  0.091743484	7.120700E+01	  0.091743484	4.427000E+01	  0.091743484	4.581600E+01
360	  0.091943890	-7.107000E+00	  0.091943890	7.099400E+01	  0.091943890	4.438100E+01	  0.091943890	4.597600E+01
361	  0.092144288	-7.098000E+00	  0.092144288	7.080400E+01	  0.092144288	4.449000E+01	  0.092144288	4.610600E+01
362	  0.092344686	-7.092000E+00	  0.092344686	7.066300E+01	  0.092344686	4.457300E+01	  0.092344686	4.620000E+01
363	  0.092545092	-7.082000E+00	  0.092545092	7.050000E+01	  0.092545092	4.465900E+01	  0.092545092	4.632300E+01
364	  0.092745490	-7.085000E+00	  0.092745490	7.040000E+01	  0.092745490	4.474100E+01	  0.092745490	4.635400E+01
365	  0.092945889	-7.085000E+00	  0.092945889	7.021900E+01	  0.092945889	4.487200E+01	  0.092945889	4.643900E+01
366	  0.093146294	-7.084000E+00	  0.093146294	7.011200E+01	  0.093146294	4.494800E+01	  0.093146294	4.649100E+01
367	  0.093346693	-7.086000E+00	  0.093346693	6.997000E+01	  0.093346693	4.505600E+01	  0.093346693	4.654900E+01
368	  0.093547091	-7.094000E+00	  0.093547091	6.983900E+01	  0.093547091	4.517600E+01	  0.093547091	4.657100E+01
369	  0.093747497	-7.098000E+00	  0.093747497	6.964500E+01	  0.093747497	4.533200E+01	  0.093747497	4.663900E+01
370	  0.093947895	-7.112000E+00	  0.093947895	6.945900E+01	  0.093947895	4.551300E+01	  0.093947895	4.665400E+01
371	  0.094148301	-7.115000E+00	  0.094148301	6.929000E+01	  0.094148301	4.564800E+01	  0.094148301	4.671500E+01
372	  0.094348699	-7.125000E+00	  0.094348699	6.908200E+01	  0.094348699	4.583400E+01	  0.094348699	4.676000E+01
373	  0.094549097	-7.133000E+00	  0.094549097	6.885300E+01	  0.094549097	4.602700E+01	  0.094549097	4.682600E+01
374	  0.094749503	-7.144000E+00	  0.094749503	6.865700E+01	  0.094749503	4.620800E+01	  0.094749503	4.685800E+01
375	  0.094949901	-7.156000E+00	  0.094949901	6.843000E+01	  0.094949901	4.641400E+01	  0.094949901	4.690100E+01
376	  0.095150299	-7.157000E+00	  0.095150299	6.817900E+01	  0.095150299	4.660900E+01	  0.095150299	4.700500E+01
377	  0.095350705	-7.168000E+00	  0.095350705	6.794200E+01	  0.095350705	4.682100E+01	  0.095350705	4.705700E+01
378	  0.095551103	-7.176000E+00	  0.095551103	6.767300E+01	  0.095551103	4.705500E+01	  0.095551103	4.713100E+01
379	  0.095751502	-7.189000E+00	  0.095751502	6.740200E+01	  0.095751502	4.730100E+01	  0.095751502	4.718500E+01
380	  0.095951907	-7.192000E+00	  0.095951907	6.710800E+01	  0.095951907	4.753900E+01	  0.095951907	4.729800E+01
381	  0.096152306	-7.198000E+00	  0.096152306	6.682500E+01	  0.096152306	4.777900E+01	  0.096152306	4.738900E+01
382	  0.096352704	-7.202000E+00	  0.096352704	6.654600E+01	  0.096352704	4.801300E+01	  0.096352704	4.748400E+01
383	  0.096553110	-7.208000E+00	  0.096553110	6.620300E+01	  0.096553110	4.830500E+01	  0.096553110	4.759800E+01
384	  0.096753508	-7.207000E+00	  0.096753508	6.586700E+01	  0.096753508	4.857000E+01	  0.096753508	4.775000E+01
385	  0.096953906	-7.205000E+00	  0.096953906	6.555200E+01	  0.096953906	4.882100E+01	  0.096953906	4.789300E+01
386	  0.097154312	-7.202000E+00	  0.097154312	6.525600E+01	  0.097154312	4.905600E+01	  0.097154312	4.803400E+01
387	  0.097354710	-7.193000E+00	  0.097354710	6.493400E+01	  0.097354710	4.929700E+01	  0.097354710	4.821700E+01
388	  0.097555116	-7.183000E+00	  0.097555116	6.463700E+01	  0.097555116	4.951800E+01	  0.097555116	4.839200E+01
389	  0.097755514	-7.173000E+00	  0.097755514	6.434500E+01	  0.097755514	4.973500E+01	  0.097755514	4.857100E+01
390	  0.097955912	-7.168000E+00	  0.097955912	6.408600E+01	  0.097955912	4.993900E+01	  0.097955912	4.871000E+01
391	  0.098156318	-7.156000E+00	  0.098156318	6.383000E+01	  0.098156318	5.012600E+01	  0.098156318	4.888100E+01
392	  0.098356716	-7.143000E+00	  0.098356716	6.359000E+01	  0.098356716	5.029600E+01	  0.098356716	4.905400E+01
393	  0.098557115	-7.131000E+00	  0.098557115	6.336400E+01	  0.098557115	5.045900E+01	  0.098557115	4.921700E+01
394	  0.098757520	-7.123000E+00	  0.098757520	6.315600E+01	  0.098757520	5.061700E+01	  0.098757520	4.934800E+01
395	  0.098957919	-7.116000E+00	  0.098957919	6.294200E+01	  0.098957919	5.078500E+01	  0.098957919	4.947700E+01
396	  0.099158317	-7.113000E+00	  0.099158317	6.274500E+01	  0.099158317	5.095000E+01	  0.099158317	4.957900E+01
397	  0.099358723	-7.113000E+00	  0.099358723	6.253200E+01	  0.099358723	5.113900E+01	  0.099358723	4.966400E+01
398	  0.099559121	-7.099000E+00	  0.099559121	6.236000E+01	  0.099559121	5.125400E+01	  0.099559121	4.981600E+01
399	  0.099759519	-7.092000E+00	  0.099759519	6.216600E+01	  0.099759519	5.140700E+01	  0.099759519	4.994000E+01
400	  0.099959925	-7.093000E+00	  0.099959925	6.198200E+01	  0.099959925	5.157600E+01	  0.099959925	5.000600E+01
401	  0.100160323	-7.091000E+00	  0.100160323	6.186000E+01	  0.100160323	5.168100E+01	  0.100160323	5.006800E+01
402	  0.100360721	-7.097000E+00	  0.100360721	6.170100E+01	  0.100360721	5.184000E+01	  0.100360721	5.009900E+01
403	  0.100561127	-7.092000E+00	  0.100561127	6.148200E+01	  0.100561127	5.202700E+01	  0.100561127	5.021700E+01
404	  0.100761525	-7.096000E+00	  0.100761525	6.125600E+01	  0.100761525	5.224500E+01	  0.100761525	5.028100E+01
405	  0.100961931	-7.089000E+00	  0.100961931	6.112900E+01	  0.100961931	5.234300E+01	  0.100961931	5.037400E+01
406	  0.101162329	-7.095000E+00	  0.101162329	6.092400E+01	  0.101162329	5.254600E+01	  0.101162329	5.042400E+01
407	  0.101362728	-7.099000E+00	  0.101362728	6.068900E+01	  0.101362728	5.277700E+01	  0.101362728	5.048700E+01
408	  0.101563133	-7.100000E+00	  0.101563133	6.055100E+01	  0.101563133	5.290600E+01	  0.101563133	5.053900E+01
409	  0.101763532	-7.111000E+00	  0.101763532	6.026900E+01	  0.101763532	5.320000E+01	  0.101763532	5.058000E+01
410	  0.101963930	-7.114000E+00	  0.101963930	6.009700E+01	  0.101963930	5.336900E+01	  0.101963930	5.062800E+01
411	  0.102164336	-7.106000E+00	  0.102164336	5.987600E+01	  0.102164336	5.355800E+01	  0.102164336	5.076200E+01
412	  0.102364734	-7.111000E+00	  0.102364734	5.969100E+01	  0.102364734	5.374700E+01	  0.102364734	5.080100E+01
413	  0.102565132	-7.105000E+00	  0.102565132	5.945000E+01	  0.102565132	5.396300E+01	  0.102565132	5.093100E+01
414	  0.102765530	-7.114000E+00	  0.102765530	5.915900E+01	  0.102765530	5.426400E+01	  0.102765530	5.098600E+01
415	  0.102965929	-7.110000E+00	  0.102965929	5.892200E+01	  0.102965929	5.448400E+01	  0.102965929	5.109900E+01
416	  0.103166327	-7.113000E+00	  0.103166327	5.874900E+01	  0.103166327	5.465900E+01	  0.103166327	5.114900E+01
417	  0.103366733	-7.106000E+00	  0.103366733	5.847500E+01	  0.103366733	5.491100E+01	  0.103366733	5.129400E+01
418	  0.103567131	-7.101000E+00	  0.103567131	5.830300E+01	  0.103567131	5.506800E+01	  0.103567131	5.138800E+01
419	  0.103767529	-7.097000E+00	  0.103767529	5.799200E+01	  0.103767529	5.536700E+01	  0.103767529	5.152800E+01
420	  0.103967935	-7.100000E+00	  0.103967935	5.785000E+01	  0.103967935	5.551500E+01	  0.103967935	5.156200E+01
421	  0.104168333	-7.095000E+00	  0.104168333	5.762000E+01	  0.104168333	5.573400E+01	  0.104168333	5.167600E+01
422	  0.104368731	-7.095000E+00	  0.104368731	5.737800E+01	  0.104368731	5.597900E+01	  0.104368731	5.176500E+01
423	  0.104569137	-7.096000E+00	  0.104569137	5.714200E+01	  0.104569137	5.622200E+01	  0.104569137	5.183800E+01
424	  0.104769535	-7.088000E+00	  0.104769535	5.694700E+01	  0.104769535	5.640100E+01	  0.104769535	5.196200E+01
425	  0.104969934	-7.096000E+00	  0.104969934	5.675800E+01	  0.104969934	5.661300E+01	  0.104969934	5.197700E+01
426	  0.105170339	-7.084000E+00	  0.105170339	5.652300E+01	  0.105170339	5.682700E+01	  0.105170339	5.214100E+01
427	  0.105370738	-7.093000E+00	  0.105370738	5.633200E+01	  0.105370738	5.704500E+01	  0.105370738	5.214400E+01
428	  0.105571143	-7.090000E+00	  0.105571143	5.610300E+01	  0.105571143	5.727800E+01	  0.105571143	5.224000E+01
429	  0.105771542	-7.098000E+00	  0.105771542	5.588700E+01	  0.105771542	5.752100E+01	  0.105771542	5.226200E+01
430	  0.105971940	-7.097000E+00	  0.105971940	5.571000E+01	  0.105971940	5.770700E+01	  0.105971940	5.232300E+01
431	  0.106172346	-7.104000E+00	  0.106172346	5.544000E+01	  0.106172346	5.800600E+01	  0.106172346	5.236900E+01
432	  0.106372744	-7.098000E+00	  0.106372744	5.524100E+01	  0.106372744	5.820500E+01	  0.106372744	5.247400E+01
433	  0.106573142	-7.103000E+00	  0.106573142	5.501700E+01	  0.106573142	5.845500E+01	  0.106573142	5.251100E+01
434	  0.106773548	-7.110000E+00	  0.106773548	5.474400E+01	  0.106773548	5.876400E+01	  0.106773548	5.254700E+01
435	  0.106973946	-7.109000E+00	  0.106973946	5.453700E+01	  0.106973946	5.898500E+01	  0.106973946	5.262000E+01
436	  0.107174344	-7.110000E+00	  0.107174344	5.429900E+01	  0.107174344	5.924600E+01	  0.107174344	5.268500E+01
437	  0.107374750	-7.109000E+00	  0.107374750	5.408300E+01	  0.107374750	5.947900E+01	  0.107374750	5.276300E+01
438	  0.107575148	-7.107000E+00	  0.107575148	5.386600E+01	  0.107575148	5.971300E+01	  0.107575148	5.284200E+01
439	  0.107775547	-7.112000E+00	  0.107775547	5.364000E+01	  0.107775547	5.997400E+01	  0.107775547	5.286900E+01
440	  0.107975952	-7.112000E+00	  0.107975952	5.338100E+01	  0.107975952	6.026100E+01	  0.107975952	5.294600E+01
441	  0.108176351	-7.112000E+00	  0.108176351	5.307200E+01	  0.108176351	6.060600E+01	  0.108176351	5.303800E+01
442	  0.108376749	-7.100000E+00	  0.108376749	5.283100E+01	  0.108376749	6.085500E+01	  0.108376749	5.319600E+01
443	  0.108577155	-7.109000E+00	  0.108577155	5.260700E+01	  0.108577155	6.112500E+01	  0.108577155	5.319100E+01
444	  0.108777553	-7.100000E+00	  0.108777553	5.237800E+01	  0.108777553	6.137000E+01	  0.108777553	5.331900E+01
445	  0.108977959	-7.092000E+00	  0.108977959	5.215000E+01	  0.108977959	6.161500E+01	  0.108977959	5.344800E+01
446	  0.109178357	-7.097000E+00	  0.109178357	5.195000E+01	  0.109178357	6.185600E+01	  0.109178357	5.345900E+01
447	  0.109378755	-7.092000E+00	  0.109378755	5.169400E+01	  0.109378755	6.214300E+01	  0.109378755	5.356800E+01
448	  0.109579161	-7.094000E+00	  0.109579161	5.146300E+01	  0.109579161	6.241700E+01	  0.109579161	5.361100E+01
449	  0.109779559	-7.087000E+00	  0.109779559	5.130200E+01	  0.109779559	6.259300E+01	  0.109779559	5.370600E+01
450	  0.109979957	-7.083000E+00	  0.109979957	5.107500E+01	  0.109979957	6.285300E+01	  0.109979957	5.379400E+01
451	  0.110180363	-7.080000E+00	  0.110180363	5.087000E+01	  0.110180363	6.309200E+01	  0.110180363	5.386700E+01
452	  0.110380761	-7.077000E+00	  0.110380761	5.066400E+01	  0.110380761	6.333200E+01	  0.110380761	5.394100E+01
453	  0.110581160	-7.084000E+00	  0.110581160	5.041500E+01	  0.110581160	6.363900E+01	  0.110581160	5.395100E+01
454	  0.110781565	-7.078000E+00	  0.110781565	5.020000E+01	  0.110781565	6.388900E+01	  0.110781565	5.405100E+01
455	  0.110981964	-7.087000E+00	  0.110981964	4.998900E+01	  0.110981964	6.415700E+01	  0.110981964	5.402200E+01
456	  0.111182362	-7.080000E+00	  0.111182362	4.980000E+01	  0.111182362	6.437700E+01	  0.111182362	5.412000E+01
457	  0.111382768	-7.083000E+00	  0.111382768	4.955100E+01	  0.111382768	6.468400E+01	  0.111382768	5.415500E+01
458	  0.111583166	-7.081000E+00	  0.111583166	4.932500E+01	  0.111583166	6.495800E+01	  0.111583166	5.422000E+01
459	  0.111783572	-7.085000E+00	  0.111783572	4.911500E+01	  0.111783572	6.522200E+01	  0.111783572	5.423000E+01
460	  0.111983970	-7.086000E+00	  0.111983970	4.888300E+01	  0.111983970	6.551100E+01	  0.111983970	5.427100E+01
461	  0.112184368	-7.086000E+00	  0.112184368	4.867400E+01	  0.112184368	6.577200E+01	  0.112184368	5.430700E+01
462	  0.112384774	-7.093000E+00	  0.112384774	4.841500E+01	  0.112384774	6.610400E+01	  0.112384774	5.430100E+01
463	  0.112585172	-7.082000E+00	  0.112585172	4.824400E+01	  0.112585172	6.630500E+01	  0.112585172	5.442700E+01
464	  0.112785570	-7.089000E+00	  0.112785570	4.797000E+01	  0.112785570	6.666000E+01	  0.112785570	5.441900E+01
465	  0.112985976	-7.087000E+00	  0.112985976	4.774500E+01	  0.112985976	6.694300E+01	  0.112985976	5.447300E+01
466	  0.113186374	-7.084000E+00	  0.113186374	4.751000E+01	  0.113186374	6.724000E+01	  0.113186374	5.454000E+01
467	  0.113386773	-7.083000E+00	  0.113386773	4.727600E+01	  0.113386773	6.753900E+01	  0.113386773	5.458800E+01
468	  0.113587178	-7.082000E+00	  0.113587178	4.697900E+01	  0.113587178	6.792200E+01	  0.113587178	5.463600E+01
469	  0.113787577	-7.073000E+00	  0.113787577	4.681400E+01	  0.113787577	6.812700E+01	  0.113787577	5.474200E+01
470	  0.113987975	-7.067000E+00	  0.113987975	4.658900E+01	  0.113987975	6.841500E+01	  0.113987975	5.482300E+01
471	  0.114188381	-7.064000E+00	  0.114188381	4.636500E+01	  0.114188381	6.870700E+01	  0.114188381	5.488100E+01
472	  0.114388779	-7.061000E+00	  0.114388779	4.614200E+01	  0.114388779	6.899800E+01	  0.114388779	5.494100E+01
473	  0.114589177	-7.060000E+00	  0.114589177	4.593600E+01	  0.114589177	6.927000E+01	  0.114589177	5.497600E+01
474	  0.114789583	-7.056000E+00	  0.114789583	4.574600E+01	  0.114789583	6.952000E+01	  0.114789583	5.503400E+01
475	  0.114989981	-7.051000E+00	  0.114989981	4.554200E+01	  0.114989981	6.978900E+01	  0.114989981	5.510500E+01
476	  0.115190387	-7.048000E+00	  0.115190387	4.535300E+01	  0.115190387	7.004000E+01	  0.115190387	5.515300E+01
477	  0.115390785	-7.045000E+00	  0.115390785	4.517400E+01	  0.115390785	7.028000E+01	  0.115390785	5.519900E+01
478	  0.115591183	-7.053000E+00	  0.115591183	4.499800E+01	  0.115591183	7.052500E+01	  0.115591183	5.514700E+01
479	  0.115791589	-7.054000E+00	  0.115791589	4.480400E+01	  0.115791589	7.078900E+01	  0.115791589	5.515400E+01
480	  0.115991987	-7.054000E+00	  0.115991987	4.461200E+01	  0.115991987	7.105200E+01	  0.115991987	5.516900E+01
481	  0.116192386	-7.056000E+00	  0.116192386	4.439900E+01	  0.116192386	7.134500E+01	  0.116192386	5.516600E+01
482	  0.116392791	-7.061000E+00	  0.116392791	4.419300E+01	  0.116392791	7.163000E+01	  0.116392791	5.514400E+01
483	  0.116593190	-7.063000E+00	  0.116593190	4.397900E+01	  0.116593190	7.192800E+01	  0.116593190	5.513300E+01
484	  0.116793588	-7.067000E+00	  0.116793588	4.375600E+01	  0.116793588	7.223800E+01	  0.116793588	5.511000E+01
485	  0.116993994	-7.076000E+00	  0.116993994	4.351400E+01	  0.116993994	7.257800E+01	  0.116993994	5.504700E+01
486	  0.117194392	-7.076000E+00	  0.117194392	4.330600E+01	  0.117194392	7.286800E+01	  0.117194392	5.505600E+01
487	  0.117394790	-7.078000E+00	  0.117394790	4.305000E+01	  0.117394790	7.322800E+01	  0.117394790	5.504000E+01
488	  0.117595196	-7.082000E+00	  0.117595196	4.281800E+01	  0.117595196	7.355700E+01	  0.117595196	5.501100E+01
489	  0.117795594	-7.088000E+00	  0.117795594	4.258600E+01	  0.117795594	7.388600E+01	  0.117795594	5.495600E+01
490	  0.117995992	-7.089000E+00	  0.117995992	4.233700E+01	  0.117995992	7.423800E+01	  0.117995992	5.495400E+01
491	  0.118196398	-7.094000E+00	  0.118196398	4.203800E+01	  0.118196398	7.466600E+01	  0.118196398	5.490300E+01
492	  0.118396796	-7.096000E+00	  0.118396796	4.179100E+01	  0.118396796	7.501900E+01	  0.118396796	5.488100E+01
493	  0.118597202	-7.090000E+00	  0.118597202	4.148500E+01	  0.118597202	7.546300E+01	  0.118597202	5.493100E+01
494	  0.118797600	-7.085000E+00	  0.118797600	4.121700E+01	  0.118797600	7.585200E+01	  0.118797600	5.496500E+01
495	  0.118997999	-7.089000E+00	  0.118997999	4.097900E+01	  0.118997999	7.619800E+01	  0.118997999	5.491600E+01
496	  0.119198404	-7.083000E+00	  0.119198404	4.072600E+01	  0.119198404	7.657000E+01	  0.119198404	5.496400E+01
497	  0.119398803	-7.078000E+00	  0.119398803	4.048600E+01	  0.119398803	7.692600E+01	  0.119398803	5.499000E+01
498	  0.119599201	-7.071000E+00	  0.119599201	4.016700E+01	  0.119599201	7.740300E+01	  0.119599201	5.504200E+01
499	  0.119799607	-7.069000E+00	  0.119799607	3.998800E+01	  0.119799607	7.767000E+01	  0.119799607	5.504300E+01
500	  0.120000005	-7.061000E+00	  0.120000005	3.970600E+01	  0.120000005	7.809700E+01	  0.120000005	5.509600E+01
