! Anritsu VNA Master:             	Model: MS2036C/10/77
! SN:             	1601066
! /card0/usr/18may27.balun/252b.r20.2.txt
! Existing Calibration Information:
! TYPE:             	Current Settings	Active Cal Settings
! TIME:             	05/27/2018 12:33:17 PM	05/27/2018 12:21:44 PM
! INTERNAL TEMP:    	53.5 C	53.3 C
! # POINTS:         	500	500
! START FREQ:       	20.000 MHz	20.000 MHz
! STOP FREQ:        	120.000 MHz	120.000 MHz
! SOURCE POWER:     	High	High
! IFBW:             	50 Hz	50 Hz
! AVG FACTOR:       	  1 	  1 
! REF PLANE 1:      	0 mm	0 mm
! REF PLANE 2:      	0 mm	0 mm
! CAL TYPE:         	Full S11	Full S11
! CAL METHOD:       	SOLT	SOLT
! CAL LINE TYPE:    	Coax	Coax
! DUT PORT 1:       	K-Conn(M)	K-Conn(M)
! DUT PORT 2:       	K-Conn(M)	K-Conn(M)
! CAL STATUS:       	OK: Accuracy High	--
! PROP-V:       	0.700
! CABLE LOSS:       	0.000 dB/m
! REF IMPEDANCE:       	50.0
! Trace Specific Parameters:	TR1	TR2	TR3	TR4
! TRACE.#.Y (GRAPH TYPE)	LOG MAG	PHASE	REAL IMPEDANCE	IMAGINARY IMPEDANCE
! TRACE.#.X 	FREQ.GHZ	FREQ.GHZ	FREQ.GHZ	FREQ.GHZ
! S-PARAMETER	S11	S11	S11	S11
! SMOOTH/APERTURE %	0	0	0	0
! WINDOW	NSL	NSL	NSL	NSL
! GATING	OFF	OFF	OFF	OFF
! FGTD	OFF	OFF	OFF	OFF
Marker Information per Trace:	TR1	TR2	TR3	TR4
!MK1	--	--	--	"MK1 TR4:  70.100 200 MHz,Z:(33.346 ohm, 36.026 ohm)"
!MK2	--	--	--	--
!MK3	--	--	--	--
!MK4	--	--	--	--
!MK5	--	--	--	--
!MK6	--	--	--	--
!MK7	--	--	--	--
!MK8	--	--	--	--
PNT	TR1.FREQ.GHZ	TR1.LOG MAG.dB	TR2.FREQ.GHZ	TR2.PHASE.deg	TR3.FREQ.GHZ	TR3.REAL IMPEDANCE.ohm	TR4.FREQ.GHZ	TR4.IMAGINARY IMPEDANCE.ohm
1	  0.020000000	-7.282000E+00	  0.020000000	1.539440E+02	  0.020000000	2.070100E+01	  0.020000000	9.670000E+00
2	  0.020200402	-7.281000E+00	  0.020200402	1.537060E+02	  0.020200402	2.071300E+01	  0.020200402	9.761000E+00
3	  0.020400802	-7.277000E+00	  0.020400802	1.535000E+02	  0.020400802	2.071900E+01	  0.020400802	9.841000E+00
4	  0.020601204	-7.276000E+00	  0.020601204	1.532770E+02	  0.020601204	2.073200E+01	  0.020601204	9.926000E+00
5	  0.020801604	-7.273000E+00	  0.020801604	1.530690E+02	  0.020801604	2.073900E+01	  0.020801604	1.000600E+01
6	  0.021002004	-7.270000E+00	  0.021002004	1.528290E+02	  0.021002004	2.074800E+01	  0.021002004	1.009800E+01
7	  0.021202406	-7.274000E+00	  0.021202406	1.526100E+02	  0.021202406	2.077600E+01	  0.021202406	1.017900E+01
8	  0.021402806	-7.284000E+00	  0.021402806	1.524090E+02	  0.021402806	2.081500E+01	  0.021402806	1.025100E+01
9	  0.021603208	-7.287000E+00	  0.021603208	1.521540E+02	  0.021603208	2.084200E+01	  0.021603208	1.034500E+01
10	  0.021803608	-7.295000E+00	  0.021803608	1.519150E+02	  0.021803608	2.088100E+01	  0.021803608	1.043200E+01
11	  0.022004008	-7.307000E+00	  0.022004008	1.516730E+02	  0.022004008	2.092800E+01	  0.022004008	1.051800E+01
12	  0.022204408	-7.308000E+00	  0.022204408	1.514170E+02	  0.022204408	2.095100E+01	  0.022204408	1.061400E+01
13	  0.022404809	-7.317000E+00	  0.022404809	1.511390E+02	  0.022404809	2.099400E+01	  0.022404809	1.071600E+01
14	  0.022605211	-7.324000E+00	  0.022605211	1.508410E+02	  0.022605211	2.103500E+01	  0.022605211	1.082500E+01
15	  0.022805611	-7.326000E+00	  0.022805611	1.505380E+02	  0.022805611	2.106500E+01	  0.022805611	1.093900E+01
16	  0.023006011	-7.329000E+00	  0.023006011	1.502330E+02	  0.023006011	2.109900E+01	  0.023006011	1.105300E+01
17	  0.023206413	-7.327000E+00	  0.023206413	1.498920E+02	  0.023206413	2.112200E+01	  0.023206413	1.118400E+01
18	  0.023406813	-7.327000E+00	  0.023406813	1.495880E+02	  0.023406813	2.114500E+01	  0.023406813	1.130000E+01
19	  0.023607215	-7.328000E+00	  0.023607215	1.492650E+02	  0.023607215	2.117500E+01	  0.023607215	1.142200E+01
20	  0.023807615	-7.321000E+00	  0.023807615	1.489420E+02	  0.023807615	2.118500E+01	  0.023807615	1.154900E+01
21	  0.024008015	-7.319000E+00	  0.024008015	1.486310E+02	  0.024008015	2.120700E+01	  0.024008015	1.166900E+01
22	  0.024208417	-7.311000E+00	  0.024208417	1.483740E+02	  0.024208417	2.120900E+01	  0.024208417	1.177200E+01
23	  0.024408817	-7.308000E+00	  0.024408817	1.480980E+02	  0.024408817	2.122600E+01	  0.024408817	1.187800E+01
24	  0.024609219	-7.305000E+00	  0.024609219	1.478820E+02	  0.024609219	2.123700E+01	  0.024609219	1.196300E+01
25	  0.024809619	-7.303000E+00	  0.024809619	1.476510E+02	  0.024809619	2.125200E+01	  0.024809619	1.205300E+01
26	  0.025010020	-7.297000E+00	  0.025010020	1.474290E+02	  0.025010020	2.125800E+01	  0.025010020	1.214100E+01
27	  0.025210422	-7.293000E+00	  0.025210422	1.471890E+02	  0.025210422	2.127000E+01	  0.025210422	1.223500E+01
28	  0.025410822	-7.294000E+00	  0.025410822	1.469400E+02	  0.025410822	2.129400E+01	  0.025410822	1.233000E+01
29	  0.025611224	-7.293000E+00	  0.025611224	1.467260E+02	  0.025611224	2.131000E+01	  0.025611224	1.241400E+01
30	  0.025811624	-7.288000E+00	  0.025811624	1.464860E+02	  0.025811624	2.132100E+01	  0.025811624	1.250900E+01
31	  0.026012026	-7.282000E+00	  0.026012026	1.462530E+02	  0.026012026	2.132800E+01	  0.026012026	1.260200E+01
32	  0.026212426	-7.280000E+00	  0.026212426	1.460170E+02	  0.026212426	2.134400E+01	  0.026212426	1.269400E+01
33	  0.026412826	-7.282000E+00	  0.026412826	1.458050E+02	  0.026412826	2.137100E+01	  0.026412826	1.277400E+01
34	  0.026613226	-7.285000E+00	  0.026613226	1.455650E+02	  0.026613226	2.139900E+01	  0.026613226	1.286500E+01
35	  0.026813626	-7.288000E+00	  0.026813626	1.453710E+02	  0.026813626	2.142800E+01	  0.026813626	1.293700E+01
36	  0.027014028	-7.296000E+00	  0.027014028	1.451750E+02	  0.027014028	2.146600E+01	  0.027014028	1.300800E+01
37	  0.027214428	-7.304000E+00	  0.027214428	1.449590E+02	  0.027214428	2.150700E+01	  0.027214428	1.308600E+01
38	  0.027414829	-7.310000E+00	  0.027414829	1.447450E+02	  0.027414829	2.154500E+01	  0.027414829	1.316500E+01
39	  0.027615231	-7.318000E+00	  0.027615231	1.444930E+02	  0.027615231	2.158900E+01	  0.027615231	1.325700E+01
40	  0.027815631	-7.331000E+00	  0.027815631	1.442020E+02	  0.027815631	2.165300E+01	  0.027815631	1.336000E+01
41	  0.028016033	-7.338000E+00	  0.028016033	1.438700E+02	  0.028016033	2.170200E+01	  0.028016033	1.348400E+01
42	  0.028216433	-7.344000E+00	  0.028216433	1.435480E+02	  0.028216433	2.175100E+01	  0.028216433	1.360400E+01
43	  0.028416833	-7.346000E+00	  0.028416833	1.431750E+02	  0.028416833	2.179600E+01	  0.028416833	1.374600E+01
44	  0.028617235	-7.346000E+00	  0.028617235	1.428270E+02	  0.028617235	2.183200E+01	  0.028617235	1.388100E+01
45	  0.028817635	-7.342000E+00	  0.028817635	1.424760E+02	  0.028817635	2.186000E+01	  0.028817635	1.401900E+01
46	  0.029018037	-7.340000E+00	  0.029018037	1.421260E+02	  0.029018037	2.189300E+01	  0.029018037	1.415600E+01
47	  0.029218437	-7.330000E+00	  0.029218437	1.418150E+02	  0.029218437	2.189900E+01	  0.029218437	1.428500E+01
48	  0.029418837	-7.320000E+00	  0.029418837	1.415400E+02	  0.029418837	2.190400E+01	  0.029418837	1.439900E+01
49	  0.029619239	-7.306000E+00	  0.029619239	1.412940E+02	  0.029619239	2.189700E+01	  0.029619239	1.450400E+01
50	  0.029819639	-7.296000E+00	  0.029819639	1.410580E+02	  0.029819639	2.189600E+01	  0.029819639	1.460400E+01
51	  0.030020041	-7.285000E+00	  0.030020041	1.408790E+02	  0.030020041	2.188800E+01	  0.030020041	1.468200E+01
52	  0.030220442	-7.278000E+00	  0.030220442	1.406790E+02	  0.030220442	2.189200E+01	  0.030220442	1.476500E+01
53	  0.030420844	-7.276000E+00	  0.030420844	1.404870E+02	  0.030420844	2.190800E+01	  0.030420844	1.484200E+01
54	  0.030621244	-7.282000E+00	  0.030621244	1.402890E+02	  0.030621244	2.194700E+01	  0.030621244	1.491400E+01
55	  0.030821644	-7.280000E+00	  0.030821644	1.400390E+02	  0.030821644	2.197000E+01	  0.030821644	1.501400E+01
56	  0.031022044	-7.279000E+00	  0.031022044	1.398010E+02	  0.031022044	2.199700E+01	  0.031022044	1.510700E+01
57	  0.031222444	-7.265000E+00	  0.031222444	1.395930E+02	  0.031222444	2.198400E+01	  0.031222444	1.520000E+01
58	  0.031422846	-7.267000E+00	  0.031422846	1.393550E+02	  0.031422846	2.201700E+01	  0.031422846	1.529200E+01
59	  0.031623244	-7.267000E+00	  0.031623244	1.391280E+02	  0.031623244	2.204400E+01	  0.031623244	1.538100E+01
60	  0.031823646	-7.266000E+00	  0.031823646	1.389370E+02	  0.031823646	2.206300E+01	  0.031823646	1.545700E+01
61	  0.032024048	-7.265000E+00	  0.032024048	1.387290E+02	  0.032024048	2.208500E+01	  0.032024048	1.554000E+01
62	  0.032224450	-7.263000E+00	  0.032224450	1.385150E+02	  0.032224450	2.210500E+01	  0.032224450	1.562600E+01
63	  0.032424849	-7.263000E+00	  0.032424849	1.383100E+02	  0.032424849	2.213200E+01	  0.032424849	1.570600E+01
64	  0.032625251	-7.263000E+00	  0.032625251	1.381110E+02	  0.032625251	2.215600E+01	  0.032625251	1.578400E+01
65	  0.032825653	-7.269000E+00	  0.032825653	1.378880E+02	  0.032825653	2.219900E+01	  0.032825653	1.586800E+01
66	  0.033026051	-7.280000E+00	  0.033026051	1.376540E+02	  0.033026051	2.225600E+01	  0.033026051	1.595000E+01
67	  0.033226453	-7.291000E+00	  0.033226453	1.374020E+02	  0.033226453	2.231500E+01	  0.033226453	1.604100E+01
68	  0.033426855	-7.300000E+00	  0.033426855	1.371080E+02	  0.033426855	2.237500E+01	  0.033426855	1.615000E+01
69	  0.033627257	-7.309000E+00	  0.033627257	1.367750E+02	  0.033627257	2.244000E+01	  0.033627257	1.627400E+01
70	  0.033827655	-7.317000E+00	  0.033827655	1.364450E+02	  0.033827655	2.250500E+01	  0.033827655	1.639700E+01
71	  0.034028057	-7.322000E+00	  0.034028057	1.361260E+02	  0.034028057	2.255900E+01	  0.034028057	1.651900E+01
72	  0.034228459	-7.326000E+00	  0.034228459	1.357470E+02	  0.034228459	2.261900E+01	  0.034228459	1.666500E+01
73	  0.034428857	-7.325000E+00	  0.034428857	1.354440E+02	  0.034428857	2.265700E+01	  0.034428857	1.678600E+01
74	  0.034629259	-7.319000E+00	  0.034629259	1.351010E+02	  0.034629259	2.268700E+01	  0.034629259	1.692700E+01
75	  0.034829661	-7.313000E+00	  0.034829661	1.348170E+02	  0.034829661	2.271000E+01	  0.034829661	1.704500E+01
76	  0.035030060	-7.301000E+00	  0.035030060	1.345140E+02	  0.035030060	2.271800E+01	  0.035030060	1.717600E+01
77	  0.035230462	-7.287000E+00	  0.035230462	1.342080E+02	  0.035230462	2.272300E+01	  0.035230462	1.731100E+01
78	  0.035430863	-7.271000E+00	  0.035430863	1.339720E+02	  0.035430863	2.271400E+01	  0.035430863	1.742000E+01
79	  0.035631265	-7.261000E+00	  0.035631265	1.337720E+02	  0.035631265	2.271700E+01	  0.035631265	1.750800E+01
80	  0.035831664	-7.257000E+00	  0.035831664	1.336160E+02	  0.035831664	2.272600E+01	  0.035831664	1.757500E+01
81	  0.036032066	-7.258000E+00	  0.036032066	1.334390E+02	  0.036032066	2.275400E+01	  0.036032066	1.764400E+01
82	  0.036232468	-7.258000E+00	  0.036232468	1.332200E+02	  0.036232468	2.278400E+01	  0.036232468	1.773200E+01
83	  0.036432866	-7.262000E+00	  0.036432866	1.329880E+02	  0.036432866	2.282800E+01	  0.036432866	1.782200E+01
84	  0.036633268	-7.270000E+00	  0.036633268	1.327370E+02	  0.036633268	2.288600E+01	  0.036633268	1.791400E+01
85	  0.036833670	-7.271000E+00	  0.036833670	1.325070E+02	  0.036833670	2.292200E+01	  0.036833670	1.800500E+01
86	  0.037034072	-7.274000E+00	  0.037034072	1.322760E+02	  0.037034072	2.296100E+01	  0.037034072	1.809600E+01
87	  0.037234470	-7.274000E+00	  0.037234470	1.320130E+02	  0.037234470	2.300000E+01	  0.037234470	1.820100E+01
88	  0.037434869	-7.273000E+00	  0.037434869	1.317730E+02	  0.037434869	2.303200E+01	  0.037434869	1.829900E+01
89	  0.037635271	-7.271000E+00	  0.037635271	1.315360E+02	  0.037635271	2.306200E+01	  0.037635271	1.839600E+01
90	  0.037835669	-7.267000E+00	  0.037835669	1.312760E+02	  0.037835669	2.309200E+01	  0.037835669	1.850400E+01
91	  0.038036071	-7.261000E+00	  0.038036071	1.310830E+02	  0.038036071	2.310400E+01	  0.038036071	1.858800E+01
92	  0.038236473	-7.264000E+00	  0.038236473	1.308630E+02	  0.038236473	2.314600E+01	  0.038236473	1.867400E+01
93	  0.038436871	-7.268000E+00	  0.038436871	1.306550E+02	  0.038436871	2.318700E+01	  0.038436871	1.875400E+01
94	  0.038637273	-7.277000E+00	  0.038637273	1.304130E+02	  0.038637273	2.324800E+01	  0.038637273	1.884300E+01
95	  0.038837675	-7.282000E+00	  0.038837675	1.301430E+02	  0.038837675	2.330300E+01	  0.038837675	1.894600E+01
96	  0.039038073	-7.289000E+00	  0.039038073	1.298310E+02	  0.039038073	2.337000E+01	  0.039038073	1.906600E+01
97	  0.039238475	-7.292000E+00	  0.039238475	1.295300E+02	  0.039238475	2.342400E+01	  0.039238475	1.918500E+01
98	  0.039438877	-7.300000E+00	  0.039438877	1.292410E+02	  0.039438877	2.349000E+01	  0.039438877	1.929300E+01
99	  0.039639279	-7.300000E+00	  0.039639279	1.289220E+02	  0.039639279	2.354200E+01	  0.039639279	1.942300E+01
100	  0.039839678	-7.297000E+00	  0.039839678	1.286200E+02	  0.039839678	2.358300E+01	  0.039839678	1.954800E+01
101	  0.040040080	-7.293000E+00	  0.040040080	1.283700E+02	  0.040040080	2.361200E+01	  0.040040080	1.965400E+01
102	  0.040240481	-7.285000E+00	  0.040240481	1.280680E+02	  0.040240481	2.363900E+01	  0.040240481	1.978500E+01
103	  0.040440880	-7.275000E+00	  0.040440880	1.277980E+02	  0.040440880	2.365800E+01	  0.040440880	1.990600E+01
104	  0.040641282	-7.261000E+00	  0.040641282	1.275480E+02	  0.040641282	2.366000E+01	  0.040641282	2.002400E+01
105	  0.040841684	-7.246000E+00	  0.040841684	1.273280E+02	  0.040841684	2.365800E+01	  0.040841684	2.012900E+01
106	  0.041042086	-7.245000E+00	  0.041042086	1.271490E+02	  0.041042086	2.368300E+01	  0.041042086	2.020500E+01
107	  0.041242484	-7.242000E+00	  0.041242484	1.269990E+02	  0.041242484	2.370100E+01	  0.041242484	2.026900E+01
108	  0.041442886	-7.246000E+00	  0.041442886	1.268450E+02	  0.041442886	2.373700E+01	  0.041442886	2.032800E+01
109	  0.041643288	-7.254000E+00	  0.041643288	1.266400E+02	  0.041643288	2.379300E+01	  0.041643288	2.040400E+01
110	  0.041843686	-7.259000E+00	  0.041843686	1.264120E+02	  0.041843686	2.384600E+01	  0.041843686	2.049100E+01
111	  0.042044088	-7.268000E+00	  0.042044088	1.261680E+02	  0.042044088	2.391200E+01	  0.042044088	2.058100E+01
112	  0.042244490	-7.277000E+00	  0.042244490	1.259360E+02	  0.042244490	2.397700E+01	  0.042244490	2.066600E+01
113	  0.042444889	-7.284000E+00	  0.042444889	1.256650E+02	  0.042444889	2.404300E+01	  0.042444889	2.076900E+01
114	  0.042645290	-7.286000E+00	  0.042645290	1.254210E+02	  0.042645290	2.409100E+01	  0.042645290	2.086700E+01
115	  0.042845692	-7.289000E+00	  0.042845692	1.251170E+02	  0.042845692	2.415200E+01	  0.042845692	2.098900E+01
116	  0.043046094	-7.288000E+00	  0.043046094	1.248190E+02	  0.043046094	2.420200E+01	  0.043046094	2.111300E+01
117	  0.043246493	-7.283000E+00	  0.043246493	1.245200E+02	  0.043246493	2.424200E+01	  0.043246493	2.124200E+01
118	  0.043446895	-7.279000E+00	  0.043446895	1.242510E+02	  0.043446895	2.428000E+01	  0.043446895	2.135700E+01
119	  0.043647297	-7.282000E+00	  0.043647297	1.239860E+02	  0.043647297	2.433700E+01	  0.043647297	2.146300E+01
120	  0.043847695	-7.284000E+00	  0.043847695	1.237170E+02	  0.043847695	2.439100E+01	  0.043847695	2.157200E+01
121	  0.044048097	-7.286000E+00	  0.044048097	1.234540E+02	  0.044048097	2.444600E+01	  0.044048097	2.167800E+01
122	  0.044248499	-7.295000E+00	  0.044248499	1.231480E+02	  0.044248499	2.452700E+01	  0.044248499	2.179400E+01
123	  0.044448901	-7.298000E+00	  0.044448901	1.228350E+02	  0.044448901	2.459300E+01	  0.044448901	2.192000E+01
124	  0.044649299	-7.293000E+00	  0.044649299	1.225270E+02	  0.044649299	2.463900E+01	  0.044649299	2.205400E+01
125	  0.044849701	-7.293000E+00	  0.044849701	1.222360E+02	  0.044849701	2.469400E+01	  0.044849701	2.217500E+01
126	  0.045050103	-7.281000E+00	  0.045050103	1.219250E+02	  0.045050103	2.471900E+01	  0.045050103	2.232000E+01
127	  0.045250501	-7.270000E+00	  0.045250501	1.216700E+02	  0.045250501	2.474000E+01	  0.045250501	2.244000E+01
128	  0.045450903	-7.261000E+00	  0.045450903	1.213780E+02	  0.045450903	2.477200E+01	  0.045450903	2.257400E+01
129	  0.045651305	-7.246000E+00	  0.045651305	1.210710E+02	  0.045651305	2.479000E+01	  0.045651305	2.272100E+01
130	  0.045851704	-7.233000E+00	  0.045851704	1.208470E+02	  0.045851704	2.479800E+01	  0.045851704	2.283300E+01
131	  0.046052106	-7.217000E+00	  0.046052106	1.206400E+02	  0.046052106	2.479400E+01	  0.046052106	2.294100E+01
132	  0.046252504	-7.201000E+00	  0.046252504	1.204650E+02	  0.046252504	2.478500E+01	  0.046252504	2.303500E+01
133	  0.046452906	-7.195000E+00	  0.046452906	1.203290E+02	  0.046452906	2.479700E+01	  0.046452906	2.310000E+01
134	  0.046653304	-7.194000E+00	  0.046653304	1.202290E+02	  0.046653304	2.481200E+01	  0.046653304	2.314400E+01
135	  0.046853706	-7.198000E+00	  0.046853706	1.200980E+02	  0.046853706	2.484900E+01	  0.046853706	2.319500E+01
136	  0.047054108	-7.202000E+00	  0.047054108	1.199360E+02	  0.047054108	2.489400E+01	  0.047054108	2.325700E+01
137	  0.047254506	-7.211000E+00	  0.047254506	1.198120E+02	  0.047254506	2.494500E+01	  0.047254506	2.329700E+01
138	  0.047454908	-7.218000E+00	  0.047454908	1.196000E+02	  0.047454908	2.500700E+01	  0.047454908	2.337800E+01
139	  0.047655310	-7.231000E+00	  0.047655310	1.194340E+02	  0.047655310	2.507600E+01	  0.047655310	2.343100E+01
140	  0.047855709	-7.238000E+00	  0.047855709	1.192170E+02	  0.047855709	2.514200E+01	  0.047855709	2.351200E+01
141	  0.048056111	-7.245000E+00	  0.048056111	1.189840E+02	  0.048056111	2.520800E+01	  0.048056111	2.360200E+01
142	  0.048256513	-7.254000E+00	  0.048256513	1.187030E+02	  0.048256513	2.529200E+01	  0.048256513	2.370800E+01
143	  0.048456915	-7.261000E+00	  0.048456915	1.184560E+02	  0.048456915	2.536400E+01	  0.048456915	2.380200E+01
144	  0.048657313	-7.267000E+00	  0.048657313	1.182030E+02	  0.048657313	2.543300E+01	  0.048657313	2.390200E+01
145	  0.048857715	-7.275000E+00	  0.048857715	1.179230E+02	  0.048857715	2.551800E+01	  0.048857715	2.400800E+01
146	  0.049058117	-7.285000E+00	  0.049058117	1.176640E+02	  0.049058117	2.559900E+01	  0.049058117	2.410400E+01
147	  0.049258515	-7.297000E+00	  0.049258515	1.174000E+02	  0.049258515	2.569100E+01	  0.049258515	2.419800E+01
148	  0.049458917	-7.303000E+00	  0.049458917	1.171020E+02	  0.049458917	2.577300E+01	  0.049458917	2.431600E+01
149	  0.049659319	-7.312000E+00	  0.049659319	1.167650E+02	  0.049659319	2.587200E+01	  0.049659319	2.444600E+01
150	  0.049859721	-7.317000E+00	  0.049859721	1.164310E+02	  0.049859721	2.596100E+01	  0.049859721	2.457900E+01
151	  0.050060119	-7.323000E+00	  0.050060119	1.160730E+02	  0.050060119	2.605600E+01	  0.050060119	2.472300E+01
152	  0.050260521	-7.325000E+00	  0.050260521	1.157420E+02	  0.050260521	2.613600E+01	  0.050260521	2.486100E+01
153	  0.050460923	-7.324000E+00	  0.050460923	1.153960E+02	  0.050460923	2.621300E+01	  0.050460923	2.500900E+01
154	  0.050661322	-7.315000E+00	  0.050661322	1.150390E+02	  0.050661322	2.627000E+01	  0.050661322	2.517500E+01
155	  0.050861724	-7.306000E+00	  0.050861724	1.147020E+02	  0.050861724	2.632100E+01	  0.050861724	2.533300E+01
156	  0.051062126	-7.293000E+00	  0.051062126	1.143740E+02	  0.051062126	2.636200E+01	  0.051062126	2.549300E+01
157	  0.051262524	-7.278000E+00	  0.051262524	1.140690E+02	  0.051262524	2.639000E+01	  0.051262524	2.564800E+01
158	  0.051462926	-7.265000E+00	  0.051462926	1.138020E+02	  0.051462926	2.641800E+01	  0.051462926	2.578300E+01
159	  0.051663328	-7.254000E+00	  0.051663328	1.135640E+02	  0.051663328	2.644400E+01	  0.051663328	2.590200E+01
160	  0.051863730	-7.242000E+00	  0.051863730	1.133510E+02	  0.051863730	2.646000E+01	  0.051863730	2.601300E+01
161	  0.052064128	-7.233000E+00	  0.052064128	1.131580E+02	  0.052064128	2.648200E+01	  0.052064128	2.611100E+01
162	  0.052264530	-7.232000E+00	  0.052264530	1.129960E+02	  0.052264530	2.651800E+01	  0.052264530	2.618300E+01
163	  0.052464932	-7.234000E+00	  0.052464932	1.128020E+02	  0.052464932	2.657000E+01	  0.052464932	2.626300E+01
164	  0.052665330	-7.232000E+00	  0.052665330	1.125670E+02	  0.052665330	2.662100E+01	  0.052665330	2.636900E+01
165	  0.052865732	-7.236000E+00	  0.052865732	1.123640E+02	  0.052865732	2.668300E+01	  0.052865732	2.645100E+01
166	  0.053066134	-7.235000E+00	  0.053066134	1.121570E+02	  0.053066134	2.673100E+01	  0.053066134	2.654200E+01
167	  0.053266536	-7.235000E+00	  0.053266536	1.119220E+02	  0.053266536	2.679100E+01	  0.053266536	2.664400E+01
168	  0.053466935	-7.236000E+00	  0.053466935	1.116370E+02	  0.053466935	2.686300E+01	  0.053466935	2.676700E+01
169	  0.053667337	-7.236000E+00	  0.053667337	1.113960E+02	  0.053667337	2.692600E+01	  0.053667337	2.687100E+01
170	  0.053867739	-7.233000E+00	  0.053867739	1.111190E+02	  0.053867739	2.698700E+01	  0.053867739	2.699700E+01
171	  0.054068137	-7.234000E+00	  0.054068137	1.108910E+02	  0.054068137	2.704800E+01	  0.054068137	2.709500E+01
172	  0.054268539	-7.232000E+00	  0.054268539	1.106550E+02	  0.054268539	2.710100E+01	  0.054268539	2.720300E+01
173	  0.054468941	-7.233000E+00	  0.054468941	1.104150E+02	  0.054468941	2.716700E+01	  0.054468941	2.730500E+01
174	  0.054669339	-7.236000E+00	  0.054669339	1.101770E+02	  0.054669339	2.723600E+01	  0.054669339	2.740500E+01
175	  0.054869737	-7.237000E+00	  0.054869737	1.099190E+02	  0.054869737	2.730900E+01	  0.054869737	2.751500E+01
176	  0.055070139	-7.242000E+00	  0.055070139	1.096580E+02	  0.055070139	2.738900E+01	  0.055070139	2.762200E+01
177	  0.055270538	-7.241000E+00	  0.055270538	1.093890E+02	  0.055270538	2.745900E+01	  0.055270538	2.774100E+01
178	  0.055470940	-7.241000E+00	  0.055470940	1.091280E+02	  0.055470940	2.753000E+01	  0.055470940	2.785500E+01
179	  0.055671342	-7.241000E+00	  0.055671342	1.088600E+02	  0.055671342	2.760200E+01	  0.055671342	2.797300E+01
180	  0.055871744	-7.233000E+00	  0.055871744	1.085690E+02	  0.055871744	2.765600E+01	  0.055871744	2.811600E+01
181	  0.056072142	-7.229000E+00	  0.056072142	1.082980E+02	  0.056072142	2.771700E+01	  0.056072142	2.824400E+01
182	  0.056272544	-7.220000E+00	  0.056272544	1.080360E+02	  0.056272544	2.776400E+01	  0.056272544	2.837500E+01
183	  0.056472946	-7.210000E+00	  0.056472946	1.077760E+02	  0.056472946	2.780700E+01	  0.056472946	2.850800E+01
184	  0.056673344	-7.205000E+00	  0.056673344	1.075410E+02	  0.056673344	2.785600E+01	  0.056673344	2.862200E+01
185	  0.056873746	-7.196000E+00	  0.056873746	1.073560E+02	  0.056873746	2.788300E+01	  0.056873746	2.872000E+01
186	  0.057074148	-7.191000E+00	  0.057074148	1.071680E+02	  0.057074148	2.792100E+01	  0.057074148	2.881300E+01
187	  0.057274550	-7.183000E+00	  0.057274550	1.069660E+02	  0.057274550	2.795500E+01	  0.057274550	2.891700E+01
188	  0.057474948	-7.184000E+00	  0.057474948	1.068000E+02	  0.057474948	2.800300E+01	  0.057474948	2.899000E+01
189	  0.057675350	-7.187000E+00	  0.057675350	1.066470E+02	  0.057675350	2.805600E+01	  0.057675350	2.905300E+01
190	  0.057875752	-7.193000E+00	  0.057875752	1.064600E+02	  0.057875752	2.812800E+01	  0.057875752	2.912500E+01
191	  0.058076151	-7.198000E+00	  0.058076151	1.062470E+02	  0.058076151	2.820100E+01	  0.058076151	2.921100E+01
192	  0.058276553	-7.208000E+00	  0.058276553	1.060640E+02	  0.058276553	2.828400E+01	  0.058276553	2.927400E+01
193	  0.058476955	-7.214000E+00	  0.058476955	1.058060E+02	  0.058476955	2.837900E+01	  0.058476955	2.937600E+01
194	  0.058677353	-7.220000E+00	  0.058677353	1.055620E+02	  0.058677353	2.846500E+01	  0.058677353	2.947500E+01
195	  0.058877755	-7.226000E+00	  0.058877755	1.052920E+02	  0.058877755	2.856300E+01	  0.058877755	2.958400E+01
196	  0.059078157	-7.232000E+00	  0.059078157	1.049910E+02	  0.059078157	2.867200E+01	  0.059078157	2.970500E+01
197	  0.059278559	-7.241000E+00	  0.059278559	1.047520E+02	  0.059278559	2.876800E+01	  0.059278559	2.979500E+01
198	  0.059478957	-7.241000E+00	  0.059478957	1.044440E+02	  0.059478957	2.886200E+01	  0.059478957	2.993200E+01
199	  0.059679359	-7.251000E+00	  0.059679359	1.041910E+02	  0.059679359	2.896500E+01	  0.059679359	3.002700E+01
200	  0.059879761	-7.252000E+00	  0.059879761	1.038910E+02	  0.059879761	2.906300E+01	  0.059879761	3.015700E+01
201	  0.060080159	-7.254000E+00	  0.060080159	1.036150E+02	  0.060080159	2.915100E+01	  0.060080159	3.027800E+01
202	  0.060280561	-7.259000E+00	  0.060280561	1.032790E+02	  0.060280561	2.926900E+01	  0.060280561	3.041900E+01
203	  0.060480963	-7.257000E+00	  0.060480963	1.029720E+02	  0.060480963	2.936000E+01	  0.060480963	3.056000E+01
204	  0.060681365	-7.264000E+00	  0.060681365	1.026880E+02	  0.060681365	2.946900E+01	  0.060681365	3.067400E+01
205	  0.060881764	-7.257000E+00	  0.060881764	1.023730E+02	  0.060881764	2.955000E+01	  0.060881764	3.082900E+01
206	  0.061082166	-7.254000E+00	  0.061082166	1.020500E+02	  0.061082166	2.964500E+01	  0.061082166	3.098000E+01
207	  0.061282568	-7.246000E+00	  0.061282568	1.017080E+02	  0.061282568	2.973000E+01	  0.061282568	3.115200E+01
208	  0.061482966	-7.238000E+00	  0.061482966	1.014150E+02	  0.061482966	2.980100E+01	  0.061482966	3.130200E+01
209	  0.061683368	-7.228000E+00	  0.061683368	1.010820E+02	  0.061683368	2.988200E+01	  0.061683368	3.147300E+01
210	  0.061883770	-7.216000E+00	  0.061883770	1.007970E+02	  0.061883770	2.993900E+01	  0.061883770	3.162900E+01
211	  0.062084168	-7.201000E+00	  0.062084168	1.005390E+02	  0.062084168	2.998000E+01	  0.062084168	3.177900E+01
212	  0.062284570	-7.187000E+00	  0.062284570	1.003040E+02	  0.062284570	3.001500E+01	  0.062284570	3.191800E+01
213	  0.062484972	-7.168000E+00	  0.062484972	1.001340E+02	  0.062484972	3.001500E+01	  0.062484972	3.203700E+01
214	  0.062685370	-7.157000E+00	  0.062685370	9.995800E+01	  0.062685370	3.004000E+01	  0.062685370	3.214300E+01
215	  0.062885776	-7.150000E+00	  0.062885776	9.975900E+01	  0.062885776	3.008600E+01	  0.062885776	3.225000E+01
216	  0.063086174	-7.145000E+00	  0.063086174	9.958800E+01	  0.063086174	3.013000E+01	  0.063086174	3.233900E+01
217	  0.063286573	-7.140000E+00	  0.063286573	9.945200E+01	  0.063286573	3.015900E+01	  0.063286573	3.241500E+01
218	  0.063486971	-7.138000E+00	  0.063486971	9.925500E+01	  0.063486971	3.022200E+01	  0.063486971	3.250800E+01
219	  0.063687377	-7.135000E+00	  0.063687377	9.908000E+01	  0.063687377	3.027100E+01	  0.063687377	3.259700E+01
220	  0.063887775	-7.133000E+00	  0.063887775	9.889800E+01	  0.063887775	3.032800E+01	  0.063887775	3.268600E+01
221	  0.064088173	-7.138000E+00	  0.064088173	9.876200E+01	  0.064088173	3.039200E+01	  0.064088173	3.273600E+01
222	  0.064288579	-7.138000E+00	  0.064288579	9.850500E+01	  0.064288579	3.048200E+01	  0.064288579	3.285500E+01
223	  0.064488977	-7.141000E+00	  0.064488977	9.827400E+01	  0.064488977	3.057000E+01	  0.064488977	3.295600E+01
224	  0.064689375	-7.140000E+00	  0.064689375	9.808100E+01	  0.064689375	3.063500E+01	  0.064689375	3.304800E+01
225	  0.064889781	-7.142000E+00	  0.064889781	9.787200E+01	  0.064889781	3.071600E+01	  0.064889781	3.313900E+01
226	  0.065090179	-7.142000E+00	  0.065090179	9.770700E+01	  0.065090179	3.077400E+01	  0.065090179	3.321600E+01
227	  0.065290578	-7.150000E+00	  0.065290578	9.749700E+01	  0.065290578	3.087600E+01	  0.065290578	3.329300E+01
228	  0.065490983	-7.157000E+00	  0.065490983	9.726000E+01	  0.065490983	3.098000E+01	  0.065490983	3.338800E+01
229	  0.065691382	-7.157000E+00	  0.065691382	9.706000E+01	  0.065691382	3.105400E+01	  0.065691382	3.348000E+01
230	  0.065891780	-7.163000E+00	  0.065891780	9.685400E+01	  0.065891780	3.114900E+01	  0.065891780	3.356000E+01
231	  0.066092186	-7.168000E+00	  0.066092186	9.659000E+01	  0.066092186	3.125800E+01	  0.066092186	3.367200E+01
232	  0.066292584	-7.173000E+00	  0.066292584	9.637000E+01	  0.066292584	3.135600E+01	  0.066292584	3.376100E+01
233	  0.066492982	-7.176000E+00	  0.066492982	9.611500E+01	  0.066492982	3.146000E+01	  0.066492982	3.387200E+01
234	  0.066693388	-7.182000E+00	  0.066693388	9.583000E+01	  0.066693388	3.158600E+01	  0.066693388	3.398800E+01
235	  0.066893786	-7.187000E+00	  0.066893786	9.557600E+01	  0.066893786	3.169600E+01	  0.066893786	3.409400E+01
236	  0.067094192	-7.184000E+00	  0.067094192	9.532000E+01	  0.067094192	3.178200E+01	  0.067094192	3.422100E+01
237	  0.067294590	-7.181000E+00	  0.067294590	9.502700E+01	  0.067294590	3.188400E+01	  0.067294590	3.436600E+01
238	  0.067494988	-7.181000E+00	  0.067494988	9.474400E+01	  0.067494988	3.199200E+01	  0.067494988	3.449800E+01
239	  0.067695394	-7.182000E+00	  0.067695394	9.449100E+01	  0.067695394	3.209500E+01	  0.067695394	3.461200E+01
240	  0.067895792	-7.184000E+00	  0.067895792	9.426400E+01	  0.067895792	3.218800E+01	  0.067895792	3.471300E+01
241	  0.068096191	-7.183000E+00	  0.068096191	9.400900E+01	  0.068096191	3.228600E+01	  0.068096191	3.483400E+01
242	  0.068296596	-7.176000E+00	  0.068296596	9.375900E+01	  0.068296596	3.236400E+01	  0.068296596	3.496800E+01
243	  0.068496995	-7.186000E+00	  0.068496995	9.353700E+01	  0.068496995	3.248200E+01	  0.068496995	3.504500E+01
244	  0.068697393	-7.181000E+00	  0.068697393	9.329100E+01	  0.068697393	3.256400E+01	  0.068697393	3.517400E+01
245	  0.068897791	-7.181000E+00	  0.068897791	9.306500E+01	  0.068897791	3.265400E+01	  0.068897791	3.528000E+01
246	  0.069098189	-7.183000E+00	  0.069098189	9.280900E+01	  0.069098189	3.276500E+01	  0.069098189	3.539400E+01
247	  0.069298595	-7.186000E+00	  0.069298595	9.253800E+01	  0.069298595	3.288400E+01	  0.069298595	3.551300E+01
248	  0.069498993	-7.185000E+00	  0.069498993	9.225800E+01	  0.069498993	3.299400E+01	  0.069498993	3.564800E+01
249	  0.069699399	-7.184000E+00	  0.069699399	9.197700E+01	  0.069699399	3.310700E+01	  0.069699399	3.578100E+01
250	  0.069899797	-7.186000E+00	  0.069899797	9.173600E+01	  0.069899797	3.321300E+01	  0.069899797	3.588900E+01
251	  0.070100196	-7.188000E+00	  0.070100196	9.143300E+01	  0.070100196	3.334600E+01	  0.070100196	3.602600E+01
252	  0.070300601	-7.183000E+00	  0.070300601	9.123100E+01	  0.070300601	3.341700E+01	  0.070300601	3.613300E+01
253	  0.070501000	-7.189000E+00	  0.070501000	9.099500E+01	  0.070501000	3.353400E+01	  0.070501000	3.622800E+01
254	  0.070701398	-7.175000E+00	  0.070701398	9.069900E+01	  0.070701398	3.361800E+01	  0.070701398	3.640500E+01
255	  0.070901804	-7.177000E+00	  0.070901804	9.050000E+01	  0.070901804	3.370700E+01	  0.070901804	3.649500E+01
256	  0.071102202	-7.175000E+00	  0.071102202	9.031200E+01	  0.071102202	3.378200E+01	  0.071102202	3.658900E+01
257	  0.071302600	-7.174000E+00	  0.071302600	9.008200E+01	  0.071302600	3.388000E+01	  0.071302600	3.669900E+01
258	  0.071503006	-7.172000E+00	  0.071503006	8.984500E+01	  0.071503006	3.397700E+01	  0.071503006	3.681600E+01
259	  0.071703404	-7.174000E+00	  0.071703404	8.959300E+01	  0.071703404	3.409200E+01	  0.071703404	3.693100E+01
260	  0.071903802	-7.176000E+00	  0.071903802	8.935100E+01	  0.071903802	3.420700E+01	  0.071903802	3.703700E+01
261	  0.072104208	-7.176000E+00	  0.072104208	8.907800E+01	  0.072104208	3.432700E+01	  0.072104208	3.716700E+01
262	  0.072304606	-7.179000E+00	  0.072304606	8.879900E+01	  0.072304606	3.446100E+01	  0.072304606	3.729000E+01
263	  0.072505005	-7.184000E+00	  0.072505005	8.857600E+01	  0.072505005	3.457700E+01	  0.072505005	3.738000E+01
264	  0.072705410	-7.183000E+00	  0.072705410	8.833300E+01	  0.072705410	3.468400E+01	  0.072705410	3.749700E+01
265	  0.072905809	-7.184000E+00	  0.072905809	8.804300E+01	  0.072905809	3.481800E+01	  0.072905809	3.763200E+01
266	  0.073106214	-7.180000E+00	  0.073106214	8.779400E+01	  0.073106214	3.492200E+01	  0.073106214	3.776000E+01
267	  0.073306613	-7.179000E+00	  0.073306613	8.752500E+01	  0.073306613	3.504400E+01	  0.073306613	3.789000E+01
268	  0.073507011	-7.177000E+00	  0.073507011	8.725700E+01	  0.073507011	3.516000E+01	  0.073507011	3.802400E+01
269	  0.073707417	-7.179000E+00	  0.073707417	8.700600E+01	  0.073707417	3.528400E+01	  0.073707417	3.813600E+01
270	  0.073907815	-7.180000E+00	  0.073907815	8.674400E+01	  0.073907815	3.541200E+01	  0.073907815	3.825600E+01
271	  0.074108213	-7.182000E+00	  0.074108213	8.646700E+01	  0.074108213	3.555000E+01	  0.074108213	3.838100E+01
272	  0.074308619	-7.182000E+00	  0.074308619	8.623600E+01	  0.074308619	3.565800E+01	  0.074308619	3.849200E+01
273	  0.074509017	-7.176000E+00	  0.074509017	8.594500E+01	  0.074509017	3.577900E+01	  0.074509017	3.864900E+01
274	  0.074709415	-7.181000E+00	  0.074709415	8.564600E+01	  0.074709415	3.594100E+01	  0.074709415	3.877300E+01
275	  0.074909821	-7.177000E+00	  0.074909821	8.536600E+01	  0.074909821	3.606500E+01	  0.074909821	3.891900E+01
276	  0.075110219	-7.176000E+00	  0.075110219	8.506600E+01	  0.075110219	3.620800E+01	  0.075110219	3.906600E+01
277	  0.075310618	-7.168000E+00	  0.075310618	8.482600E+01	  0.075310618	3.630500E+01	  0.075310618	3.920300E+01
278	  0.075511023	-7.163000E+00	  0.075511023	8.454900E+01	  0.075511023	3.642700E+01	  0.075511023	3.935100E+01
279	  0.075711422	-7.159000E+00	  0.075711422	8.432400E+01	  0.075711422	3.652700E+01	  0.075711422	3.947100E+01
280	  0.075911827	-7.146000E+00	  0.075911827	8.402900E+01	  0.075911827	3.663500E+01	  0.075911827	3.965600E+01
281	  0.076112226	-7.135000E+00	  0.076112226	8.382400E+01	  0.076112226	3.670300E+01	  0.076112226	3.979100E+01
282	  0.076312624	-7.124000E+00	  0.076312624	8.363000E+01	  0.076312624	3.676800E+01	  0.076312624	3.992000E+01
283	  0.076513030	-7.118000E+00	  0.076513030	8.341800E+01	  0.076513030	3.685800E+01	  0.076513030	4.004200E+01
284	  0.076713428	-7.111000E+00	  0.076713428	8.327200E+01	  0.076713428	3.691200E+01	  0.076713428	4.013600E+01
285	  0.076913826	-7.108000E+00	  0.076913826	8.306300E+01	  0.076913826	3.701000E+01	  0.076913826	4.024700E+01
286	  0.077114232	-7.104000E+00	  0.077114232	8.290900E+01	  0.077114232	3.707800E+01	  0.077114232	4.033400E+01
287	  0.077314630	-7.105000E+00	  0.077314630	8.275300E+01	  0.077314630	3.716200E+01	  0.077314630	4.040700E+01
288	  0.077515028	-7.110000E+00	  0.077515028	8.257700E+01	  0.077515028	3.727300E+01	  0.077515028	4.047200E+01
289	  0.077715434	-7.116000E+00	  0.077715434	8.240600E+01	  0.077715434	3.738000E+01	  0.077715434	4.053400E+01
290	  0.077915832	-7.116000E+00	  0.077915832	8.221200E+01	  0.077915832	3.748500E+01	  0.077915832	4.062600E+01
291	  0.078116231	-7.125000E+00	  0.078116231	8.198200E+01	  0.078116231	3.763500E+01	  0.078116231	4.070600E+01
292	  0.078316636	-7.130000E+00	  0.078316636	8.176800E+01	  0.078316636	3.776400E+01	  0.078316636	4.079100E+01
293	  0.078517035	-7.136000E+00	  0.078517035	8.156800E+01	  0.078517035	3.789100E+01	  0.078517035	4.086500E+01
294	  0.078717433	-7.145000E+00	  0.078717433	8.134900E+01	  0.078717433	3.803800E+01	  0.078717433	4.093700E+01
295	  0.078917839	-7.157000E+00	  0.078917839	8.110600E+01	  0.078917839	3.821000E+01	  0.078917839	4.100800E+01
296	  0.079118237	-7.165000E+00	  0.079118237	8.087900E+01	  0.079118237	3.835700E+01	  0.079118237	4.108900E+01
297	  0.079318643	-7.179000E+00	  0.079318643	8.060200E+01	  0.079318643	3.855400E+01	  0.079318643	4.116900E+01
298	  0.079519041	-7.185000E+00	  0.079519041	8.032000E+01	  0.079519041	3.873200E+01	  0.079519041	4.127800E+01
299	  0.079719439	-7.195000E+00	  0.079719439	7.999500E+01	  0.079719439	3.894300E+01	  0.079719439	4.139600E+01
300	  0.079919845	-7.202000E+00	  0.079919845	7.965700E+01	  0.079919845	3.915800E+01	  0.079919845	4.152700E+01
301	  0.080120243	-7.213000E+00	  0.080120243	7.932300E+01	  0.080120243	3.938200E+01	  0.080120243	4.164200E+01
302	  0.080320641	-7.217000E+00	  0.080320641	7.895600E+01	  0.080320641	3.960400E+01	  0.080320641	4.180100E+01
303	  0.080521047	-7.220000E+00	  0.080521047	7.861300E+01	  0.080521047	3.981400E+01	  0.080521047	4.194700E+01
304	  0.080721445	-7.219000E+00	  0.080721445	7.823700E+01	  0.080721445	4.002900E+01	  0.080721445	4.212900E+01
305	  0.080921844	-7.214000E+00	  0.080921844	7.784400E+01	  0.080921844	4.024600E+01	  0.080921844	4.233200E+01
306	  0.081122249	-7.203000E+00	  0.081122249	7.753300E+01	  0.081122249	4.040000E+01	  0.081122249	4.251900E+01
307	  0.081322648	-7.192000E+00	  0.081322648	7.719100E+01	  0.081322648	4.057100E+01	  0.081322648	4.272300E+01
308	  0.081523046	-7.175000E+00	  0.081523046	7.688700E+01	  0.081523046	4.070300E+01	  0.081523046	4.293400E+01
309	  0.081723452	-7.157000E+00	  0.081723452	7.662000E+01	  0.081723452	4.081100E+01	  0.081723452	4.313100E+01
310	  0.081923850	-7.141000E+00	  0.081923850	7.636700E+01	  0.081923850	4.091900E+01	  0.081923850	4.331400E+01
311	  0.082124248	-7.126000E+00	  0.082124248	7.608900E+01	  0.082124248	4.104300E+01	  0.082124248	4.350800E+01
312	  0.082324654	-7.117000E+00	  0.082324654	7.592300E+01	  0.082324654	4.111700E+01	  0.082324654	4.362500E+01
313	  0.082525052	-7.101000E+00	  0.082525052	7.569900E+01	  0.082525052	4.120800E+01	  0.082525052	4.379800E+01
314	  0.082725458	-7.094000E+00	  0.082725458	7.549500E+01	  0.082725458	4.131700E+01	  0.082725458	4.392000E+01
315	  0.082925856	-7.078000E+00	  0.082925856	7.536200E+01	  0.082925856	4.135000E+01	  0.082925856	4.405400E+01
316	  0.083126254	-7.071000E+00	  0.083126254	7.518400E+01	  0.083126254	4.144200E+01	  0.083126254	4.416600E+01
317	  0.083326660	-7.066000E+00	  0.083326660	7.500600E+01	  0.083326660	4.153900E+01	  0.083326660	4.427400E+01
318	  0.083527058	-7.063000E+00	  0.083527058	7.485000E+01	  0.083527058	4.163100E+01	  0.083527058	4.436100E+01
319	  0.083727457	-7.062000E+00	  0.083727457	7.468800E+01	  0.083727457	4.173300E+01	  0.083727457	4.444200E+01
320	  0.083927862	-7.062000E+00	  0.083927862	7.456100E+01	  0.083927862	4.181500E+01	  0.083927862	4.450200E+01
321	  0.084128261	-7.064000E+00	  0.084128261	7.438400E+01	  0.084128261	4.193800E+01	  0.084128261	4.457600E+01
322	  0.084328659	-7.066000E+00	  0.084328659	7.424000E+01	  0.084328659	4.203700E+01	  0.084328659	4.463800E+01
323	  0.084529065	-7.069000E+00	  0.084529065	7.405800E+01	  0.084529065	4.216400E+01	  0.084529065	4.471300E+01
324	  0.084729463	-7.077000E+00	  0.084729463	7.391600E+01	  0.084729463	4.228300E+01	  0.084729463	4.474500E+01
325	  0.084929861	-7.084000E+00	  0.084929861	7.368100E+01	  0.084929861	4.246200E+01	  0.084929861	4.482400E+01
326	  0.085130267	-7.097000E+00	  0.085130267	7.344900E+01	  0.085130267	4.265700E+01	  0.085130267	4.487700E+01
327	  0.085330658	-7.109000E+00	  0.085330658	7.322700E+01	  0.085330658	4.284400E+01	  0.085330658	4.492600E+01
328	  0.085531056	-7.120000E+00	  0.085531056	7.296800E+01	  0.085531056	4.305300E+01	  0.085531056	4.499800E+01
329	  0.085731462	-7.131000E+00	  0.085731462	7.270200E+01	  0.085731462	4.326400E+01	  0.085731462	4.507700E+01
330	  0.085931860	-7.137000E+00	  0.085931860	7.242000E+01	  0.085931860	4.347700E+01	  0.085931860	4.517700E+01
331	  0.086132258	-7.151000E+00	  0.086132258	7.208900E+01	  0.086132258	4.374600E+01	  0.086132258	4.526900E+01
332	  0.086332664	-7.145000E+00	  0.086332664	7.175500E+01	  0.086332664	4.396200E+01	  0.086332664	4.544800E+01
333	  0.086533062	-7.144000E+00	  0.086533062	7.144900E+01	  0.086533062	4.417200E+01	  0.086533062	4.559300E+01
334	  0.086733460	-7.145000E+00	  0.086733460	7.114000E+01	  0.086733460	4.439200E+01	  0.086733460	4.573100E+01
335	  0.086933866	-7.130000E+00	  0.086933866	7.083300E+01	  0.086933866	4.456600E+01	  0.086933866	4.594300E+01
336	  0.087134264	-7.128000E+00	  0.087134264	7.053400E+01	  0.087134264	4.477600E+01	  0.087134264	4.608600E+01
337	  0.087334670	-7.118000E+00	  0.087334670	7.025700E+01	  0.087334670	4.494300E+01	  0.087334670	4.626400E+01
338	  0.087535068	-7.113000E+00	  0.087535068	7.003600E+01	  0.087535068	4.509100E+01	  0.087535068	4.638700E+01
339	  0.087735467	-7.105000E+00	  0.087735467	6.975100E+01	  0.087735467	4.527600E+01	  0.087735467	4.655500E+01
340	  0.087935872	-7.099000E+00	  0.087935872	6.952100E+01	  0.087935872	4.542600E+01	  0.087935872	4.669300E+01
341	  0.088136271	-7.090000E+00	  0.088136271	6.928200E+01	  0.088136271	4.557900E+01	  0.088136271	4.684200E+01
342	  0.088336669	-7.082000E+00	  0.088336669	6.906500E+01	  0.088336669	4.571500E+01	  0.088336669	4.698300E+01
343	  0.088537075	-7.083000E+00	  0.088537075	6.882700E+01	  0.088537075	4.589900E+01	  0.088537075	4.708500E+01
344	  0.088737473	-7.078000E+00	  0.088737473	6.860900E+01	  0.088737473	4.604800E+01	  0.088737473	4.721100E+01
345	  0.088937871	-7.078000E+00	  0.088937871	6.840900E+01	  0.088937871	4.620100E+01	  0.088937871	4.729900E+01
346	  0.089138277	-7.072000E+00	  0.089138277	6.819000E+01	  0.089138277	4.634800E+01	  0.089138277	4.743300E+01
347	  0.089338675	-7.064000E+00	  0.089338675	6.796900E+01	  0.089338675	4.649600E+01	  0.089338675	4.757200E+01
348	  0.089539073	-7.061000E+00	  0.089539073	6.780600E+01	  0.089539073	4.661400E+01	  0.089539073	4.765900E+01
349	  0.089739479	-7.059000E+00	  0.089739479	6.762000E+01	  0.089739479	4.675100E+01	  0.089739479	4.775500E+01
350	  0.089939877	-7.063000E+00	  0.089939877	6.741000E+01	  0.089939877	4.692800E+01	  0.089939877	4.783000E+01
351	  0.090140276	-7.062000E+00	  0.090140276	6.725000E+01	  0.090140276	4.704900E+01	  0.090140276	4.790800E+01
352	  0.090340681	-7.069000E+00	  0.090340681	6.703000E+01	  0.090340681	4.724400E+01	  0.090340681	4.796900E+01
353	  0.090541080	-7.078000E+00	  0.090541080	6.683000E+01	  0.090541080	4.742900E+01	  0.090541080	4.801200E+01
354	  0.090741485	-7.079000E+00	  0.090741485	6.660500E+01	  0.090741485	4.761000E+01	  0.090741485	4.810900E+01
355	  0.090941884	-7.087000E+00	  0.090941884	6.638400E+01	  0.090941884	4.781300E+01	  0.090941884	4.816200E+01
356	  0.091142282	-7.093000E+00	  0.091142282	6.615000E+01	  0.091142282	4.801900E+01	  0.091142282	4.823300E+01
357	  0.091342688	-7.103000E+00	  0.091342688	6.584900E+01	  0.091342688	4.829300E+01	  0.091342688	4.831000E+01
358	  0.091543086	-7.106000E+00	  0.091543086	6.561400E+01	  0.091543086	4.849200E+01	  0.091543086	4.839700E+01
359	  0.091743484	-7.111000E+00	  0.091743484	6.531400E+01	  0.091743484	4.875400E+01	  0.091743484	4.849900E+01
360	  0.091943890	-7.109000E+00	  0.091943890	6.508000E+01	  0.091943890	4.894000E+01	  0.091943890	4.861500E+01
361	  0.092144288	-7.107000E+00	  0.092144288	6.479200E+01	  0.092144288	4.917700E+01	  0.092144288	4.874600E+01
362	  0.092344686	-7.109000E+00	  0.092344686	6.452300E+01	  0.092344686	4.940800E+01	  0.092344686	4.885100E+01
363	  0.092545092	-7.109000E+00	  0.092545092	6.425700E+01	  0.092545092	4.963100E+01	  0.092545092	4.896800E+01
364	  0.092745490	-7.111000E+00	  0.092745490	6.398700E+01	  0.092745490	4.986700E+01	  0.092745490	4.906900E+01
365	  0.092945889	-7.101000E+00	  0.092945889	6.371900E+01	  0.092945889	5.006900E+01	  0.092945889	4.923800E+01
366	  0.093146294	-7.108000E+00	  0.093146294	6.347300E+01	  0.093146294	5.030100E+01	  0.093146294	4.930100E+01
367	  0.093346693	-7.096000E+00	  0.093346693	6.316800E+01	  0.093346693	5.053200E+01	  0.093346693	4.950000E+01
368	  0.093547091	-7.106000E+00	  0.093547091	6.295400E+01	  0.093547091	5.074800E+01	  0.093547091	4.953000E+01
369	  0.093747497	-7.098000E+00	  0.093747497	6.267100E+01	  0.093747497	5.097600E+01	  0.093747497	4.969300E+01
370	  0.093947895	-7.103000E+00	  0.093947895	6.240600E+01	  0.093947895	5.122400E+01	  0.093947895	4.977300E+01
371	  0.094148301	-7.098000E+00	  0.094148301	6.211300E+01	  0.094148301	5.147200E+01	  0.094148301	4.992400E+01
372	  0.094348699	-7.099000E+00	  0.094348699	6.182000E+01	  0.094348699	5.174000E+01	  0.094348699	5.003500E+01
373	  0.094549097	-7.088000E+00	  0.094549097	6.157600E+01	  0.094549097	5.193000E+01	  0.094549097	5.020400E+01
374	  0.094749503	-7.084000E+00	  0.094749503	6.129600E+01	  0.094749503	5.217500E+01	  0.094749503	5.034000E+01
375	  0.094949901	-7.078000E+00	  0.094949901	6.105100E+01	  0.094949901	5.238600E+01	  0.094949901	5.047200E+01
376	  0.095150299	-7.071000E+00	  0.095150299	6.077200E+01	  0.095150299	5.262600E+01	  0.095150299	5.062800E+01
377	  0.095350705	-7.065000E+00	  0.095350705	6.054500E+01	  0.095350705	5.282000E+01	  0.095350705	5.075900E+01
378	  0.095551103	-7.059000E+00	  0.095551103	6.029800E+01	  0.095551103	5.303800E+01	  0.095551103	5.088900E+01
379	  0.095751502	-7.054000E+00	  0.095751502	6.008400E+01	  0.095751502	5.322600E+01	  0.095751502	5.100800E+01
380	  0.095951907	-7.046000E+00	  0.095951907	5.984000E+01	  0.095951907	5.343900E+01	  0.095951907	5.115300E+01
381	  0.096152306	-7.043000E+00	  0.096152306	5.960400E+01	  0.096152306	5.365700E+01	  0.096152306	5.126400E+01
382	  0.096352704	-7.035000E+00	  0.096352704	5.940300E+01	  0.096352704	5.382800E+01	  0.096352704	5.139700E+01
383	  0.096553110	-7.030000E+00	  0.096553110	5.918600E+01	  0.096553110	5.402600E+01	  0.096553110	5.151200E+01
384	  0.096753508	-7.026000E+00	  0.096753508	5.896500E+01	  0.096753508	5.423000E+01	  0.096753508	5.162600E+01
385	  0.096953906	-7.021000E+00	  0.096953906	5.877900E+01	  0.096953906	5.440000E+01	  0.096953906	5.172900E+01
386	  0.097154312	-7.015000E+00	  0.097154312	5.860500E+01	  0.097154312	5.455600E+01	  0.097154312	5.183700E+01
387	  0.097354710	-7.005000E+00	  0.097354710	5.845800E+01	  0.097354710	5.467700E+01	  0.097354710	5.195600E+01
388	  0.097555116	-7.001000E+00	  0.097555116	5.822400E+01	  0.097555116	5.490000E+01	  0.097555116	5.207100E+01
389	  0.097755514	-7.001000E+00	  0.097755514	5.808200E+01	  0.097755514	5.504100E+01	  0.097755514	5.213000E+01
390	  0.097955912	-7.001000E+00	  0.097955912	5.793800E+01	  0.097955912	5.518600E+01	  0.097955912	5.218300E+01
391	  0.098156318	-7.002000E+00	  0.098156318	5.777600E+01	  0.098156318	5.535200E+01	  0.098156318	5.223700E+01
392	  0.098356716	-7.001000E+00	  0.098356716	5.764300E+01	  0.098356716	5.548200E+01	  0.098356716	5.229600E+01
393	  0.098557115	-7.004000E+00	  0.098557115	5.746500E+01	  0.098557115	5.567000E+01	  0.098557115	5.234400E+01
394	  0.098757520	-7.016000E+00	  0.098757520	5.731900E+01	  0.098757520	5.585000E+01	  0.098757520	5.231400E+01
395	  0.098957919	-7.022000E+00	  0.098957919	5.712900E+01	  0.098957919	5.605700E+01	  0.098957919	5.234700E+01
396	  0.099158317	-7.035000E+00	  0.099158317	5.691400E+01	  0.099158317	5.631000E+01	  0.099158317	5.233300E+01
397	  0.099358723	-7.049000E+00	  0.099358723	5.669700E+01	  0.099358723	5.656600E+01	  0.099358723	5.231700E+01
398	  0.099559121	-7.061000E+00	  0.099559121	5.646800E+01	  0.099559121	5.683300E+01	  0.099559121	5.231300E+01
399	  0.099759519	-7.073000E+00	  0.099759519	5.622200E+01	  0.099759519	5.711400E+01	  0.099759519	5.232100E+01
400	  0.099959925	-7.091000E+00	  0.099959925	5.591000E+01	  0.099959925	5.748200E+01	  0.099959925	5.230300E+01
401	  0.100160323	-7.094000E+00	  0.100160323	5.562900E+01	  0.100160323	5.778300E+01	  0.100160323	5.237700E+01
402	  0.100360721	-7.114000E+00	  0.100360721	5.531600E+01	  0.100360721	5.815900E+01	  0.100360721	5.234000E+01
403	  0.100561127	-7.117000E+00	  0.100561127	5.504500E+01	  0.100561127	5.845500E+01	  0.100561127	5.240100E+01
404	  0.100761525	-7.128000E+00	  0.100761525	5.468400E+01	  0.100761525	5.886500E+01	  0.100761525	5.243800E+01
405	  0.100961931	-7.134000E+00	  0.100961931	5.436800E+01	  0.100961931	5.921900E+01	  0.100961931	5.249300E+01
406	  0.101162329	-7.125000E+00	  0.101162329	5.399200E+01	  0.101162329	5.961100E+01	  0.101162329	5.267100E+01
407	  0.101362728	-7.128000E+00	  0.101362728	5.366100E+01	  0.101362728	5.998100E+01	  0.101362728	5.275000E+01
408	  0.101563133	-7.125000E+00	  0.101563133	5.332300E+01	  0.101563133	6.035200E+01	  0.101563133	5.286600E+01
409	  0.101763532	-7.130000E+00	  0.101763532	5.296500E+01	  0.101763532	6.075900E+01	  0.101763532	5.293700E+01
410	  0.101963930	-7.121000E+00	  0.101963930	5.272100E+01	  0.101963930	6.101900E+01	  0.101963930	5.307000E+01
411	  0.102164336	-7.105000E+00	  0.102164336	5.233400E+01	  0.102164336	6.142900E+01	  0.102164336	5.329700E+01
412	  0.102364734	-7.092000E+00	  0.102364734	5.200500E+01	  0.102364734	6.178300E+01	  0.102364734	5.348500E+01
413	  0.102565132	-7.083000E+00	  0.102565132	5.173700E+01	  0.102565132	6.207800E+01	  0.102565132	5.362100E+01
414	  0.102765530	-7.061000E+00	  0.102765530	5.143600E+01	  0.102765530	6.239000E+01	  0.102765530	5.387600E+01
415	  0.102965929	-7.056000E+00	  0.102965929	5.125000E+01	  0.102965929	6.260100E+01	  0.102965929	5.395900E+01
416	  0.103166327	-7.040000E+00	  0.103166327	5.096400E+01	  0.103166327	6.291300E+01	  0.103166327	5.415600E+01
417	  0.103366733	-7.031000E+00	  0.103366733	5.078100E+01	  0.103366733	6.311400E+01	  0.103366733	5.428000E+01
418	  0.103567131	-7.010000E+00	  0.103567131	5.058900E+01	  0.103567131	6.331000E+01	  0.103567131	5.449300E+01
419	  0.103767529	-7.005000E+00	  0.103767529	5.040200E+01	  0.103767529	6.352900E+01	  0.103767529	5.457700E+01
420	  0.103967935	-7.004000E+00	  0.103967935	5.021400E+01	  0.103967935	6.375400E+01	  0.103967935	5.463500E+01
421	  0.104168333	-6.994000E+00	  0.104168333	5.008200E+01	  0.104168333	6.389900E+01	  0.104168333	5.474500E+01
422	  0.104368731	-6.990000E+00	  0.104368731	4.994200E+01	  0.104368731	6.406400E+01	  0.104368731	5.481200E+01
423	  0.104569137	-6.984000E+00	  0.104569137	4.978600E+01	  0.104569137	6.424600E+01	  0.104569137	5.489800E+01
424	  0.104769535	-6.980000E+00	  0.104769535	4.960600E+01	  0.104769535	6.446100E+01	  0.104769535	5.497600E+01
425	  0.104969934	-6.984000E+00	  0.104969934	4.944100E+01	  0.104969934	6.467200E+01	  0.104969934	5.498700E+01
426	  0.105170339	-6.985000E+00	  0.105170339	4.925000E+01	  0.105170339	6.491200E+01	  0.105170339	5.501700E+01
427	  0.105370738	-6.995000E+00	  0.105370738	4.908400E+01	  0.105370738	6.513400E+01	  0.105370738	5.497600E+01
428	  0.105571143	-6.994000E+00	  0.105571143	4.888400E+01	  0.105571143	6.538200E+01	  0.105571143	5.502900E+01
429	  0.105771542	-7.000000E+00	  0.105771542	4.868500E+01	  0.105771542	6.564200E+01	  0.105771542	5.501800E+01
430	  0.105971940	-7.012000E+00	  0.105971940	4.849100E+01	  0.105971940	6.590400E+01	  0.105971940	5.495900E+01
431	  0.106172346	-7.013000E+00	  0.106172346	4.824300E+01	  0.106172346	6.621800E+01	  0.106172346	5.500400E+01
432	  0.106372744	-7.027000E+00	  0.106372744	4.799800E+01	  0.106372744	6.654900E+01	  0.106372744	5.493200E+01
433	  0.106573142	-7.024000E+00	  0.106573142	4.774600E+01	  0.106573142	6.686700E+01	  0.106573142	5.500800E+01
434	  0.106773548	-7.031000E+00	  0.106773548	4.751700E+01	  0.106773548	6.717200E+01	  0.106773548	5.498300E+01
435	  0.106973946	-7.030000E+00	  0.106973946	4.721500E+01	  0.106973946	6.756100E+01	  0.106973946	5.504500E+01
436	  0.107174344	-7.039000E+00	  0.107174344	4.697800E+01	  0.107174344	6.787900E+01	  0.107174344	5.500600E+01
437	  0.107374750	-7.036000E+00	  0.107374750	4.670000E+01	  0.107374750	6.823900E+01	  0.107374750	5.507600E+01
438	  0.107575148	-7.035000E+00	  0.107575148	4.644200E+01	  0.107575148	6.857700E+01	  0.107575148	5.512800E+01
439	  0.107775547	-7.039000E+00	  0.107775547	4.615200E+01	  0.107775547	6.896500E+01	  0.107775547	5.513000E+01
440	  0.107975952	-7.034000E+00	  0.107975952	4.588600E+01	  0.107975952	6.931400E+01	  0.107975952	5.521500E+01
441	  0.108176351	-7.039000E+00	  0.108176351	4.559900E+01	  0.108176351	6.970400E+01	  0.108176351	5.520000E+01
442	  0.108376749	-7.033000E+00	  0.108376749	4.535300E+01	  0.108376749	7.003000E+01	  0.108376749	5.528200E+01
443	  0.108577155	-7.025000E+00	  0.108577155	4.510900E+01	  0.108577155	7.035500E+01	  0.108577155	5.538100E+01
444	  0.108777553	-7.019000E+00	  0.108777553	4.486600E+01	  0.108777553	7.068300E+01	  0.108777553	5.546200E+01
445	  0.108977959	-7.015000E+00	  0.108977959	4.461500E+01	  0.108977959	7.102500E+01	  0.108977959	5.552400E+01
446	  0.109178357	-7.017000E+00	  0.109178357	4.435500E+01	  0.109178357	7.138400E+01	  0.109178357	5.553100E+01
447	  0.109378755	-7.013000E+00	  0.109378755	4.415200E+01	  0.109378755	7.166400E+01	  0.109378755	5.558100E+01
448	  0.109579161	-7.015000E+00	  0.109579161	4.391100E+01	  0.109579161	7.200100E+01	  0.109579161	5.557900E+01
449	  0.109779559	-7.007000E+00	  0.109779559	4.373800E+01	  0.109779559	7.223900E+01	  0.109779559	5.566500E+01
450	  0.109979957	-7.004000E+00	  0.109979957	4.349300E+01	  0.109979957	7.258300E+01	  0.109979957	5.570700E+01
451	  0.110180363	-7.007000E+00	  0.110180363	4.322900E+01	  0.110180363	7.295800E+01	  0.110180363	5.569300E+01
452	  0.110380761	-7.011000E+00	  0.110380761	4.297400E+01	  0.110380761	7.332100E+01	  0.110380761	5.566600E+01
453	  0.110581160	-7.012000E+00	  0.110581160	4.273300E+01	  0.110581160	7.366600E+01	  0.110581160	5.567000E+01
454	  0.110781565	-7.016000E+00	  0.110781565	4.249700E+01	  0.110781565	7.400500E+01	  0.110781565	5.563600E+01
455	  0.110981964	-7.019000E+00	  0.110981964	4.220100E+01	  0.110981964	7.443200E+01	  0.110981964	5.561300E+01
456	  0.111182362	-7.016000E+00	  0.111182362	4.198500E+01	  0.111182362	7.474400E+01	  0.111182362	5.563900E+01
457	  0.111382768	-7.012000E+00	  0.111382768	4.170400E+01	  0.111382768	7.515400E+01	  0.111382768	5.568000E+01
458	  0.111583166	-7.005000E+00	  0.111583166	4.145600E+01	  0.111583166	7.551800E+01	  0.111583166	5.574100E+01
459	  0.111783572	-7.014000E+00	  0.111783572	4.122100E+01	  0.111783572	7.586200E+01	  0.111783572	5.565700E+01
460	  0.111983970	-7.008000E+00	  0.111983970	4.092700E+01	  0.111983970	7.629800E+01	  0.111983970	5.569800E+01
461	  0.112184368	-7.006000E+00	  0.112184368	4.069900E+01	  0.112184368	7.663800E+01	  0.112184368	5.571600E+01
462	  0.112384774	-7.002000E+00	  0.112384774	4.049500E+01	  0.112384774	7.694300E+01	  0.112384774	5.574200E+01
463	  0.112585172	-6.996000E+00	  0.112585172	4.025500E+01	  0.112585172	7.730600E+01	  0.112585172	5.578100E+01
464	  0.112785570	-6.991000E+00	  0.112785570	4.001100E+01	  0.112785570	7.767700E+01	  0.112785570	5.582000E+01
465	  0.112985976	-6.986000E+00	  0.112985976	3.978300E+01	  0.112985976	7.802500E+01	  0.112985976	5.585600E+01
466	  0.113186374	-6.982000E+00	  0.113186374	3.956100E+01	  0.113186374	7.836700E+01	  0.113186374	5.587400E+01
467	  0.113386773	-6.980000E+00	  0.113386773	3.934500E+01	  0.113386773	7.869800E+01	  0.113386773	5.587400E+01
468	  0.113587178	-6.975000E+00	  0.113587178	3.913100E+01	  0.113587178	7.903100E+01	  0.113587178	5.590200E+01
469	  0.113787577	-6.969000E+00	  0.113787577	3.891800E+01	  0.113787577	7.936500E+01	  0.113787577	5.594000E+01
470	  0.113987975	-6.967000E+00	  0.113987975	3.873900E+01	  0.113987975	7.964500E+01	  0.113987975	5.594100E+01
471	  0.114188381	-6.966000E+00	  0.114188381	3.851900E+01	  0.114188381	7.998700E+01	  0.114188381	5.591400E+01
472	  0.114388779	-6.965000E+00	  0.114388779	3.834500E+01	  0.114388779	8.026100E+01	  0.114388779	5.590700E+01
473	  0.114589177	-6.971000E+00	  0.114589177	3.808800E+01	  0.114589177	8.065800E+01	  0.114589177	5.580900E+01
474	  0.114789583	-6.974000E+00	  0.114789583	3.789700E+01	  0.114789583	8.095500E+01	  0.114789583	5.574100E+01
475	  0.114989981	-6.972000E+00	  0.114989981	3.770300E+01	  0.114989981	8.126400E+01	  0.114989981	5.572700E+01
476	  0.115190387	-6.979000E+00	  0.115190387	3.745000E+01	  0.115190387	8.165600E+01	  0.115190387	5.561100E+01
477	  0.115390785	-6.982000E+00	  0.115390785	3.721900E+01	  0.115390785	8.201900E+01	  0.115390785	5.553400E+01
478	  0.115591183	-6.981000E+00	  0.115591183	3.697900E+01	  0.115591183	8.240200E+01	  0.115591183	5.549400E+01
479	  0.115791589	-6.987000E+00	  0.115791589	3.672200E+01	  0.115791589	8.280500E+01	  0.115791589	5.537600E+01
480	  0.115991987	-6.990000E+00	  0.115991987	3.648700E+01	  0.115991987	8.317700E+01	  0.115991987	5.528900E+01
481	  0.116192386	-6.995000E+00	  0.116192386	3.621400E+01	  0.116192386	8.360900E+01	  0.116192386	5.517600E+01
482	  0.116392791	-6.991000E+00	  0.116392791	3.593800E+01	  0.116392791	8.405900E+01	  0.116392791	5.514100E+01
483	  0.116593190	-6.991000E+00	  0.116593190	3.569600E+01	  0.116593190	8.445200E+01	  0.116593190	5.507500E+01
484	  0.116793588	-6.988000E+00	  0.116793588	3.539000E+01	  0.116793588	8.495600E+01	  0.116793588	5.501900E+01
485	  0.116993994	-6.982000E+00	  0.116993994	3.513500E+01	  0.116993994	8.538600E+01	  0.116993994	5.501300E+01
486	  0.117194392	-6.982000E+00	  0.117194392	3.487900E+01	  0.117194392	8.580700E+01	  0.117194392	5.493200E+01
487	  0.117394790	-6.975000E+00	  0.117394790	3.460700E+01	  0.117394790	8.626900E+01	  0.117394790	5.491000E+01
488	  0.117595196	-6.970000E+00	  0.117595196	3.439400E+01	  0.117595196	8.663300E+01	  0.117595196	5.489100E+01
489	  0.117795594	-6.958000E+00	  0.117795594	3.419800E+01	  0.117795594	8.698700E+01	  0.117795594	5.495500E+01
490	  0.117995992	-6.951000E+00	  0.117995992	3.393300E+01	  0.117995992	8.744800E+01	  0.117995992	5.494300E+01
491	  0.118196398	-6.948000E+00	  0.118196398	3.371200E+01	  0.118196398	8.782600E+01	  0.118196398	5.488800E+01
492	  0.118396796	-6.940000E+00	  0.118396796	3.352700E+01	  0.118396796	8.816000E+01	  0.118396796	5.490600E+01
493	  0.118597202	-6.936000E+00	  0.118597202	3.337300E+01	  0.118597202	8.843100E+01	  0.118597202	5.489100E+01
494	  0.118797600	-6.934000E+00	  0.118797600	3.317000E+01	  0.118797600	8.878100E+01	  0.118797600	5.483300E+01
495	  0.118997999	-6.925000E+00	  0.118997999	3.305400E+01	  0.118997999	8.900200E+01	  0.118997999	5.488200E+01
496	  0.119198404	-6.925000E+00	  0.119198404	3.288400E+01	  0.119198404	8.929200E+01	  0.119198404	5.480800E+01
497	  0.119398803	-6.926000E+00	  0.119398803	3.264300E+01	  0.119398803	8.970000E+01	  0.119398803	5.468700E+01
498	  0.119599201	-6.932000E+00	  0.119599201	3.249000E+01	  0.119599201	8.994500E+01	  0.119599201	5.455400E+01
499	  0.119799607	-6.937000E+00	  0.119799607	3.231000E+01	  0.119799607	9.024000E+01	  0.119799607	5.441800E+01
500	  0.120000005	-6.950000E+00	  0.120000005	3.210900E+01	  0.120000005	9.054200E+01	  0.120000005	5.417300E+01
