! Anritsu VNA Master:             	Model: MS2036C/10/77
! SN:             	1601066
! /card0/usr/18may27.balun/252b.r50.5.txt
! Existing Calibration Information:
! TYPE:             	Current Settings	Active Cal Settings
! TIME:             	05/27/2018 01:27:02 PM	05/27/2018 01:14:08 PM
! INTERNAL TEMP:    	52.0 C	52.0 C
! # POINTS:         	500	500
! START FREQ:       	20.000 MHz	20.000 MHz
! STOP FREQ:        	120.000 MHz	120.000 MHz
! SOURCE POWER:     	High	High
! IFBW:             	50 Hz	50 Hz
! AVG FACTOR:       	  1 	  1 
! REF PLANE 1:      	0 mm	0 mm
! REF PLANE 2:      	0 mm	0 mm
! CAL TYPE:         	Full S11	Full S11
! CAL METHOD:       	SOLT	SOLT
! CAL LINE TYPE:    	Coax	Coax
! DUT PORT 1:       	K-Conn(M)	K-Conn(M)
! DUT PORT 2:       	K-Conn(M)	K-Conn(M)
! CAL STATUS:       	OK: Accuracy High	--
! PROP-V:       	0.700
! CABLE LOSS:       	0.000 dB/m
! REF IMPEDANCE:       	50.0
! Trace Specific Parameters:	TR1	TR2	TR3	TR4
! TRACE.#.Y (GRAPH TYPE)	LOG MAG	PHASE	REAL IMPEDANCE	IMAGINARY IMPEDANCE
! TRACE.#.X 	FREQ.GHZ	FREQ.GHZ	FREQ.GHZ	FREQ.GHZ
! S-PARAMETER	S11	S11	S11	S11
! SMOOTH/APERTURE %	0	0	0	0
! WINDOW	NSL	NSL	NSL	NSL
! GATING	OFF	OFF	OFF	OFF
! FGTD	OFF	OFF	OFF	OFF
Marker Information per Trace:	TR1	TR2	TR3	TR4
!MK1	--	--	--	"MK1 TR4:  70.100 200 MHz,Z:(52.423 ohm, 1.093 ohm)"
!MK2	--	--	--	--
!MK3	--	--	--	--
!MK4	--	--	--	--
!MK5	--	--	--	--
!MK6	--	--	--	--
!MK7	--	--	--	--
!MK8	--	--	--	--
PNT	TR1.FREQ.GHZ	TR1.LOG MAG.dB	TR2.FREQ.GHZ	TR2.PHASE.deg	TR3.FREQ.GHZ	TR3.REAL IMPEDANCE.ohm	TR4.FREQ.GHZ	TR4.IMAGINARY IMPEDANCE.ohm
1	  0.020000000	-3.900000E+01	  0.020000000	5.194400E+01	  0.020000000	5.068800E+01	  0.020000000	8.950000E-01
2	  0.020200402	-3.903000E+01	  0.020200402	5.133900E+01	  0.020200402	5.069500E+01	  0.020200402	8.850000E-01
3	  0.020400802	-3.910900E+01	  0.020400802	5.233900E+01	  0.020400802	5.067300E+01	  0.020400802	8.890000E-01
4	  0.020601204	-3.900300E+01	  0.020601204	5.208100E+01	  0.020601204	5.068600E+01	  0.020601204	8.970000E-01
5	  0.020801604	-3.888400E+01	  0.020801604	5.120900E+01	  0.020801604	5.070900E+01	  0.020801604	8.980000E-01
6	  0.021002004	-3.894500E+01	  0.021002004	5.181400E+01	  0.021002004	5.069400E+01	  0.021002004	8.990000E-01
7	  0.021202406	-3.900200E+01	  0.021202406	5.215200E+01	  0.021202406	5.068500E+01	  0.021202406	8.980000E-01
8	  0.021402806	-3.893700E+01	  0.021402806	5.157800E+01	  0.021402806	5.069900E+01	  0.021402806	8.970000E-01
9	  0.021603208	-3.889500E+01	  0.021603208	5.100300E+01	  0.021603208	5.071100E+01	  0.021603208	8.950000E-01
10	  0.021803608	-3.879500E+01	  0.021803608	5.072700E+01	  0.021803608	5.072400E+01	  0.021803608	9.020000E-01
11	  0.022004008	-3.885700E+01	  0.022004008	5.016900E+01	  0.022004008	5.072800E+01	  0.022004008	8.880000E-01
12	  0.022204408	-3.873800E+01	  0.022204408	5.029100E+01	  0.022204408	5.073600E+01	  0.022204408	9.020000E-01
13	  0.022404809	-3.858300E+01	  0.022404809	4.988100E+01	  0.022404809	5.075600E+01	  0.022404809	9.130000E-01
14	  0.022605211	-3.855900E+01	  0.022605211	4.889400E+01	  0.022605211	5.077400E+01	  0.022605211	9.030000E-01
15	  0.022805611	-3.846900E+01	  0.022805611	4.889200E+01	  0.022805611	5.078200E+01	  0.022805611	9.120000E-01
16	  0.023006011	-3.841600E+01	  0.023006011	4.882100E+01	  0.023006011	5.078700E+01	  0.023006011	9.170000E-01
17	  0.023206413	-3.826700E+01	  0.023206413	4.845500E+01	  0.023206413	5.080700E+01	  0.023206413	9.280000E-01
18	  0.023406813	-3.823500E+01	  0.023406813	4.859400E+01	  0.023406813	5.080800E+01	  0.023406813	9.330000E-01
19	  0.023607215	-3.810400E+01	  0.023607215	4.864500E+01	  0.023607215	5.081900E+01	  0.023607215	9.490000E-01
20	  0.023807615	-3.809400E+01	  0.023807615	4.859300E+01	  0.023807615	5.082100E+01	  0.023807615	9.490000E-01
21	  0.024008015	-3.798400E+01	  0.024008015	4.806900E+01	  0.024008015	5.084000E+01	  0.024008015	9.540000E-01
22	  0.024208417	-3.793200E+01	  0.024208417	4.821400E+01	  0.024208417	5.084300E+01	  0.024208417	9.620000E-01
23	  0.024408817	-3.785900E+01	  0.024408817	4.781500E+01	  0.024408817	5.085700E+01	  0.024408817	9.640000E-01
24	  0.024609219	-3.775800E+01	  0.024609219	4.834800E+01	  0.024609219	5.085800E+01	  0.024609219	9.830000E-01
25	  0.024809619	-3.763300E+01	  0.024809619	4.854200E+01	  0.024809619	5.086700E+01	  0.024809619	1.001000E+00
26	  0.025010020	-3.764600E+01	  0.025010020	4.787900E+01	  0.025010020	5.087700E+01	  0.025010020	9.890000E-01
27	  0.025210422	-3.756400E+01	  0.025210422	4.789900E+01	  0.025210422	5.088500E+01	  0.025210422	9.990000E-01
28	  0.025410822	-3.755000E+01	  0.025410822	4.839000E+01	  0.025410822	5.087800E+01	  0.025410822	1.008000E+00
29	  0.025611224	-3.741400E+01	  0.025611224	4.801500E+01	  0.025611224	5.089800E+01	  0.025611224	1.019000E+00
30	  0.025811624	-3.735400E+01	  0.025811624	4.837900E+01	  0.025811624	5.089800E+01	  0.025811624	1.032000E+00
31	  0.026012026	-3.738900E+01	  0.026012026	4.809200E+01	  0.026012026	5.089900E+01	  0.026012026	1.023000E+00
32	  0.026212426	-3.729300E+01	  0.026212426	4.854600E+01	  0.026212426	5.090100E+01	  0.026212426	1.042000E+00
33	  0.026412826	-3.723500E+01	  0.026412826	4.809500E+01	  0.026412826	5.091500E+01	  0.026412826	1.042000E+00
34	  0.026613226	-3.720600E+01	  0.026613226	4.843100E+01	  0.026613226	5.091200E+01	  0.026613226	1.050000E+00
35	  0.026813626	-3.713000E+01	  0.026813626	4.870200E+01	  0.026813626	5.091500E+01	  0.026813626	1.064000E+00
36	  0.027014028	-3.706100E+01	  0.027014028	4.865600E+01	  0.027014028	5.092300E+01	  0.027014028	1.072000E+00
37	  0.027214428	-3.709000E+01	  0.027214428	4.793400E+01	  0.027214428	5.093400E+01	  0.027214428	1.057000E+00
38	  0.027414829	-3.703300E+01	  0.027414829	4.820300E+01	  0.027414829	5.093500E+01	  0.027414829	1.068000E+00
39	  0.027615231	-3.699500E+01	  0.027615231	4.811500E+01	  0.027615231	5.094100E+01	  0.027615231	1.072000E+00
40	  0.027815631	-3.690100E+01	  0.027815631	4.799800E+01	  0.027815631	5.095300E+01	  0.027815631	1.082000E+00
41	  0.028016033	-3.683800E+01	  0.028016033	4.826400E+01	  0.028016033	5.095500E+01	  0.028016033	1.094000E+00
42	  0.028216433	-3.683100E+01	  0.028216433	4.864400E+01	  0.028216433	5.094800E+01	  0.028216433	1.101000E+00
43	  0.028416833	-3.681400E+01	  0.028416833	4.795000E+01	  0.028416833	5.096400E+01	  0.028416833	1.092000E+00
44	  0.028617235	-3.682400E+01	  0.028617235	4.838900E+01	  0.028617235	5.095400E+01	  0.028617235	1.098000E+00
45	  0.028817635	-3.666600E+01	  0.028817635	4.855400E+01	  0.028817635	5.096800E+01	  0.028817635	1.121000E+00
46	  0.029018037	-3.669700E+01	  0.029018037	4.845600E+01	  0.029018037	5.096700E+01	  0.029018037	1.116000E+00
47	  0.029218437	-3.671100E+01	  0.029218437	4.871300E+01	  0.029218437	5.096000E+01	  0.029218437	1.118000E+00
48	  0.029418837	-3.663300E+01	  0.029418837	4.834900E+01	  0.029418837	5.097600E+01	  0.029418837	1.122000E+00
49	  0.029619239	-3.663200E+01	  0.029619239	4.833400E+01	  0.029619239	5.097600E+01	  0.029619239	1.122000E+00
50	  0.029819639	-3.661600E+01	  0.029819639	4.788300E+01	  0.029819639	5.098700E+01	  0.029819639	1.116000E+00
51	  0.030020041	-3.658600E+01	  0.030020041	4.842500E+01	  0.030020041	5.098000E+01	  0.030020041	1.130000E+00
52	  0.030220442	-3.656200E+01	  0.030220442	4.805900E+01	  0.030220442	5.099000E+01	  0.030220442	1.127000E+00
53	  0.030420844	-3.656000E+01	  0.030420844	4.742700E+01	  0.030420844	5.100300E+01	  0.030420844	1.116000E+00
54	  0.030621244	-3.653300E+01	  0.030621244	4.734100E+01	  0.030621244	5.100700E+01	  0.030621244	1.118000E+00
55	  0.030821644	-3.653000E+01	  0.030821644	4.727700E+01	  0.030821644	5.100900E+01	  0.030821644	1.117000E+00
56	  0.031022044	-3.649100E+01	  0.031022044	4.706500E+01	  0.031022044	5.101800E+01	  0.031022044	1.119000E+00
57	  0.031222444	-3.644100E+01	  0.031222444	4.682100E+01	  0.031222444	5.102900E+01	  0.031222444	1.121000E+00
58	  0.031422846	-3.639300E+01	  0.031422846	4.627200E+01	  0.031422846	5.104500E+01	  0.031422846	1.117000E+00
59	  0.031623244	-3.630200E+01	  0.031623244	4.608200E+01	  0.031623244	5.106000E+01	  0.031623244	1.126000E+00
60	  0.031823646	-3.633500E+01	  0.031823646	4.634300E+01	  0.031823646	5.105100E+01	  0.031823646	1.126000E+00
61	  0.032024048	-3.625800E+01	  0.032024048	4.545400E+01	  0.032024048	5.107800E+01	  0.032024048	1.120000E+00
62	  0.032224450	-3.621700E+01	  0.032224450	4.533000E+01	  0.032224450	5.108600E+01	  0.032224450	1.123000E+00
63	  0.032424849	-3.612600E+01	  0.032424849	4.522200E+01	  0.032424849	5.109900E+01	  0.032424849	1.133000E+00
64	  0.032625251	-3.610200E+01	  0.032625251	4.470200E+01	  0.032625251	5.111300E+01	  0.032625251	1.126000E+00
65	  0.032825653	-3.601500E+01	  0.032825653	4.460000E+01	  0.032825653	5.112600E+01	  0.032825653	1.136000E+00
66	  0.033026051	-3.602500E+01	  0.033026051	4.488900E+01	  0.033026051	5.111900E+01	  0.033026051	1.140000E+00
67	  0.033226453	-3.592600E+01	  0.033226453	4.436300E+01	  0.033226453	5.114200E+01	  0.033226453	1.143000E+00
68	  0.033426855	-3.577600E+01	  0.033426855	4.445100E+01	  0.033426855	5.116100E+01	  0.033426855	1.165000E+00
69	  0.033627257	-3.574900E+01	  0.033627257	4.396900E+01	  0.033627257	5.117400E+01	  0.033627257	1.159000E+00
70	  0.033827655	-3.561600E+01	  0.033827655	4.449900E+01	  0.033827655	5.118100E+01	  0.033827655	1.188000E+00
71	  0.034028057	-3.557100E+01	  0.034028057	4.396300E+01	  0.034028057	5.119900E+01	  0.034028057	1.183000E+00
72	  0.034228459	-3.557900E+01	  0.034228459	4.426800E+01	  0.034228459	5.119100E+01	  0.034228459	1.189000E+00
73	  0.034428857	-3.551000E+01	  0.034428857	4.415300E+01	  0.034428857	5.120300E+01	  0.034428857	1.196000E+00
74	  0.034629259	-3.554300E+01	  0.034629259	4.429800E+01	  0.034629259	5.119500E+01	  0.034629259	1.194000E+00
75	  0.034829661	-3.535200E+01	  0.034829661	4.485600E+01	  0.034829661	5.121000E+01	  0.034829661	1.233000E+00
76	  0.035030060	-3.535700E+01	  0.035030060	4.500900E+01	  0.035030060	5.120600E+01	  0.035030060	1.236000E+00
77	  0.035230462	-3.536600E+01	  0.035230462	4.504000E+01	  0.035230462	5.120400E+01	  0.035230462	1.235000E+00
78	  0.035430863	-3.535200E+01	  0.035430863	4.517900E+01	  0.035430863	5.120300E+01	  0.035430863	1.240000E+00
79	  0.035631265	-3.541300E+01	  0.035631265	4.532100E+01	  0.035631265	5.119100E+01	  0.035631265	1.234000E+00
80	  0.035831664	-3.538000E+01	  0.035831664	4.532100E+01	  0.035831664	5.119600E+01	  0.035831664	1.239000E+00
81	  0.036032066	-3.534900E+01	  0.036032066	4.548900E+01	  0.036032066	5.119600E+01	  0.036032066	1.247000E+00
82	  0.036232468	-3.536300E+01	  0.036232468	4.483900E+01	  0.036232468	5.120900E+01	  0.036232468	1.231000E+00
83	  0.036432866	-3.537800E+01	  0.036432866	4.510100E+01	  0.036432866	5.120100E+01	  0.036432866	1.235000E+00
84	  0.036633268	-3.529500E+01	  0.036633268	4.421700E+01	  0.036633268	5.123200E+01	  0.036633268	1.228000E+00
85	  0.036833670	-3.539400E+01	  0.036833670	4.464400E+01	  0.036833670	5.120900E+01	  0.036833670	1.223000E+00
86	  0.037034072	-3.533900E+01	  0.037034072	4.383400E+01	  0.037034072	5.123400E+01	  0.037034072	1.213000E+00
87	  0.037234470	-3.529900E+01	  0.037234470	4.374500E+01	  0.037234470	5.124200E+01	  0.037234470	1.217000E+00
88	  0.037434869	-3.525800E+01	  0.037434869	4.361800E+01	  0.037434869	5.125000E+01	  0.037434869	1.220000E+00
89	  0.037635271	-3.525900E+01	  0.037635271	4.335500E+01	  0.037635271	5.125600E+01	  0.037635271	1.214000E+00
90	  0.037835669	-3.522300E+01	  0.037835669	4.287500E+01	  0.037835669	5.127100E+01	  0.037835669	1.209000E+00
91	  0.038036071	-3.513200E+01	  0.038036071	4.214400E+01	  0.038036071	5.130100E+01	  0.038036071	1.206000E+00
92	  0.038236473	-3.511300E+01	  0.038236473	4.222300E+01	  0.038236473	5.130200E+01	  0.038236473	1.210000E+00
93	  0.038436871	-3.506800E+01	  0.038436871	4.251200E+01	  0.038436871	5.130200E+01	  0.038436871	1.223000E+00
94	  0.038637273	-3.496000E+01	  0.038637273	4.181200E+01	  0.038637273	5.133400E+01	  0.038637273	1.223000E+00
95	  0.038837675	-3.493800E+01	  0.038837675	4.144500E+01	  0.038837675	5.134600E+01	  0.038837675	1.217000E+00
96	  0.039038073	-3.485100E+01	  0.039038073	4.160400E+01	  0.039038073	5.135600E+01	  0.039038073	1.234000E+00
97	  0.039238475	-3.474100E+01	  0.039238475	4.150400E+01	  0.039238475	5.137500E+01	  0.039238475	1.247000E+00
98	  0.039438877	-3.471200E+01	  0.039438877	4.126600E+01	  0.039438877	5.138500E+01	  0.039438877	1.246000E+00
99	  0.039639279	-3.460200E+01	  0.039639279	4.151300E+01	  0.039639279	5.139700E+01	  0.039639279	1.268000E+00
100	  0.039839678	-3.456200E+01	  0.039839678	4.151800E+01	  0.039839678	5.140400E+01	  0.039839678	1.274000E+00
101	  0.040040080	-3.449900E+01	  0.040040080	4.198500E+01	  0.040040080	5.140300E+01	  0.040040080	1.295000E+00
102	  0.040240481	-3.444900E+01	  0.040240481	4.191800E+01	  0.040240481	5.141300E+01	  0.040240481	1.301000E+00
103	  0.040440880	-3.439500E+01	  0.040440880	4.213700E+01	  0.040440880	5.141600E+01	  0.040440880	1.315000E+00
104	  0.040641282	-3.432700E+01	  0.040641282	4.212500E+01	  0.040641282	5.142800E+01	  0.040641282	1.326000E+00
105	  0.040841684	-3.433000E+01	  0.040841684	4.290900E+01	  0.040841684	5.140900E+01	  0.040841684	1.345000E+00
106	  0.041042086	-3.436200E+01	  0.041042086	4.284600E+01	  0.041042086	5.140500E+01	  0.041042086	1.338000E+00
107	  0.041242484	-3.430400E+01	  0.041242484	4.315100E+01	  0.041242484	5.140700E+01	  0.041242484	1.355000E+00
108	  0.041442886	-3.429300E+01	  0.041442886	4.322500E+01	  0.041442886	5.140700E+01	  0.041442886	1.358000E+00
109	  0.041643288	-3.428500E+01	  0.041643288	4.340600E+01	  0.041643288	5.140400E+01	  0.041643288	1.364000E+00
110	  0.041843686	-3.432200E+01	  0.041843686	4.316600E+01	  0.041843686	5.140400E+01	  0.041843686	1.352000E+00
111	  0.042044088	-3.434100E+01	  0.042044088	4.357400E+01	  0.042044088	5.139100E+01	  0.042044088	1.359000E+00
112	  0.042244490	-3.433300E+01	  0.042244490	4.345900E+01	  0.042244490	5.139500E+01	  0.042244490	1.358000E+00
113	  0.042444889	-3.436600E+01	  0.042444889	4.379400E+01	  0.042444889	5.138100E+01	  0.042444889	1.360000E+00
114	  0.042645290	-3.431100E+01	  0.042645290	4.396000E+01	  0.042645290	5.138600E+01	  0.042645290	1.373000E+00
115	  0.042845692	-3.442300E+01	  0.042845692	4.364900E+01	  0.042845692	5.137600E+01	  0.042845692	1.348000E+00
116	  0.043046094	-3.434500E+01	  0.043046094	4.387800E+01	  0.043046094	5.138300E+01	  0.043046094	1.366000E+00
117	  0.043246493	-3.445200E+01	  0.043246493	4.370100E+01	  0.043246493	5.137000E+01	  0.043246493	1.344000E+00
118	  0.043446895	-3.448200E+01	  0.043446895	4.368800E+01	  0.043446895	5.136600E+01	  0.043446895	1.339000E+00
119	  0.043647297	-3.449100E+01	  0.043647297	4.278800E+01	  0.043647297	5.138500E+01	  0.043647297	1.316000E+00
120	  0.043847695	-3.452100E+01	  0.043847695	4.283600E+01	  0.043847695	5.138000E+01	  0.043847695	1.313000E+00
121	  0.044048097	-3.457700E+01	  0.044048097	4.235400E+01	  0.044048097	5.138200E+01	  0.044048097	1.292000E+00
122	  0.044248499	-3.452700E+01	  0.044248499	4.189500E+01	  0.044248499	5.140100E+01	  0.044248499	1.289000E+00
123	  0.044448901	-3.462300E+01	  0.044448901	4.131600E+01	  0.044448901	5.139800E+01	  0.044448901	1.260000E+00
124	  0.044649299	-3.466800E+01	  0.044649299	4.062500E+01	  0.044649299	5.140700E+01	  0.044649299	1.237000E+00
125	  0.044849701	-3.467600E+01	  0.044849701	4.024200E+01	  0.044849701	5.141400E+01	  0.044849701	1.226000E+00
126	  0.045050103	-3.462100E+01	  0.045050103	3.938600E+01	  0.045050103	5.144200E+01	  0.045050103	1.213000E+00
127	  0.045250501	-3.460200E+01	  0.045250501	3.841600E+01	  0.045250501	5.146600E+01	  0.045250501	1.191000E+00
128	  0.045450903	-3.456100E+01	  0.045450903	3.795700E+01	  0.045450903	5.148200E+01	  0.045450903	1.184000E+00
129	  0.045651305	-3.450300E+01	  0.045651305	3.779400E+01	  0.045651305	5.149600E+01	  0.045651305	1.188000E+00
130	  0.045851704	-3.442000E+01	  0.045851704	3.700400E+01	  0.045851704	5.152700E+01	  0.045851704	1.179000E+00
131	  0.046052106	-3.433000E+01	  0.046052106	3.626500E+01	  0.046052106	5.155900E+01	  0.046052106	1.172000E+00
132	  0.046252504	-3.423600E+01	  0.046252504	3.595400E+01	  0.046252504	5.158300E+01	  0.046252504	1.176000E+00
133	  0.046452906	-3.419700E+01	  0.046452906	3.539900E+01	  0.046452906	5.160200E+01	  0.046452906	1.166000E+00
134	  0.046653304	-3.411200E+01	  0.046653304	3.538300E+01	  0.046653304	5.161800E+01	  0.046653304	1.177000E+00
135	  0.046853706	-3.395800E+01	  0.046853706	3.467200E+01	  0.046853706	5.166200E+01	  0.046853706	1.178000E+00
136	  0.047054108	-3.389600E+01	  0.047054108	3.452400E+01	  0.047054108	5.167800E+01	  0.047054108	1.183000E+00
137	  0.047254506	-3.379700E+01	  0.047254506	3.435900E+01	  0.047254506	5.170000E+01	  0.047254506	1.192000E+00
138	  0.047454908	-3.357300E+01	  0.047454908	3.461600E+01	  0.047454908	5.174000E+01	  0.047454908	1.232000E+00
139	  0.047655310	-3.348600E+01	  0.047655310	3.426400E+01	  0.047655310	5.176500E+01	  0.047655310	1.234000E+00
140	  0.047855709	-3.334500E+01	  0.047855709	3.450400E+01	  0.047855709	5.178900E+01	  0.047855709	1.262000E+00
141	  0.048056111	-3.328300E+01	  0.048056111	3.529400E+01	  0.048056111	5.178300E+01	  0.048056111	1.297000E+00
142	  0.048256513	-3.324200E+01	  0.048256513	3.560800E+01	  0.048256513	5.178400E+01	  0.048256513	1.313000E+00
143	  0.048456915	-3.312400E+01	  0.048456915	3.543000E+01	  0.048456915	5.181300E+01	  0.048456915	1.326000E+00
144	  0.048657313	-3.305700E+01	  0.048657313	3.608000E+01	  0.048657313	5.181200E+01	  0.048657313	1.357000E+00
145	  0.048857715	-3.303500E+01	  0.048857715	3.660200E+01	  0.048857715	5.180300E+01	  0.048857715	1.378000E+00
146	  0.049058117	-3.304500E+01	  0.049058117	3.715400E+01	  0.049058117	5.178700E+01	  0.049058117	1.393000E+00
147	  0.049258515	-3.305700E+01	  0.049258515	3.732800E+01	  0.049258515	5.178100E+01	  0.049258515	1.397000E+00
148	  0.049458917	-3.304900E+01	  0.049458917	3.795900E+01	  0.049458917	5.176600E+01	  0.049458917	1.418000E+00
149	  0.049659319	-3.301100E+01	  0.049659319	3.862200E+01	  0.049659319	5.175700E+01	  0.049659319	1.445000E+00
150	  0.049859721	-3.311000E+01	  0.049859721	3.850100E+01	  0.049859721	5.174000E+01	  0.049859721	1.424000E+00
151	  0.050060119	-3.313500E+01	  0.050060119	3.929000E+01	  0.050060119	5.171400E+01	  0.050060119	1.444000E+00
152	  0.050260521	-3.323100E+01	  0.050260521	3.919100E+01	  0.050260521	5.169800E+01	  0.050260521	1.424000E+00
153	  0.050460923	-3.324500E+01	  0.050460923	3.946400E+01	  0.050460923	5.168800E+01	  0.050460923	1.430000E+00
154	  0.050661322	-3.334100E+01	  0.050661322	3.920500E+01	  0.050661322	5.167600E+01	  0.050661322	1.406000E+00
155	  0.050861724	-3.340100E+01	  0.050861724	3.964600E+01	  0.050861724	5.165400E+01	  0.050861724	1.409000E+00
156	  0.051062126	-3.348800E+01	  0.051062126	3.921500E+01	  0.051062126	5.164800E+01	  0.051062126	1.382000E+00
157	  0.051262524	-3.350100E+01	  0.051262524	3.867100E+01	  0.051262524	5.165900E+01	  0.051262524	1.364000E+00
158	  0.051462926	-3.355700E+01	  0.051462926	3.827000E+01	  0.051462926	5.165800E+01	  0.051462926	1.344000E+00
159	  0.051663328	-3.362600E+01	  0.051663328	3.778500E+01	  0.051663328	5.165600E+01	  0.051663328	1.319000E+00
160	  0.051863730	-3.367700E+01	  0.051863730	3.746200E+01	  0.051863730	5.165400E+01	  0.051863730	1.301000E+00
161	  0.052064128	-3.367000E+01	  0.052064128	3.661000E+01	  0.052064128	5.167500E+01	  0.052064128	1.277000E+00
162	  0.052264530	-3.367200E+01	  0.052264530	3.553600E+01	  0.052264530	5.169900E+01	  0.052264530	1.245000E+00
163	  0.052464932	-3.367800E+01	  0.052464932	3.489800E+01	  0.052464932	5.171200E+01	  0.052464932	1.225000E+00
164	  0.052665330	-3.367800E+01	  0.052665330	3.409000E+01	  0.052665330	5.173000E+01	  0.052665330	1.201000E+00
165	  0.052865732	-3.356100E+01	  0.052865732	3.325200E+01	  0.052865732	5.177200E+01	  0.052865732	1.191000E+00
166	  0.053066134	-3.344300E+01	  0.053066134	3.295400E+01	  0.053066134	5.180300E+01	  0.053066134	1.199000E+00
167	  0.053266536	-3.341800E+01	  0.053266536	3.177900E+01	  0.053266536	5.183300E+01	  0.053266536	1.165000E+00
168	  0.053466935	-3.323800E+01	  0.053466935	3.200800E+01	  0.053466935	5.186700E+01	  0.053466935	1.198000E+00
169	  0.053667337	-3.319100E+01	  0.053667337	3.148800E+01	  0.053667337	5.188900E+01	  0.053667337	1.187000E+00
170	  0.053867739	-3.306600E+01	  0.053867739	3.159700E+01	  0.053867739	5.191400E+01	  0.053867739	1.209000E+00
171	  0.054068137	-3.293900E+01	  0.054068137	3.137700E+01	  0.054068137	5.194700E+01	  0.054068137	1.220000E+00
172	  0.054268539	-3.288000E+01	  0.054268539	3.154100E+01	  0.054268539	5.195700E+01	  0.054268539	1.234000E+00
173	  0.054468941	-3.273600E+01	  0.054468941	3.175800E+01	  0.054468941	5.198500E+01	  0.054468941	1.263000E+00
174	  0.054669339	-3.267200E+01	  0.054669339	3.213600E+01	  0.054669339	5.199100E+01	  0.054669339	1.286000E+00
175	  0.054869737	-3.263500E+01	  0.054869737	3.220400E+01	  0.054869737	5.199800E+01	  0.054869737	1.294000E+00
176	  0.055070139	-3.257500E+01	  0.055070139	3.261100E+01	  0.055070139	5.200300E+01	  0.055070139	1.318000E+00
177	  0.055270538	-3.253800E+01	  0.055270538	3.271800E+01	  0.055270538	5.200900E+01	  0.055270538	1.328000E+00
178	  0.055470940	-3.248300E+01	  0.055470940	3.330900E+01	  0.055470940	5.200700E+01	  0.055470940	1.357000E+00
179	  0.055671342	-3.250600E+01	  0.055671342	3.349400E+01	  0.055671342	5.199700E+01	  0.055671342	1.360000E+00
180	  0.055871744	-3.251400E+01	  0.055871744	3.393000E+01	  0.055871744	5.198500E+01	  0.055871744	1.374000E+00
181	  0.056072142	-3.255200E+01	  0.056072142	3.385400E+01	  0.056072142	5.197800E+01	  0.056072142	1.365000E+00
182	  0.056272544	-3.261200E+01	  0.056272544	3.395600E+01	  0.056272544	5.196100E+01	  0.056272544	1.359000E+00
183	  0.056472946	-3.268800E+01	  0.056472946	3.411500E+01	  0.056472946	5.194000E+01	  0.056472946	1.352000E+00
184	  0.056673344	-3.268200E+01	  0.056673344	3.373600E+01	  0.056673344	5.195100E+01	  0.056673344	1.340000E+00
185	  0.056873746	-3.272400E+01	  0.056873746	3.395000E+01	  0.056873746	5.193600E+01	  0.056873746	1.341000E+00
186	  0.057074148	-3.275600E+01	  0.057074148	3.351100E+01	  0.057074148	5.194000E+01	  0.057074148	1.321000E+00
187	  0.057274550	-3.280100E+01	  0.057274550	3.305200E+01	  0.057274550	5.194000E+01	  0.057274550	1.298000E+00
188	  0.057474948	-3.283400E+01	  0.057474948	3.268400E+01	  0.057474948	5.194100E+01	  0.057474948	1.280000E+00
189	  0.057675350	-3.278900E+01	  0.057675350	3.217200E+01	  0.057675350	5.196400E+01	  0.057675350	1.269000E+00
190	  0.057875752	-3.285700E+01	  0.057875752	3.179900E+01	  0.057875752	5.195700E+01	  0.057875752	1.246000E+00
191	  0.058076151	-3.273900E+01	  0.058076151	3.093800E+01	  0.058076151	5.200300E+01	  0.058076151	1.234000E+00
192	  0.058276553	-3.271300E+01	  0.058276553	3.050600E+01	  0.058276553	5.201900E+01	  0.058276553	1.222000E+00
193	  0.058476955	-3.261900E+01	  0.058476955	3.039000E+01	  0.058476955	5.204400E+01	  0.058476955	1.232000E+00
194	  0.058677353	-3.256500E+01	  0.058677353	2.996200E+01	  0.058677353	5.206600E+01	  0.058677353	1.224000E+00
195	  0.058877755	-3.251100E+01	  0.058877755	2.902100E+01	  0.058877755	5.210000E+01	  0.058877755	1.197000E+00
196	  0.059078157	-3.243000E+01	  0.059078157	2.894100E+01	  0.059078157	5.212200E+01	  0.059078157	1.206000E+00
197	  0.059278559	-3.230600E+01	  0.059278559	2.877400E+01	  0.059278559	5.215700E+01	  0.059278559	1.218000E+00
198	  0.059478957	-3.223000E+01	  0.059478957	2.868100E+01	  0.059478957	5.217800E+01	  0.059478957	1.225000E+00
199	  0.059679359	-3.212400E+01	  0.059679359	2.881300E+01	  0.059679359	5.220200E+01	  0.059679359	1.246000E+00
200	  0.059879761	-3.207900E+01	  0.059879761	2.875500E+01	  0.059879761	5.221500E+01	  0.059879761	1.251000E+00
201	  0.060080159	-3.194900E+01	  0.060080159	2.953300E+01	  0.060080159	5.223100E+01	  0.060080159	1.301000E+00
202	  0.060280561	-3.189600E+01	  0.060280561	2.979500E+01	  0.060280561	5.223800E+01	  0.060280561	1.320000E+00
203	  0.060480963	-3.183800E+01	  0.060480963	3.004700E+01	  0.060480963	5.224700E+01	  0.060480963	1.339000E+00
204	  0.060681365	-3.179500E+01	  0.060681365	3.050000E+01	  0.060681365	5.224700E+01	  0.060681365	1.364000E+00
205	  0.060881764	-3.180900E+01	  0.060881764	3.103400E+01	  0.060881764	5.223000E+01	  0.060881764	1.383000E+00
206	  0.061082166	-3.180200E+01	  0.061082166	3.132700E+01	  0.061082166	5.222500E+01	  0.061082166	1.396000E+00
207	  0.061282568	-3.180600E+01	  0.061282568	3.212500E+01	  0.061282568	5.220300E+01	  0.061282568	1.426000E+00
208	  0.061482966	-3.184100E+01	  0.061482966	3.202000E+01	  0.061482966	5.219700E+01	  0.061482966	1.416000E+00
209	  0.061683368	-3.189500E+01	  0.061683368	3.240700E+01	  0.061683368	5.217300E+01	  0.061683368	1.422000E+00
210	  0.061883770	-3.194500E+01	  0.061883770	3.282300E+01	  0.061883770	5.215000E+01	  0.061883770	1.429000E+00
211	  0.062084168	-3.202300E+01	  0.062084168	3.276600E+01	  0.062084168	5.213200E+01	  0.062084168	1.414000E+00
212	  0.062284570	-3.206800E+01	  0.062284570	3.278200E+01	  0.062284570	5.212000E+01	  0.062284570	1.407000E+00
213	  0.062484972	-3.213400E+01	  0.062484972	3.292700E+01	  0.062484972	5.210000E+01	  0.062484972	1.401000E+00
214	  0.062685370	-3.215700E+01	  0.062685370	3.229100E+01	  0.062685370	5.211100E+01	  0.062685370	1.374000E+00
215	  0.062885776	-3.227300E+01	  0.062885776	3.236800E+01	  0.062885776	5.208000E+01	  0.062885776	1.358000E+00
216	  0.063086174	-3.232100E+01	  0.063086174	3.224600E+01	  0.063086174	5.207200E+01	  0.063086174	1.345000E+00
217	  0.063286573	-3.233200E+01	  0.063286573	3.154100E+01	  0.063286573	5.208600E+01	  0.063286573	1.318000E+00
218	  0.063486971	-3.251900E+01	  0.063486971	3.099900E+01	  0.063486971	5.205400E+01	  0.063486971	1.269000E+00
219	  0.063687377	-3.249100E+01	  0.063687377	3.026700E+01	  0.063687377	5.207700E+01	  0.063687377	1.246000E+00
220	  0.063887775	-3.256100E+01	  0.063887775	2.907900E+01	  0.063887775	5.208700E+01	  0.063887775	1.192000E+00
221	  0.064088173	-3.243600E+01	  0.064088173	2.919300E+01	  0.064088173	5.211500E+01	  0.064088173	1.215000E+00
222	  0.064288579	-3.243000E+01	  0.064288579	2.867500E+01	  0.064288579	5.212800E+01	  0.064288579	1.196000E+00
223	  0.064488977	-3.230100E+01	  0.064488977	2.752000E+01	  0.064488977	5.218500E+01	  0.064488977	1.170000E+00
224	  0.064689375	-3.224200E+01	  0.064689375	2.710000E+01	  0.064689375	5.220900E+01	  0.064689375	1.162000E+00
225	  0.064889781	-3.229600E+01	  0.064889781	2.650300E+01	  0.064889781	5.220800E+01	  0.064889781	1.131000E+00
226	  0.065090179	-3.217200E+01	  0.065090179	2.621100E+01	  0.065090179	5.224600E+01	  0.065090179	1.137000E+00
227	  0.065290578	-3.202400E+01	  0.065290578	2.625300E+01	  0.065290578	5.228400E+01	  0.065290578	1.159000E+00
228	  0.065490983	-3.200800E+01	  0.065490983	2.611000E+01	  0.065490983	5.229200E+01	  0.065490983	1.155000E+00
229	  0.065691382	-3.194800E+01	  0.065691382	2.614800E+01	  0.065691382	5.230700E+01	  0.065691382	1.165000E+00
230	  0.065891780	-3.182000E+01	  0.065891780	2.635600E+01	  0.065891780	5.233700E+01	  0.065891780	1.192000E+00
231	  0.066092186	-3.178900E+01	  0.066092186	2.615200E+01	  0.066092186	5.235000E+01	  0.066092186	1.188000E+00
232	  0.066292584	-3.171600E+01	  0.066292584	2.643100E+01	  0.066292584	5.236400E+01	  0.066292584	1.210000E+00
233	  0.066492982	-3.166200E+01	  0.066492982	2.627300E+01	  0.066492982	5.238300E+01	  0.066492982	1.211000E+00
234	  0.066693388	-3.167200E+01	  0.066693388	2.648300E+01	  0.066693388	5.237500E+01	  0.066693388	1.219000E+00
235	  0.066893786	-3.170800E+01	  0.066893786	2.685300E+01	  0.066893786	5.235700E+01	  0.066893786	1.229000E+00
236	  0.067094192	-3.168500E+01	  0.067094192	2.703700E+01	  0.067094192	5.235900E+01	  0.067094192	1.240000E+00
237	  0.067294590	-3.167800E+01	  0.067294590	2.670400E+01	  0.067294590	5.236900E+01	  0.067294590	1.227000E+00
238	  0.067494988	-3.174800E+01	  0.067494988	2.704900E+01	  0.067494988	5.234200E+01	  0.067494988	1.231000E+00
239	  0.067695394	-3.170000E+01	  0.067695394	2.691100E+01	  0.067695394	5.235800E+01	  0.067695394	1.233000E+00
240	  0.067895792	-3.175000E+01	  0.067895792	2.713200E+01	  0.067895792	5.233900E+01	  0.067895792	1.234000E+00
241	  0.068096191	-3.181400E+01	  0.068096191	2.694900E+01	  0.068096191	5.232600E+01	  0.068096191	1.217000E+00
242	  0.068296596	-3.179000E+01	  0.068296596	2.652000E+01	  0.068296596	5.234200E+01	  0.068296596	1.203000E+00
243	  0.068496995	-3.182900E+01	  0.068496995	2.671000E+01	  0.068496995	5.232700E+01	  0.068496995	1.205000E+00
244	  0.068697393	-3.185300E+01	  0.068697393	2.612500E+01	  0.068697393	5.233300E+01	  0.068697393	1.178000E+00
245	  0.068897791	-3.183500E+01	  0.068897791	2.605200E+01	  0.068897791	5.234000E+01	  0.068897791	1.177000E+00
246	  0.069098189	-3.180100E+01	  0.069098189	2.538700E+01	  0.069098189	5.236300E+01	  0.069098189	1.154000E+00
247	  0.069298595	-3.190000E+01	  0.069298595	2.544100E+01	  0.069298595	5.233500E+01	  0.069298595	1.143000E+00
248	  0.069498993	-3.177200E+01	  0.069498993	2.436900E+01	  0.069498993	5.239300E+01	  0.069498993	1.115000E+00
249	  0.069699399	-3.179800E+01	  0.069699399	2.403000E+01	  0.069699399	5.239200E+01	  0.069699399	1.097000E+00
250	  0.069899797	-3.178800E+01	  0.069899797	2.327000E+01	  0.069899797	5.241000E+01	  0.069899797	1.066000E+00
251	  0.070100196	-3.171500E+01	  0.070100196	2.367200E+01	  0.070100196	5.242300E+01	  0.070100196	1.093000E+00
252	  0.070300601	-3.163900E+01	  0.070300601	2.326400E+01	  0.070300601	5.245300E+01	  0.070300601	1.085000E+00
253	  0.070501000	-3.151200E+01	  0.070501000	2.288400E+01	  0.070501000	5.249700E+01	  0.070501000	1.085000E+00
254	  0.070701398	-3.153000E+01	  0.070701398	2.308600E+01	  0.070701398	5.248800E+01	  0.070701398	1.092000E+00
255	  0.070901804	-3.146200E+01	  0.070901804	2.260600E+01	  0.070901804	5.251700E+01	  0.070901804	1.079000E+00
256	  0.071102202	-3.132200E+01	  0.071102202	2.283100E+01	  0.071102202	5.255500E+01	  0.071102202	1.108000E+00
257	  0.071302600	-3.136700E+01	  0.071302600	2.298800E+01	  0.071302600	5.253800E+01	  0.071302600	1.109000E+00
258	  0.071503006	-3.130500E+01	  0.071503006	2.300200E+01	  0.071503006	5.255600E+01	  0.071503006	1.118000E+00
259	  0.071703404	-3.124300E+01	  0.071703404	2.311000E+01	  0.071703404	5.257300E+01	  0.071703404	1.131000E+00
260	  0.071903802	-3.123000E+01	  0.071903802	2.379900E+01	  0.071903802	5.256200E+01	  0.071903802	1.165000E+00
261	  0.072104208	-3.128500E+01	  0.072104208	2.361100E+01	  0.072104208	5.255000E+01	  0.072104208	1.148000E+00
262	  0.072304606	-3.118700E+01	  0.072304606	2.366400E+01	  0.072304606	5.257800E+01	  0.072304606	1.165000E+00
263	  0.072505005	-3.124100E+01	  0.072505005	2.413600E+01	  0.072505005	5.255100E+01	  0.072505005	1.178000E+00
264	  0.072705410	-3.126000E+01	  0.072705410	2.425200E+01	  0.072705410	5.254300E+01	  0.072705410	1.181000E+00
265	  0.072905809	-3.126200E+01	  0.072905809	2.456500E+01	  0.072905809	5.253600E+01	  0.072905809	1.195000E+00
266	  0.073106214	-3.131800E+01	  0.073106214	2.432600E+01	  0.073106214	5.252500E+01	  0.073106214	1.176000E+00
267	  0.073306613	-3.136600E+01	  0.073306613	2.468300E+01	  0.073306613	5.250300E+01	  0.073306613	1.185000E+00
268	  0.073507011	-3.140500E+01	  0.073507011	2.416900E+01	  0.073507011	5.250200E+01	  0.073507011	1.157000E+00
269	  0.073707417	-3.147100E+01	  0.073707417	2.373600E+01	  0.073707417	5.249200E+01	  0.073707417	1.128000E+00
270	  0.073907815	-3.151300E+01	  0.073907815	2.370700E+01	  0.073907815	5.248000E+01	  0.073907815	1.121000E+00
271	  0.074108213	-3.160700E+01	  0.074108213	2.379000E+01	  0.074108213	5.245100E+01	  0.074108213	1.112000E+00
272	  0.074308619	-3.163000E+01	  0.074308619	2.371400E+01	  0.074308619	5.244600E+01	  0.074308619	1.106000E+00
273	  0.074509017	-3.156100E+01	  0.074509017	2.251500E+01	  0.074509017	5.249000E+01	  0.074509017	1.062000E+00
274	  0.074709415	-3.160900E+01	  0.074709415	2.230000E+01	  0.074709415	5.248000E+01	  0.074709415	1.047000E+00
275	  0.074909821	-3.160300E+01	  0.074909821	2.178600E+01	  0.074909821	5.249200E+01	  0.074909821	1.025000E+00
276	  0.075110219	-3.156500E+01	  0.075110219	2.128300E+01	  0.075110219	5.251200E+01	  0.075110219	1.007000E+00
277	  0.075310618	-3.157700E+01	  0.075310618	2.049700E+01	  0.075310618	5.252300E+01	  0.075310618	9.700000E-01
278	  0.075511023	-3.148100E+01	  0.075511023	2.000800E+01	  0.075511023	5.256000E+01	  0.075511023	9.590000E-01
279	  0.075711422	-3.143900E+01	  0.075711422	2.011100E+01	  0.075711422	5.257100E+01	  0.075711422	9.690000E-01
280	  0.075911827	-3.142700E+01	  0.075911827	1.949500E+01	  0.075911827	5.258600E+01	  0.075911827	9.420000E-01
281	  0.076112226	-3.136500E+01	  0.076112226	1.918600E+01	  0.076112226	5.261000E+01	  0.076112226	9.350000E-01
282	  0.076312624	-3.127500E+01	  0.076312624	1.871700E+01	  0.076312624	5.264600E+01	  0.076312624	9.230000E-01
283	  0.076513030	-3.123500E+01	  0.076513030	1.890700E+01	  0.076513030	5.265500E+01	  0.076513030	9.360000E-01
284	  0.076713428	-3.125300E+01	  0.076713428	1.849800E+01	  0.076713428	5.265600E+01	  0.076713428	9.150000E-01
285	  0.076913826	-3.121700E+01	  0.076913826	1.867900E+01	  0.076913826	5.266500E+01	  0.076913826	9.270000E-01
286	  0.077114232	-3.116000E+01	  0.077114232	1.881300E+01	  0.077114232	5.268000E+01	  0.077114232	9.400000E-01
287	  0.077314630	-3.107200E+01	  0.077314630	1.871500E+01	  0.077314630	5.271000E+01	  0.077314630	9.460000E-01
288	  0.077515028	-3.103400E+01	  0.077515028	1.822900E+01	  0.077515028	5.273100E+01	  0.077515028	9.260000E-01
289	  0.077715434	-3.107300E+01	  0.077715434	1.825200E+01	  0.077715434	5.271800E+01	  0.077715434	9.230000E-01
290	  0.077915832	-3.104800E+01	  0.077915832	1.855000E+01	  0.077915832	5.272100E+01	  0.077915832	9.400000E-01
291	  0.078116231	-3.090100E+01	  0.078116231	1.862900E+01	  0.078116231	5.276700E+01	  0.078116231	9.610000E-01
292	  0.078316636	-3.098500E+01	  0.078316636	1.861200E+01	  0.078316636	5.274000E+01	  0.078316636	9.510000E-01
293	  0.078517035	-3.095700E+01	  0.078517035	1.867000E+01	  0.078517035	5.274800E+01	  0.078517035	9.570000E-01
294	  0.078717433	-3.092200E+01	  0.078717433	1.881500E+01	  0.078717433	5.275600E+01	  0.078717433	9.680000E-01
295	  0.078917839	-3.095300E+01	  0.078917839	1.812700E+01	  0.078917839	5.275900E+01	  0.078917839	9.310000E-01
296	  0.079118237	-3.101100E+01	  0.079118237	1.833100E+01	  0.079118237	5.273600E+01	  0.079118237	9.340000E-01
297	  0.079318643	-3.096600E+01	  0.079318643	1.814100E+01	  0.079318643	5.275400E+01	  0.079318643	9.300000E-01
298	  0.079519041	-3.100700E+01	  0.079519041	1.849500E+01	  0.079519041	5.273500E+01	  0.079519041	9.420000E-01
299	  0.079719439	-3.096200E+01	  0.079719439	1.798800E+01	  0.079719439	5.275800E+01	  0.079719439	9.230000E-01
300	  0.079919845	-3.100800E+01	  0.079919845	1.752200E+01	  0.079919845	5.275100E+01	  0.079919845	8.950000E-01
301	  0.080120243	-3.098000E+01	  0.080120243	1.766300E+01	  0.080120243	5.275700E+01	  0.080120243	9.050000E-01
302	  0.080320641	-3.088000E+01	  0.080320641	1.717500E+01	  0.080320641	5.279900E+01	  0.080320641	8.910000E-01
303	  0.080521047	-3.091000E+01	  0.080521047	1.726300E+01	  0.080521047	5.278700E+01	  0.080521047	8.920000E-01
304	  0.080721445	-3.088000E+01	  0.080721445	1.693100E+01	  0.080721445	5.280200E+01	  0.080721445	8.790000E-01
305	  0.080921844	-3.079800E+01	  0.080921844	1.683600E+01	  0.080921844	5.283100E+01	  0.080921844	8.830000E-01
306	  0.081122249	-3.078300E+01	  0.081122249	1.639600E+01	  0.081122249	5.284300E+01	  0.081122249	8.620000E-01
307	  0.081322648	-3.074300E+01	  0.081322648	1.663000E+01	  0.081322648	5.285300E+01	  0.081322648	8.780000E-01
308	  0.081523046	-3.072100E+01	  0.081523046	1.638700E+01	  0.081523046	5.286400E+01	  0.081523046	8.680000E-01
309	  0.081723452	-3.069100E+01	  0.081723452	1.653000E+01	  0.081723452	5.287200E+01	  0.081723452	8.790000E-01
310	  0.081923850	-3.070400E+01	  0.081923850	1.646700E+01	  0.081923850	5.286900E+01	  0.081923850	8.740000E-01
311	  0.082124248	-3.066600E+01	  0.082124248	1.657300E+01	  0.082124248	5.288000E+01	  0.082124248	8.840000E-01
312	  0.082324654	-3.060600E+01	  0.082324654	1.658000E+01	  0.082324654	5.290100E+01	  0.082324654	8.910000E-01
313	  0.082525052	-3.060200E+01	  0.082525052	1.641700E+01	  0.082525052	5.290400E+01	  0.082525052	8.830000E-01
314	  0.082725458	-3.056900E+01	  0.082725458	1.668000E+01	  0.082725458	5.291100E+01	  0.082725458	9.000000E-01
315	  0.082925856	-3.059700E+01	  0.082925856	1.629300E+01	  0.082925856	5.290800E+01	  0.082925856	8.770000E-01
316	  0.083126254	-3.059400E+01	  0.083126254	1.660500E+01	  0.083126254	5.290400E+01	  0.083126254	8.930000E-01
317	  0.083326660	-3.062400E+01	  0.083326660	1.678500E+01	  0.083326660	5.289100E+01	  0.083326660	8.990000E-01
318	  0.083527058	-3.061000E+01	  0.083527058	1.631800E+01	  0.083527058	5.290300E+01	  0.083527058	8.770000E-01
319	  0.083727457	-3.065700E+01	  0.083727457	1.671100E+01	  0.083727457	5.288100E+01	  0.083727457	8.920000E-01
320	  0.083927862	-3.062700E+01	  0.083927862	1.649000E+01	  0.083927862	5.289500E+01	  0.083927862	8.840000E-01
321	  0.084128261	-3.064900E+01	  0.084128261	1.654700E+01	  0.084128261	5.288600E+01	  0.084128261	8.840000E-01
322	  0.084328659	-3.052100E+01	  0.084328659	1.641800E+01	  0.084328659	5.293200E+01	  0.084328659	8.910000E-01
323	  0.084529065	-3.066400E+01	  0.084529065	1.646700E+01	  0.084529065	5.288200E+01	  0.084529065	8.790000E-01
324	  0.084729463	-3.063500E+01	  0.084729463	1.596700E+01	  0.084729463	5.290000E+01	  0.084729463	8.560000E-01
325	  0.084929861	-3.069100E+01	  0.084929861	1.563000E+01	  0.084929861	5.288700E+01	  0.084929861	8.330000E-01
326	  0.085130267	-3.070400E+01	  0.085130267	1.598600E+01	  0.085130267	5.287700E+01	  0.085130267	8.500000E-01
327	  0.085330658	-3.067100E+01	  0.085330658	1.549300E+01	  0.085330658	5.289500E+01	  0.085330658	8.270000E-01
328	  0.085531056	-3.070700E+01	  0.085531056	1.553200E+01	  0.085531056	5.288300E+01	  0.085531056	8.260000E-01
329	  0.085731462	-3.066200E+01	  0.085731462	1.516000E+01	  0.085731462	5.290400E+01	  0.085731462	8.110000E-01
330	  0.085931860	-3.070500E+01	  0.085931860	1.480300E+01	  0.085931860	5.289400E+01	  0.085931860	7.880000E-01
331	  0.086132258	-3.065500E+01	  0.086132258	1.483300E+01	  0.086132258	5.291100E+01	  0.086132258	7.950000E-01
332	  0.086332664	-3.069300E+01	  0.086332664	1.429300E+01	  0.086332664	5.290600E+01	  0.086332664	7.630000E-01
333	  0.086533062	-3.063500E+01	  0.086533062	1.438900E+01	  0.086533062	5.292400E+01	  0.086533062	7.730000E-01
334	  0.086733460	-3.071200E+01	  0.086733460	1.422300E+01	  0.086733460	5.290000E+01	  0.086733460	7.570000E-01
335	  0.086933866	-3.060100E+01	  0.086933866	1.390800E+01	  0.086933866	5.294300E+01	  0.086933866	7.510000E-01
336	  0.087134264	-3.062600E+01	  0.087134264	1.391400E+01	  0.087134264	5.293400E+01	  0.087134264	7.490000E-01
337	  0.087334670	-3.060600E+01	  0.087334670	1.387200E+01	  0.087334670	5.294100E+01	  0.087334670	7.490000E-01
338	  0.087535068	-3.062200E+01	  0.087535068	1.348400E+01	  0.087535068	5.294100E+01	  0.087535068	7.270000E-01
339	  0.087735467	-3.068200E+01	  0.087735467	1.359800E+01	  0.087735467	5.291900E+01	  0.087735467	7.280000E-01
340	  0.087935872	-3.063500E+01	  0.087935872	1.343600E+01	  0.087935872	5.293700E+01	  0.087935872	7.230000E-01
341	  0.088136271	-3.064200E+01	  0.088136271	1.278000E+01	  0.088136271	5.294300E+01	  0.088136271	6.880000E-01
342	  0.088336669	-3.066400E+01	  0.088336669	1.267000E+01	  0.088336669	5.293700E+01	  0.088336669	6.800000E-01
343	  0.088537075	-3.066400E+01	  0.088537075	1.228700E+01	  0.088537075	5.294200E+01	  0.088537075	6.600000E-01
344	  0.088737473	-3.062000E+01	  0.088737473	1.264100E+01	  0.088737473	5.295300E+01	  0.088737473	6.830000E-01
345	  0.088937871	-3.067200E+01	  0.088937871	1.176800E+01	  0.088937871	5.294500E+01	  0.088937871	6.320000E-01
346	  0.089138277	-3.062300E+01	  0.089138277	1.187700E+01	  0.089138277	5.296100E+01	  0.089138277	6.420000E-01
347	  0.089338675	-3.067100E+01	  0.089338675	1.130300E+01	  0.089338675	5.295100E+01	  0.089338675	6.080000E-01
348	  0.089539073	-3.056400E+01	  0.089539073	1.105400E+01	  0.089539073	5.299200E+01	  0.089539073	6.020000E-01
349	  0.089739479	-3.056100E+01	  0.089739479	1.055800E+01	  0.089739479	5.299800E+01	  0.089739479	5.760000E-01
350	  0.089939877	-3.055500E+01	  0.089939877	1.015100E+01	  0.089939877	5.300400E+01	  0.089939877	5.540000E-01
351	  0.090140276	-3.053700E+01	  0.090140276	9.724000E+00	  0.090140276	5.301500E+01	  0.090140276	5.320000E-01
352	  0.090340681	-3.045600E+01	  0.090340681	9.609000E+00	  0.090340681	5.304500E+01	  0.090340681	5.310000E-01
353	  0.090541080	-3.044400E+01	  0.090541080	9.303000E+00	  0.090541080	5.305300E+01	  0.090541080	5.150000E-01
354	  0.090741485	-3.033700E+01	  0.090741485	9.317000E+00	  0.090741485	5.309100E+01	  0.090741485	5.230000E-01
355	  0.090941884	-3.035900E+01	  0.090941884	9.107000E+00	  0.090941884	5.308500E+01	  0.090941884	5.100000E-01
356	  0.091142282	-3.021900E+01	  0.091142282	9.169000E+00	  0.091142282	5.313600E+01	  0.091142282	5.220000E-01
357	  0.091342688	-3.017600E+01	  0.091342688	8.745000E+00	  0.091342688	5.315700E+01	  0.091342688	5.010000E-01
358	  0.091543086	-3.014500E+01	  0.091543086	8.749000E+00	  0.091543086	5.316800E+01	  0.091543086	5.030000E-01
359	  0.091743484	-3.007900E+01	  0.091743484	9.183000E+00	  0.091743484	5.318900E+01	  0.091743484	5.320000E-01
360	  0.091943890	-3.002000E+01	  0.091943890	9.279000E+00	  0.091943890	5.321000E+01	  0.091943890	5.410000E-01
361	  0.092144288	-2.996100E+01	  0.092144288	9.394000E+00	  0.092144288	5.323200E+01	  0.092144288	5.520000E-01
362	  0.092344686	-2.995700E+01	  0.092344686	1.016600E+01	  0.092344686	5.322500E+01	  0.092344686	5.970000E-01
363	  0.092545092	-2.990200E+01	  0.092545092	1.013200E+01	  0.092545092	5.324600E+01	  0.092545092	5.990000E-01
364	  0.092745490	-2.996700E+01	  0.092745490	1.078900E+01	  0.092745490	5.321400E+01	  0.092745490	6.330000E-01
365	  0.092945889	-2.991700E+01	  0.092945889	1.098700E+01	  0.092945889	5.323100E+01	  0.092945889	6.480000E-01
366	  0.093146294	-2.992300E+01	  0.093146294	1.093600E+01	  0.093146294	5.322900E+01	  0.093146294	6.450000E-01
367	  0.093346693	-2.998300E+01	  0.093346693	1.149500E+01	  0.093346693	5.320000E+01	  0.093346693	6.720000E-01
368	  0.093547091	-3.002300E+01	  0.093547091	1.169100E+01	  0.093547091	5.318200E+01	  0.093547091	6.800000E-01
369	  0.093747497	-3.009700E+01	  0.093747497	1.212700E+01	  0.093747497	5.314800E+01	  0.093747497	6.980000E-01
370	  0.093947895	-3.015300E+01	  0.093947895	1.188400E+01	  0.093947895	5.313000E+01	  0.093947895	6.800000E-01
371	  0.094148301	-3.021000E+01	  0.094148301	1.216300E+01	  0.094148301	5.310600E+01	  0.094148301	6.910000E-01
372	  0.094348699	-3.030100E+01	  0.094348699	1.201200E+01	  0.094348699	5.307400E+01	  0.094348699	6.750000E-01
373	  0.094549097	-3.032000E+01	  0.094549097	1.188800E+01	  0.094549097	5.306900E+01	  0.094549097	6.660000E-01
374	  0.094749503	-3.046300E+01	  0.094749503	1.158700E+01	  0.094749503	5.302100E+01	  0.094749503	6.390000E-01
375	  0.094949901	-3.050800E+01	  0.094949901	1.132800E+01	  0.094949901	5.300800E+01	  0.094949901	6.210000E-01
376	  0.095150299	-3.056400E+01	  0.095150299	1.120900E+01	  0.095150299	5.299000E+01	  0.095150299	6.110000E-01
377	  0.095350705	-3.062200E+01	  0.095350705	1.038100E+01	  0.095350705	5.297800E+01	  0.095350705	5.620000E-01
378	  0.095551103	-3.070600E+01	  0.095551103	1.003800E+01	  0.095551103	5.295200E+01	  0.095551103	5.380000E-01
379	  0.095751502	-3.075200E+01	  0.095751502	9.195000E+00	  0.095751502	5.294400E+01	  0.095751502	4.910000E-01
380	  0.095951907	-3.070100E+01	  0.095951907	8.617000E+00	  0.095951907	5.296700E+01	  0.095951907	4.630000E-01
381	  0.096152306	-3.076200E+01	  0.096152306	7.639000E+00	  0.096152306	5.295400E+01	  0.096152306	4.080000E-01
382	  0.096352704	-3.075700E+01	  0.096352704	6.670000E+00	  0.096352704	5.296200E+01	  0.096352704	3.560000E-01
383	  0.096553110	-3.071300E+01	  0.096553110	6.605000E+00	  0.096553110	5.297800E+01	  0.096553110	3.550000E-01
384	  0.096753508	-3.065600E+01	  0.096753508	5.990000E+00	  0.096753508	5.300200E+01	  0.096753508	3.240000E-01
385	  0.096953906	-3.055600E+01	  0.096953906	4.763000E+00	  0.096953906	5.304500E+01	  0.096953906	2.610000E-01
386	  0.097154312	-3.048500E+01	  0.097154312	4.714000E+00	  0.097154312	5.307100E+01	  0.097154312	2.610000E-01
387	  0.097354710	-3.045900E+01	  0.097354710	4.239000E+00	  0.097354710	5.308200E+01	  0.097354710	2.350000E-01
388	  0.097555116	-3.033800E+01	  0.097555116	4.101000E+00	  0.097555116	5.312700E+01	  0.097555116	2.310000E-01
389	  0.097755514	-3.028100E+01	  0.097755514	3.894000E+00	  0.097755514	5.315000E+01	  0.097755514	2.210000E-01
390	  0.097955912	-3.021300E+01	  0.097955912	3.994000E+00	  0.097955912	5.317500E+01	  0.097955912	2.280000E-01
391	  0.098156318	-3.017100E+01	  0.098156318	3.633000E+00	  0.098156318	5.319200E+01	  0.098156318	2.090000E-01
392	  0.098356716	-3.005700E+01	  0.098356716	3.589000E+00	  0.098356716	5.323600E+01	  0.098356716	2.090000E-01
393	  0.098557115	-2.995500E+01	  0.098557115	3.426000E+00	  0.098557115	5.327600E+01	  0.098557115	2.020000E-01
394	  0.098757520	-2.994600E+01	  0.098757520	3.610000E+00	  0.098757520	5.327900E+01	  0.098757520	2.130000E-01
395	  0.098957919	-2.997200E+01	  0.098957919	4.016000E+00	  0.098957919	5.326700E+01	  0.098957919	2.360000E-01
396	  0.099158317	-2.989000E+01	  0.099158317	4.760000E+00	  0.099158317	5.329500E+01	  0.099158317	2.830000E-01
397	  0.099358723	-2.989200E+01	  0.099358723	4.440000E+00	  0.099358723	5.329600E+01	  0.099358723	2.640000E-01
398	  0.099559121	-2.991300E+01	  0.099559121	4.852000E+00	  0.099559121	5.328600E+01	  0.099559121	2.880000E-01
399	  0.099759519	-2.983100E+01	  0.099759519	4.700000E+00	  0.099759519	5.331900E+01	  0.099759519	2.820000E-01
400	  0.099959925	-2.987400E+01	  0.099959925	4.972000E+00	  0.099959925	5.330000E+01	  0.099959925	2.960000E-01
401	  0.100160323	-2.995900E+01	  0.100160323	5.006000E+00	  0.100160323	5.326700E+01	  0.100160323	2.950000E-01
402	  0.100360721	-2.996400E+01	  0.100360721	5.660000E+00	  0.100360721	5.326100E+01	  0.100360721	3.330000E-01
403	  0.100561127	-2.992100E+01	  0.100561127	4.964000E+00	  0.100561127	5.328200E+01	  0.100561127	2.940000E-01
404	  0.100761525	-2.995800E+01	  0.100761525	5.703000E+00	  0.100761525	5.326300E+01	  0.100761525	3.360000E-01
405	  0.100961931	-3.010200E+01	  0.100961931	5.544000E+00	  0.100961931	5.320900E+01	  0.100961931	3.210000E-01
406	  0.101162329	-3.002600E+01	  0.101162329	5.110000E+00	  0.101162329	5.324000E+01	  0.101162329	2.990000E-01
407	  0.101362728	-3.011400E+01	  0.101362728	5.681000E+00	  0.101362728	5.320300E+01	  0.101362728	3.290000E-01
408	  0.101563133	-3.006100E+01	  0.101563133	4.168000E+00	  0.101563133	5.323200E+01	  0.101563133	2.430000E-01
409	  0.101763532	-3.009400E+01	  0.101763532	4.403000E+00	  0.101763532	5.321800E+01	  0.101763532	2.550000E-01
410	  0.101963930	-3.028000E+01	  0.101963930	4.016000E+00	  0.101963930	5.314900E+01	  0.101963930	2.280000E-01
411	  0.102164336	-3.016000E+01	  0.102164336	4.360000E+00	  0.102164336	5.319300E+01	  0.102164336	2.510000E-01
412	  0.102364734	-3.006400E+01	  0.102364734	3.508000E+00	  0.102364734	5.323300E+01	  0.102364734	2.040000E-01
413	  0.102565132	-3.013600E+01	  0.102565132	2.746000E+00	  0.102565132	5.320800E+01	  0.102565132	1.580000E-01
414	  0.102765530	-3.007200E+01	  0.102765530	2.917000E+00	  0.102765530	5.323300E+01	  0.102765530	1.700000E-01
415	  0.102965929	-2.993600E+01	  0.102965929	2.493000E+00	  0.102965929	5.328600E+01	  0.102965929	1.470000E-01
416	  0.103166327	-3.009700E+01	  0.103166327	2.087000E+00	  0.103166327	5.322500E+01	  0.103166327	1.210000E-01
417	  0.103366733	-3.005300E+01	  0.103366733	2.082000E+00	  0.103366733	5.324200E+01	  0.103366733	1.210000E-01
418	  0.103567131	-2.993300E+01	  0.103567131	1.913000E+00	  0.103567131	5.328900E+01	  0.103567131	1.130000E-01
419	  0.103767529	-2.988500E+01	  0.103767529	1.973000E+00	  0.103767529	5.330800E+01	  0.103767529	1.170000E-01
420	  0.103967935	-2.989800E+01	  0.103967935	2.150000E+00	  0.103967935	5.330200E+01	  0.103967935	1.280000E-01
421	  0.104168333	-2.989100E+01	  0.104168333	1.992000E+00	  0.104168333	5.330500E+01	  0.104168333	1.180000E-01
422	  0.104368731	-2.986700E+01	  0.104368731	1.565000E+00	  0.104368731	5.331500E+01	  0.104368731	9.300000E-02
423	  0.104569137	-2.977900E+01	  0.104569137	1.594000E+00	  0.104569137	5.335100E+01	  0.104569137	9.600000E-02
424	  0.104769535	-2.987900E+01	  0.104769535	1.852000E+00	  0.104769535	5.331000E+01	  0.104769535	1.100000E-01
425	  0.104969934	-2.981000E+01	  0.104969934	1.909000E+00	  0.104969934	5.333700E+01	  0.104969934	1.150000E-01
426	  0.105170339	-2.969200E+01	  0.105170339	2.008000E+00	  0.105170339	5.338400E+01	  0.105170339	1.220000E-01
427	  0.105370738	-2.990400E+01	  0.105370738	2.122000E+00	  0.105370738	5.330000E+01	  0.105370738	1.260000E-01
428	  0.105571143	-2.985200E+01	  0.105571143	1.916000E+00	  0.105571143	5.332100E+01	  0.105571143	1.140000E-01
429	  0.105771542	-2.991500E+01	  0.105771542	1.994000E+00	  0.105771542	5.329600E+01	  0.105771542	1.180000E-01
430	  0.105971940	-2.989600E+01	  0.105971940	2.266000E+00	  0.105971940	5.330300E+01	  0.105971940	1.350000E-01
431	  0.106172346	-2.990800E+01	  0.106172346	2.269000E+00	  0.106172346	5.329800E+01	  0.106172346	1.350000E-01
432	  0.106372744	-2.997600E+01	  0.106372744	1.515000E+00	  0.106372744	5.327300E+01	  0.106372744	8.900000E-02
433	  0.106573142	-2.994700E+01	  0.106573142	1.721000E+00	  0.106573142	5.328400E+01	  0.106573142	1.010000E-01
434	  0.106773548	-3.004500E+01	  0.106773548	1.397000E+00	  0.106773548	5.324600E+01	  0.106773548	8.100000E-02
435	  0.106973946	-2.999600E+01	  0.106973946	1.661000E+00	  0.106973946	5.326500E+01	  0.106973946	9.700000E-02
436	  0.107174344	-3.005100E+01	  0.107174344	5.880000E-01	  0.107174344	5.324500E+01	  0.107174344	3.400000E-02
437	  0.107374750	-3.004600E+01	  0.107374750	7.390000E-01	  0.107374750	5.324700E+01	  0.107374750	4.300000E-02
438	  0.107575148	-3.004400E+01	  0.107575148	3.770000E-01	  0.107575148	5.324800E+01	  0.107575148	2.200000E-02
439	  0.107775547	-3.013400E+01	  0.107775547	1.610000E-01	  0.107775547	5.321300E+01	  0.107775547	9.000000E-03
440	  0.107975952	-3.006100E+01	  0.107975952	-3.220000E-01	  0.107975952	5.324100E+01	  0.107975952	-1.800000E-02
441	  0.108176351	-3.010400E+01	  0.108176351	-1.007000E+00	  0.108176351	5.322400E+01	  0.108176351	-5.800000E-02
442	  0.108376749	-3.006500E+01	  0.108376749	-1.761000E+00	  0.108376749	5.323800E+01	  0.108376749	-1.020000E-01
443	  0.108577155	-3.010100E+01	  0.108577155	-9.830000E-01	  0.108577155	5.322500E+01	  0.108577155	-5.700000E-02
444	  0.108777553	-3.001000E+01	  0.108777553	-2.100000E+00	  0.108777553	5.325900E+01	  0.108777553	-1.230000E-01
445	  0.108977959	-2.991600E+01	  0.108977959	-2.048000E+00	  0.108977959	5.329500E+01	  0.108977959	-1.210000E-01
446	  0.109178357	-2.995900E+01	  0.109178357	-2.462000E+00	  0.109178357	5.327700E+01	  0.109178357	-1.450000E-01
447	  0.109378755	-2.984200E+01	  0.109378755	-2.423000E+00	  0.109378755	5.332300E+01	  0.109378755	-1.450000E-01
448	  0.109579161	-2.987600E+01	  0.109579161	-2.831000E+00	  0.109579161	5.330900E+01	  0.109579161	-1.690000E-01
449	  0.109779559	-2.975200E+01	  0.109779559	-2.908000E+00	  0.109779559	5.335800E+01	  0.109779559	-1.760000E-01
450	  0.109979957	-2.982100E+01	  0.109979957	-2.956000E+00	  0.109979957	5.333000E+01	  0.109979957	-1.770000E-01
451	  0.110180363	-2.969400E+01	  0.110180363	-3.621000E+00	  0.110180363	5.337800E+01	  0.110180363	-2.210000E-01
452	  0.110380761	-2.967300E+01	  0.110380761	-2.349000E+00	  0.110380761	5.339100E+01	  0.110380761	-1.430000E-01
453	  0.110581160	-2.960800E+01	  0.110581160	-2.863000E+00	  0.110581160	5.341600E+01	  0.110581160	-1.760000E-01
454	  0.110781565	-2.963400E+01	  0.110781565	-3.543000E+00	  0.110781565	5.340300E+01	  0.110781565	-2.170000E-01
455	  0.110981964	-2.951700E+01	  0.110981964	-2.781000E+00	  0.110981964	5.345300E+01	  0.110981964	-1.730000E-01
456	  0.111182362	-2.966000E+01	  0.111182362	-2.680000E+00	  0.111182362	5.339500E+01	  0.111182362	-1.640000E-01
457	  0.111382768	-2.953200E+01	  0.111382768	-2.809000E+00	  0.111382768	5.344700E+01	  0.111382768	-1.750000E-01
458	  0.111583166	-2.963900E+01	  0.111583166	-1.934000E+00	  0.111583166	5.340600E+01	  0.111583166	-1.190000E-01
459	  0.111783572	-2.958000E+01	  0.111783572	-2.636000E+00	  0.111783572	5.342800E+01	  0.111783572	-1.630000E-01
460	  0.111983970	-2.958400E+01	  0.111983970	-2.228000E+00	  0.111983970	5.342700E+01	  0.111983970	-1.370000E-01
461	  0.112184368	-2.964700E+01	  0.112184368	-2.358000E+00	  0.112184368	5.340200E+01	  0.112184368	-1.440000E-01
462	  0.112384774	-2.963500E+01	  0.112384774	-1.874000E+00	  0.112384774	5.340800E+01	  0.112384774	-1.150000E-01
463	  0.112585172	-2.977200E+01	  0.112585172	-2.316000E+00	  0.112585172	5.335200E+01	  0.112585172	-1.400000E-01
464	  0.112785570	-2.972800E+01	  0.112785570	-1.891000E+00	  0.112785570	5.337000E+01	  0.112785570	-1.150000E-01
465	  0.112985976	-2.976800E+01	  0.112985976	-2.488000E+00	  0.112985976	5.335300E+01	  0.112985976	-1.500000E-01
466	  0.113186374	-2.973600E+01	  0.113186374	-2.102000E+00	  0.113186374	5.336700E+01	  0.113186374	-1.270000E-01
467	  0.113386773	-2.976900E+01	  0.113386773	-2.548000E+00	  0.113386773	5.335200E+01	  0.113386773	-1.540000E-01
468	  0.113587178	-2.988400E+01	  0.113587178	-2.102000E+00	  0.113587178	5.330800E+01	  0.113587178	-1.250000E-01
469	  0.113787577	-2.991200E+01	  0.113787577	-2.619000E+00	  0.113787577	5.329500E+01	  0.113787577	-1.550000E-01
470	  0.113987975	-2.996500E+01	  0.113987975	-3.202000E+00	  0.113987975	5.327300E+01	  0.113987975	-1.890000E-01
471	  0.114188381	-2.994000E+01	  0.114188381	-3.158000E+00	  0.114188381	5.328300E+01	  0.114188381	-1.870000E-01
472	  0.114388779	-2.991500E+01	  0.114388779	-3.441000E+00	  0.114388779	5.329200E+01	  0.114388779	-2.040000E-01
473	  0.114589177	-2.999400E+01	  0.114589177	-4.183000E+00	  0.114589177	5.325800E+01	  0.114589177	-2.460000E-01
474	  0.114789583	-2.996400E+01	  0.114789583	-4.321000E+00	  0.114789583	5.326900E+01	  0.114789583	-2.550000E-01
475	  0.114989981	-3.001500E+01	  0.114989981	-5.159000E+00	  0.114989981	5.324500E+01	  0.114989981	-3.020000E-01
476	  0.115190387	-3.001600E+01	  0.115190387	-5.289000E+00	  0.115190387	5.324300E+01	  0.115190387	-3.100000E-01
477	  0.115390785	-3.007600E+01	  0.115390785	-5.725000E+00	  0.115390785	5.321800E+01	  0.115390785	-3.330000E-01
478	  0.115591183	-2.998100E+01	  0.115591183	-6.147000E+00	  0.115591183	5.325200E+01	  0.115591183	-3.610000E-01
479	  0.115791589	-2.984700E+01	  0.115791589	-6.703000E+00	  0.115791589	5.330000E+01	  0.115791589	-4.000000E-01
480	  0.115991987	-2.985600E+01	  0.115991987	-6.835000E+00	  0.115991987	5.329500E+01	  0.115991987	-4.080000E-01
481	  0.116192386	-2.997600E+01	  0.116192386	-7.138000E+00	  0.116192386	5.324600E+01	  0.116192386	-4.200000E-01
482	  0.116392791	-2.982600E+01	  0.116392791	-7.331000E+00	  0.116392791	5.330300E+01	  0.116392791	-4.390000E-01
483	  0.116593190	-2.983100E+01	  0.116593190	-7.138000E+00	  0.116593190	5.330300E+01	  0.116593190	-4.270000E-01
484	  0.116793588	-2.977000E+01	  0.116793588	-7.653000E+00	  0.116793588	5.332200E+01	  0.116793588	-4.610000E-01
485	  0.116993994	-2.977700E+01	  0.116993994	-7.650000E+00	  0.116993994	5.332000E+01	  0.116993994	-4.610000E-01
486	  0.117194392	-2.970500E+01	  0.117194392	-7.069000E+00	  0.117194392	5.335300E+01	  0.117194392	-4.300000E-01
487	  0.117394790	-2.964200E+01	  0.117394790	-7.120000E+00	  0.117394790	5.337800E+01	  0.117394790	-4.360000E-01
488	  0.117595196	-2.964400E+01	  0.117595196	-7.426000E+00	  0.117595196	5.337500E+01	  0.117595196	-4.550000E-01
489	  0.117795594	-2.971300E+01	  0.117795594	-7.332000E+00	  0.117795594	5.334800E+01	  0.117795594	-4.450000E-01
490	  0.117995992	-2.960300E+01	  0.117995992	-7.135000E+00	  0.117995992	5.339300E+01	  0.117995992	-4.390000E-01
491	  0.118196398	-2.963300E+01	  0.118196398	-6.782000E+00	  0.118196398	5.338400E+01	  0.118196398	-4.160000E-01
492	  0.118396796	-2.964800E+01	  0.118396796	-7.236000E+00	  0.118396796	5.337400E+01	  0.118396796	-4.430000E-01
493	  0.118597202	-2.972300E+01	  0.118597202	-6.891000E+00	  0.118597202	5.334700E+01	  0.118597202	-4.180000E-01
494	  0.118797600	-2.971700E+01	  0.118797600	-6.907000E+00	  0.118797600	5.334900E+01	  0.118797600	-4.190000E-01
495	  0.118997999	-2.973100E+01	  0.118997999	-7.241000E+00	  0.118997999	5.334100E+01	  0.118997999	-4.390000E-01
496	  0.119198404	-2.969300E+01	  0.119198404	-6.847000E+00	  0.119198404	5.336000E+01	  0.119198404	-4.170000E-01
497	  0.119398803	-2.977400E+01	  0.119398803	-7.091000E+00	  0.119398803	5.332600E+01	  0.119398803	-4.270000E-01
498	  0.119599201	-2.981300E+01	  0.119599201	-7.466000E+00	  0.119599201	5.330700E+01	  0.119599201	-4.480000E-01
499	  0.119799607	-2.988900E+01	  0.119799607	-7.150000E+00	  0.119799607	5.328000E+01	  0.119799607	-4.250000E-01
500	  0.120000005	-2.985300E+01	  0.120000005	-7.583000E+00	  0.120000005	5.329100E+01	  0.120000005	-4.520000E-01
