! Anritsu VNA Master:             	Model: MS2036C/10/77
! SN:             	1601066
! /card0/usr/18may27.balun/252b.r200.2.txt
! Existing Calibration Information:
! TYPE:             	Current Settings	Active Cal Settings
! TIME:             	05/27/2018 12:38:13 PM	05/27/2018 12:21:44 PM
! INTERNAL TEMP:    	53.3 C	53.3 C
! # POINTS:         	500	500
! START FREQ:       	20.000 MHz	20.000 MHz
! STOP FREQ:        	120.000 MHz	120.000 MHz
! SOURCE POWER:     	High	High
! IFBW:             	50 Hz	50 Hz
! AVG FACTOR:       	  1 	  1 
! REF PLANE 1:      	0 mm	0 mm
! REF PLANE 2:      	0 mm	0 mm
! CAL TYPE:         	Full S11	Full S11
! CAL METHOD:       	SOLT	SOLT
! CAL LINE TYPE:    	Coax	Coax
! DUT PORT 1:       	K-Conn(M)	K-Conn(M)
! DUT PORT 2:       	K-Conn(M)	K-Conn(M)
! CAL STATUS:       	OK: Accuracy High	--
! PROP-V:       	0.700
! CABLE LOSS:       	0.000 dB/m
! REF IMPEDANCE:       	50.0
! Trace Specific Parameters:	TR1	TR2	TR3	TR4
! TRACE.#.Y (GRAPH TYPE)	LOG MAG	PHASE	REAL IMPEDANCE	IMAGINARY IMPEDANCE
! TRACE.#.X 	FREQ.GHZ	FREQ.GHZ	FREQ.GHZ	FREQ.GHZ
! S-PARAMETER	S11	S11	S11	S11
! SMOOTH/APERTURE %	0	0	0	0
! WINDOW	NSL	NSL	NSL	NSL
! GATING	OFF	OFF	OFF	OFF
! FGTD	OFF	OFF	OFF	OFF
Marker Information per Trace:	TR1	TR2	TR3	TR4
!MK1	--	--	--	"MK1 TR4:  70.100 200 MHz,Z:(28.183 ohm, -49.145 ohm)"
!MK2	--	--	--	--
!MK3	--	--	--	--
!MK4	--	--	--	--
!MK5	--	--	--	--
!MK6	--	--	--	--
!MK7	--	--	--	--
!MK8	--	--	--	--
PNT	TR1.FREQ.GHZ	TR1.LOG MAG.dB	TR2.FREQ.GHZ	TR2.PHASE.deg	TR3.FREQ.GHZ	TR3.REAL IMPEDANCE.ohm	TR4.FREQ.GHZ	TR4.IMAGINARY IMPEDANCE.ohm
1	  0.020000000	-4.560000E+00	  0.020000000	-2.292800E+01	  0.020000000	1.248640E+02	  0.020000000	-8.852100E+01
2	  0.020200402	-4.559000E+00	  0.020200402	-2.318300E+01	  0.020200402	1.238870E+02	  0.020200402	-8.877300E+01
3	  0.020400802	-4.558000E+00	  0.020400802	-2.346700E+01	  0.020400802	1.228070E+02	  0.020400802	-8.904000E+01
4	  0.020601204	-4.558000E+00	  0.020601204	-2.372800E+01	  0.020601204	1.218110E+02	  0.020601204	-8.923700E+01
5	  0.020801604	-4.555000E+00	  0.020801604	-2.400200E+01	  0.020801604	1.207920E+02	  0.020801604	-8.951900E+01
6	  0.021002004	-4.554000E+00	  0.021002004	-2.429300E+01	  0.021002004	1.196990E+02	  0.021002004	-8.973600E+01
7	  0.021202406	-4.554000E+00	  0.021202406	-2.457700E+01	  0.021202406	1.186370E+02	  0.021202406	-8.991500E+01
8	  0.021402806	-4.549000E+00	  0.021402806	-2.484900E+01	  0.021402806	1.176460E+02	  0.021402806	-9.020000E+01
9	  0.021603208	-4.548000E+00	  0.021603208	-2.509600E+01	  0.021603208	1.167360E+02	  0.021603208	-9.035500E+01
10	  0.021803608	-4.546000E+00	  0.021803608	-2.532800E+01	  0.021803608	1.158940E+02	  0.021803608	-9.053800E+01
11	  0.022004008	-4.541000E+00	  0.022004008	-2.556700E+01	  0.022004008	1.150340E+02	  0.022004008	-9.075300E+01
12	  0.022204408	-4.536000E+00	  0.022204408	-2.577900E+01	  0.022204408	1.142770E+02	  0.022204408	-9.095600E+01
13	  0.022404809	-4.533000E+00	  0.022404809	-2.596200E+01	  0.022404809	1.136230E+02	  0.022404809	-9.111500E+01
14	  0.022605211	-4.530000E+00	  0.022605211	-2.616500E+01	  0.022605211	1.129000E+02	  0.022605211	-9.125700E+01
15	  0.022805611	-4.526000E+00	  0.022805611	-2.638400E+01	  0.022805611	1.121200E+02	  0.022805611	-9.140600E+01
16	  0.023006011	-4.522000E+00	  0.023006011	-2.657300E+01	  0.023006011	1.114530E+02	  0.023006011	-9.156400E+01
17	  0.023206413	-4.517000E+00	  0.023206413	-2.675600E+01	  0.023206413	1.108120E+02	  0.023206413	-9.172300E+01
18	  0.023406813	-4.516000E+00	  0.023406813	-2.692700E+01	  0.023406813	1.102070E+02	  0.023406813	-9.179400E+01
19	  0.023607215	-4.515000E+00	  0.023607215	-2.713100E+01	  0.023607215	1.094900E+02	  0.023607215	-9.184500E+01
20	  0.023807615	-4.517000E+00	  0.023807615	-2.731800E+01	  0.023807615	1.088340E+02	  0.023807615	-9.184800E+01
21	  0.024008015	-4.519000E+00	  0.024008015	-2.749300E+01	  0.024008015	1.082220E+02	  0.024008015	-9.181800E+01
22	  0.024208417	-4.522000E+00	  0.024208417	-2.767100E+01	  0.024208417	1.076040E+02	  0.024208417	-9.178200E+01
23	  0.024408817	-4.531000E+00	  0.024408817	-2.785700E+01	  0.024408817	1.069600E+02	  0.024408817	-9.158900E+01
24	  0.024609219	-4.538000E+00	  0.024609219	-2.805300E+01	  0.024609219	1.062900E+02	  0.024609219	-9.143800E+01
25	  0.024809619	-4.547000E+00	  0.024809619	-2.824500E+01	  0.024809619	1.056350E+02	  0.024809619	-9.126900E+01
26	  0.025010020	-4.552000E+00	  0.025010020	-2.849000E+01	  0.025010020	1.048140E+02	  0.025010020	-9.115200E+01
27	  0.025210422	-4.560000E+00	  0.025210422	-2.872600E+01	  0.025210422	1.040300E+02	  0.025210422	-9.099000E+01
28	  0.025410822	-4.566000E+00	  0.025410822	-2.899800E+01	  0.025410822	1.031360E+02	  0.025410822	-9.086900E+01
29	  0.025611224	-4.569000E+00	  0.025611224	-2.928200E+01	  0.025611224	1.022110E+02	  0.025611224	-9.078600E+01
30	  0.025811624	-4.571000E+00	  0.025811624	-2.958800E+01	  0.025811624	1.012270E+02	  0.025811624	-9.072200E+01
31	  0.026012026	-4.574000E+00	  0.026012026	-2.988100E+01	  0.026012026	1.002950E+02	  0.026012026	-9.063600E+01
32	  0.026212426	-4.576000E+00	  0.026212426	-3.018700E+01	  0.026212426	9.933000E+01	  0.026212426	-9.055200E+01
33	  0.026412826	-4.572000E+00	  0.026412826	-3.050500E+01	  0.026412826	9.833300E+01	  0.026412826	-9.057500E+01
34	  0.026613226	-4.566000E+00	  0.026613226	-3.078000E+01	  0.026613226	9.747300E+01	  0.026613226	-9.064200E+01
35	  0.026813626	-4.560000E+00	  0.026813626	-3.104600E+01	  0.026813626	9.664800E+01	  0.026813626	-9.069900E+01
36	  0.027014028	-4.555000E+00	  0.027014028	-3.126700E+01	  0.027014028	9.596600E+01	  0.027014028	-9.074500E+01
37	  0.027214428	-4.553000E+00	  0.027214428	-3.147000E+01	  0.027214428	9.534600E+01	  0.027214428	-9.074300E+01
38	  0.027414829	-4.549000E+00	  0.027414829	-3.165900E+01	  0.027414829	9.477100E+01	  0.027414829	-9.075000E+01
39	  0.027615231	-4.549000E+00	  0.027615231	-3.186400E+01	  0.027615231	9.415700E+01	  0.027615231	-9.068900E+01
40	  0.027815631	-4.546000E+00	  0.027815631	-3.208100E+01	  0.027815631	9.350600E+01	  0.027815631	-9.067100E+01
41	  0.028016033	-4.553000E+00	  0.028016033	-3.229800E+01	  0.028016033	9.288200E+01	  0.028016033	-9.046500E+01
42	  0.028216433	-4.551000E+00	  0.028216433	-3.251900E+01	  0.028216433	9.223100E+01	  0.028216433	-9.042700E+01
43	  0.028416833	-4.546000E+00	  0.028416833	-3.275300E+01	  0.028416833	9.154000E+01	  0.028416833	-9.042400E+01
44	  0.028617235	-4.539000E+00	  0.028617235	-3.297900E+01	  0.028617235	9.087000E+01	  0.028617235	-9.046500E+01
45	  0.028817635	-4.537000E+00	  0.028817635	-3.319900E+01	  0.028817635	9.023400E+01	  0.028817635	-9.040800E+01
46	  0.029018037	-4.537000E+00	  0.029018037	-3.340400E+01	  0.029018037	8.965300E+01	  0.029018037	-9.032000E+01
47	  0.029218437	-4.537000E+00	  0.029218437	-3.358400E+01	  0.029218437	8.914600E+01	  0.029218437	-9.023700E+01
48	  0.029418837	-4.537000E+00	  0.029418837	-3.376100E+01	  0.029418837	8.864900E+01	  0.029418837	-9.016000E+01
49	  0.029619239	-4.536000E+00	  0.029619239	-3.390500E+01	  0.029619239	8.824800E+01	  0.029619239	-9.009500E+01
50	  0.029819639	-4.539000E+00	  0.029819639	-3.404800E+01	  0.029819639	8.786100E+01	  0.029819639	-8.997600E+01
51	  0.030020041	-4.541000E+00	  0.030020041	-3.420600E+01	  0.030020041	8.743100E+01	  0.030020041	-8.986300E+01
52	  0.030220442	-4.551000E+00	  0.030220442	-3.441400E+01	  0.030220442	8.689700E+01	  0.030220442	-8.957600E+01
53	  0.030420844	-4.560000E+00	  0.030420844	-3.465600E+01	  0.030420844	8.627500E+01	  0.030420844	-8.928200E+01
54	  0.030621244	-4.568000E+00	  0.030621244	-3.492500E+01	  0.030621244	8.558700E+01	  0.030621244	-8.899100E+01
55	  0.030821644	-4.578000E+00	  0.030821644	-3.520800E+01	  0.030821644	8.487300E+01	  0.030821644	-8.866600E+01
56	  0.031022044	-4.585000E+00	  0.031022044	-3.549800E+01	  0.031022044	8.414100E+01	  0.031022044	-8.838800E+01
57	  0.031222444	-4.583000E+00	  0.031222444	-3.575900E+01	  0.031222444	8.345700E+01	  0.031222444	-8.827700E+01
58	  0.031422846	-4.589000E+00	  0.031422846	-3.607300E+01	  0.031422846	8.267900E+01	  0.031422846	-8.799200E+01
59	  0.031623244	-4.595000E+00	  0.031623244	-3.639600E+01	  0.031623244	8.189000E+01	  0.031623244	-8.768700E+01
60	  0.031823646	-4.594000E+00	  0.031823646	-3.672900E+01	  0.031823646	8.105500E+01	  0.031823646	-8.750300E+01
61	  0.032024048	-4.591000E+00	  0.032024048	-3.701900E+01	  0.032024048	8.032800E+01	  0.032024048	-8.737400E+01
62	  0.032224450	-4.584000E+00	  0.032224450	-3.730200E+01	  0.032224450	7.961000E+01	  0.032224450	-8.729100E+01
63	  0.032424849	-4.573000E+00	  0.032424849	-3.756800E+01	  0.032424849	7.891800E+01	  0.032424849	-8.728900E+01
64	  0.032625251	-4.564000E+00	  0.032625251	-3.783700E+01	  0.032625251	7.823400E+01	  0.032625251	-8.724900E+01
65	  0.032825653	-4.554000E+00	  0.032825653	-3.802000E+01	  0.032825653	7.775200E+01	  0.032825653	-8.727700E+01
66	  0.033026051	-4.551000E+00	  0.033026051	-3.819800E+01	  0.033026051	7.731800E+01	  0.033026051	-8.719300E+01
67	  0.033226453	-4.549000E+00	  0.033226453	-3.837400E+01	  0.033226453	7.689500E+01	  0.033226453	-8.710100E+01
68	  0.033426855	-4.550000E+00	  0.033426855	-3.857000E+01	  0.033426855	7.644400E+01	  0.033426855	-8.693900E+01
69	  0.033627257	-4.552000E+00	  0.033627257	-3.879100E+01	  0.033627257	7.594300E+01	  0.033627257	-8.674400E+01
70	  0.033827655	-4.552000E+00	  0.033827655	-3.902300E+01	  0.033827655	7.541100E+01	  0.033827655	-8.657400E+01
71	  0.034028057	-4.555000E+00	  0.034028057	-3.927400E+01	  0.034028057	7.485500E+01	  0.034028057	-8.634600E+01
72	  0.034228459	-4.556000E+00	  0.034228459	-3.945000E+01	  0.034228459	7.446500E+01	  0.034228459	-8.619700E+01
73	  0.034428857	-4.553000E+00	  0.034428857	-3.968100E+01	  0.034428857	7.393900E+01	  0.034428857	-8.605000E+01
74	  0.034629259	-4.547000E+00	  0.034629259	-3.988100E+01	  0.034629259	7.346400E+01	  0.034629259	-8.598600E+01
75	  0.034829661	-4.550000E+00	  0.034829661	-4.009900E+01	  0.034829661	7.299800E+01	  0.034829661	-8.577500E+01
76	  0.035030060	-4.542000E+00	  0.035030060	-4.026400E+01	  0.035030060	7.259600E+01	  0.035030060	-8.576300E+01
77	  0.035230462	-4.541000E+00	  0.035230462	-4.046000E+01	  0.035230462	7.217000E+01	  0.035230462	-8.560900E+01
78	  0.035430863	-4.542000E+00	  0.035430863	-4.064100E+01	  0.035430863	7.178600E+01	  0.035430863	-8.545000E+01
79	  0.035631265	-4.550000E+00	  0.035631265	-4.081400E+01	  0.035631265	7.145800E+01	  0.035631265	-8.519900E+01
80	  0.035831664	-4.558000E+00	  0.035831664	-4.100000E+01	  0.035831664	7.110400E+01	  0.035831664	-8.494400E+01
81	  0.036032066	-4.567000E+00	  0.036032066	-4.123300E+01	  0.036032066	7.066700E+01	  0.036032066	-8.462200E+01
82	  0.036232468	-4.577000E+00	  0.036232468	-4.148200E+01	  0.036232468	7.020400E+01	  0.036232468	-8.428100E+01
83	  0.036432866	-4.584000E+00	  0.036432866	-4.175400E+01	  0.036432866	6.968400E+01	  0.036432866	-8.396200E+01
84	  0.036633268	-4.593000E+00	  0.036633268	-4.204800E+01	  0.036633268	6.913500E+01	  0.036633268	-8.360300E+01
85	  0.036833670	-4.601000E+00	  0.036833670	-4.235000E+01	  0.036833670	6.857400E+01	  0.036833670	-8.324900E+01
86	  0.037034072	-4.606000E+00	  0.037034072	-4.265000E+01	  0.037034072	6.800900E+01	  0.037034072	-8.293100E+01
87	  0.037234470	-4.607000E+00	  0.037234470	-4.292400E+01	  0.037234470	6.747500E+01	  0.037234470	-8.269700E+01
88	  0.037434869	-4.606000E+00	  0.037434869	-4.321600E+01	  0.037434869	6.690200E+01	  0.037434869	-8.246700E+01
89	  0.037635271	-4.599000E+00	  0.037635271	-4.350100E+01	  0.037635271	6.632100E+01	  0.037635271	-8.230600E+01
90	  0.037835669	-4.594000E+00	  0.037835669	-4.378400E+01	  0.037835669	6.575200E+01	  0.037835669	-8.213500E+01
91	  0.038036071	-4.585000E+00	  0.038036071	-4.407200E+01	  0.038036071	6.516400E+01	  0.038036071	-8.199200E+01
92	  0.038236473	-4.575000E+00	  0.038236473	-4.428600E+01	  0.038236473	6.470500E+01	  0.038236473	-8.193200E+01
93	  0.038436871	-4.568000E+00	  0.038436871	-4.446600E+01	  0.038436871	6.433400E+01	  0.038436871	-8.185800E+01
94	  0.038637273	-4.565000E+00	  0.038637273	-4.463200E+01	  0.038637273	6.401300E+01	  0.038637273	-8.174600E+01
95	  0.038837675	-4.570000E+00	  0.038837675	-4.483000E+01	  0.038837675	6.368000E+01	  0.038837675	-8.151300E+01
96	  0.039038073	-4.577000E+00	  0.039038073	-4.502200E+01	  0.039038073	6.337800E+01	  0.039038073	-8.125000E+01
97	  0.039238475	-4.586000E+00	  0.039238475	-4.525400E+01	  0.039238475	6.301400E+01	  0.039238475	-8.094700E+01
98	  0.039438877	-4.593000E+00	  0.039438877	-4.549500E+01	  0.039438877	6.262900E+01	  0.039438877	-8.064500E+01
99	  0.039639279	-4.595000E+00	  0.039639279	-4.573000E+01	  0.039639279	6.222700E+01	  0.039639279	-8.041900E+01
100	  0.039839678	-4.596000E+00	  0.039839678	-4.596700E+01	  0.039839678	6.182300E+01	  0.039839678	-8.019300E+01
101	  0.040040080	-4.594000E+00	  0.040040080	-4.621800E+01	  0.040040080	6.137700E+01	  0.040040080	-7.999300E+01
102	  0.040240481	-4.592000E+00	  0.040240481	-4.645800E+01	  0.040240481	6.095400E+01	  0.040240481	-7.980500E+01
103	  0.040440880	-4.585000E+00	  0.040440880	-4.670800E+01	  0.040440880	6.049300E+01	  0.040440880	-7.965100E+01
104	  0.040641282	-4.582000E+00	  0.040641282	-4.693700E+01	  0.040641282	6.009300E+01	  0.040641282	-7.947300E+01
105	  0.040841684	-4.582000E+00	  0.040841684	-4.712400E+01	  0.040841684	5.978100E+01	  0.040841684	-7.930300E+01
106	  0.041042086	-4.582000E+00	  0.041042086	-4.733000E+01	  0.041042086	5.943800E+01	  0.041042086	-7.912200E+01
107	  0.041242484	-4.589000E+00	  0.041242484	-4.755000E+01	  0.041242484	5.912600E+01	  0.041242484	-7.883800E+01
108	  0.041442886	-4.594000E+00	  0.041442886	-4.779500E+01	  0.041442886	5.875500E+01	  0.041442886	-7.856900E+01
109	  0.041643288	-4.601000E+00	  0.041643288	-4.805900E+01	  0.041643288	5.837300E+01	  0.041643288	-7.825600E+01
110	  0.041843686	-4.606000E+00	  0.041843686	-4.833200E+01	  0.041843686	5.797300E+01	  0.041843686	-7.795100E+01
111	  0.042044088	-4.611000E+00	  0.042044088	-4.862500E+01	  0.042044088	5.754400E+01	  0.042044088	-7.762900E+01
112	  0.042244490	-4.609000E+00	  0.042244490	-4.889500E+01	  0.042244490	5.711100E+01	  0.042244490	-7.740800E+01
113	  0.042444889	-4.609000E+00	  0.042444889	-4.915800E+01	  0.042444889	5.670600E+01	  0.042444889	-7.717000E+01
114	  0.042645290	-4.608000E+00	  0.042645290	-4.942500E+01	  0.042645290	5.629500E+01	  0.042645290	-7.693400E+01
115	  0.042845692	-4.604000E+00	  0.042845692	-4.968900E+01	  0.042845692	5.587700E+01	  0.042845692	-7.672600E+01
116	  0.043046094	-4.596000E+00	  0.043046094	-4.996900E+01	  0.043046094	5.541000E+01	  0.043046094	-7.654900E+01
117	  0.043246493	-4.587000E+00	  0.043246493	-5.022000E+01	  0.043246493	5.498400E+01	  0.043246493	-7.640800E+01
118	  0.043446895	-4.573000E+00	  0.043446895	-5.044600E+01	  0.043446895	5.456800E+01	  0.043446895	-7.633200E+01
119	  0.043647297	-4.565000E+00	  0.043647297	-5.063800E+01	  0.043647297	5.424300E+01	  0.043647297	-7.622400E+01
120	  0.043847695	-4.560000E+00	  0.043847695	-5.078000E+01	  0.043847695	5.400400E+01	  0.043847695	-7.614500E+01
121	  0.044048097	-4.561000E+00	  0.044048097	-5.089900E+01	  0.044048097	5.384100E+01	  0.044048097	-7.602300E+01
122	  0.044248499	-4.565000E+00	  0.044248499	-5.103800E+01	  0.044248499	5.366900E+01	  0.044248499	-7.585100E+01
123	  0.044448901	-4.572000E+00	  0.044448901	-5.119200E+01	  0.044448901	5.349200E+01	  0.044448901	-7.564300E+01
124	  0.044649299	-4.579000E+00	  0.044649299	-5.138000E+01	  0.044649299	5.327200E+01	  0.044649299	-7.540100E+01
125	  0.044849701	-4.587000E+00	  0.044849701	-5.158900E+01	  0.044849701	5.303200E+01	  0.044849701	-7.513100E+01
126	  0.045050103	-4.598000E+00	  0.045050103	-5.180100E+01	  0.045050103	5.280300E+01	  0.045050103	-7.483700E+01
127	  0.045250501	-4.601000E+00	  0.045250501	-5.201800E+01	  0.045250501	5.252400E+01	  0.045250501	-7.460700E+01
128	  0.045450903	-4.605000E+00	  0.045450903	-5.225200E+01	  0.045450903	5.223100E+01	  0.045450903	-7.435300E+01
129	  0.045651305	-4.607000E+00	  0.045651305	-5.248600E+01	  0.045651305	5.192400E+01	  0.045651305	-7.412300E+01
130	  0.045851704	-4.609000E+00	  0.045851704	-5.274600E+01	  0.045851704	5.159200E+01	  0.045851704	-7.386200E+01
131	  0.046052106	-4.612000E+00	  0.046052106	-5.298600E+01	  0.046052106	5.129000E+01	  0.046052106	-7.361500E+01
132	  0.046252504	-4.619000E+00	  0.046252504	-5.321700E+01	  0.046252504	5.102800E+01	  0.046252504	-7.334300E+01
133	  0.046452906	-4.627000E+00	  0.046452906	-5.344000E+01	  0.046452906	5.079000E+01	  0.046452906	-7.306500E+01
134	  0.046653304	-4.640000E+00	  0.046653304	-5.370200E+01	  0.046653304	5.052700E+01	  0.046653304	-7.271900E+01
135	  0.046853706	-4.650000E+00	  0.046853706	-5.399700E+01	  0.046853706	5.021200E+01	  0.046853706	-7.236700E+01
136	  0.047054108	-4.656000E+00	  0.047054108	-5.430800E+01	  0.047054108	4.985600E+01	  0.047054108	-7.203400E+01
137	  0.047254506	-4.661000E+00	  0.047254506	-5.464000E+01	  0.047254506	4.947300E+01	  0.047254506	-7.169000E+01
138	  0.047454908	-4.662000E+00	  0.047454908	-5.491500E+01	  0.047454908	4.914200E+01	  0.047454908	-7.142900E+01
139	  0.047655310	-4.666000E+00	  0.047655310	-5.525100E+01	  0.047655310	4.875700E+01	  0.047655310	-7.109300E+01
140	  0.047855709	-4.665000E+00	  0.047855709	-5.556700E+01	  0.047855709	4.836800E+01	  0.047855709	-7.082100E+01
141	  0.048056111	-4.659000E+00	  0.048056111	-5.589000E+01	  0.048056111	4.795000E+01	  0.048056111	-7.057300E+01
142	  0.048256513	-4.653000E+00	  0.048256513	-5.622100E+01	  0.048256513	4.752400E+01	  0.048256513	-7.032200E+01
143	  0.048456915	-4.639000E+00	  0.048456915	-5.654200E+01	  0.048456915	4.706800E+01	  0.048456915	-7.013800E+01
144	  0.048657313	-4.626000E+00	  0.048657313	-5.683100E+01	  0.048657313	4.665900E+01	  0.048657313	-6.997300E+01
145	  0.048857715	-4.615000E+00	  0.048857715	-5.707800E+01	  0.048857715	4.631500E+01	  0.048857715	-6.982800E+01
146	  0.049058117	-4.603000E+00	  0.049058117	-5.729500E+01	  0.049058117	4.599600E+01	  0.049058117	-6.972000E+01
147	  0.049258515	-4.592000E+00	  0.049258515	-5.748700E+01	  0.049258515	4.571700E+01	  0.049258515	-6.962500E+01
148	  0.049458917	-4.590000E+00	  0.049458917	-5.765200E+01	  0.049458917	4.552300E+01	  0.049458917	-6.948600E+01
149	  0.049659319	-4.585000E+00	  0.049659319	-5.780600E+01	  0.049659319	4.532100E+01	  0.049659319	-6.938300E+01
150	  0.049859721	-4.584000E+00	  0.049859721	-5.800400E+01	  0.049859721	4.509700E+01	  0.049859721	-6.921100E+01
151	  0.050060119	-4.585000E+00	  0.050060119	-5.816000E+01	  0.050060119	4.493600E+01	  0.050060119	-6.905900E+01
152	  0.050260521	-4.587000E+00	  0.050260521	-5.834700E+01	  0.050260521	4.474500E+01	  0.050260521	-6.887500E+01
153	  0.050460923	-4.590000E+00	  0.050460923	-5.853800E+01	  0.050460923	4.455900E+01	  0.050460923	-6.867900E+01
154	  0.050661322	-4.590000E+00	  0.050661322	-5.873400E+01	  0.050661322	4.435300E+01	  0.050661322	-6.849700E+01
155	  0.050861724	-4.588000E+00	  0.050861724	-5.895200E+01	  0.050861724	4.410600E+01	  0.050861724	-6.831600E+01
156	  0.051062126	-4.589000E+00	  0.051062126	-5.914200E+01	  0.051062126	4.391400E+01	  0.051062126	-6.813600E+01
157	  0.051262524	-4.586000E+00	  0.051262524	-5.931500E+01	  0.051262524	4.371600E+01	  0.051262524	-6.799800E+01
158	  0.051462926	-4.587000E+00	  0.051462926	-5.950700E+01	  0.051462926	4.352400E+01	  0.051462926	-6.781700E+01
159	  0.051663328	-4.592000E+00	  0.051663328	-5.968400E+01	  0.051663328	4.337500E+01	  0.051663328	-6.761800E+01
160	  0.051863730	-4.598000E+00	  0.051863730	-5.985700E+01	  0.051863730	4.323400E+01	  0.051863730	-6.742200E+01
161	  0.052064128	-4.608000E+00	  0.052064128	-6.004600E+01	  0.052064128	4.310100E+01	  0.052064128	-6.718400E+01
162	  0.052264530	-4.618000E+00	  0.052264530	-6.028200E+01	  0.052264530	4.292200E+01	  0.052264530	-6.690900E+01
163	  0.052464932	-4.624000E+00	  0.052464932	-6.051700E+01	  0.052464932	4.272200E+01	  0.052464932	-6.666000E+01
164	  0.052665330	-4.632000E+00	  0.052665330	-6.076000E+01	  0.052665330	4.253200E+01	  0.052665330	-6.638600E+01
165	  0.052865732	-4.642000E+00	  0.052865732	-6.104100E+01	  0.052865732	4.231200E+01	  0.052865732	-6.607500E+01
166	  0.053066134	-4.647000E+00	  0.053066134	-6.127400E+01	  0.053066134	4.211800E+01	  0.053066134	-6.583500E+01
167	  0.053266536	-4.647000E+00	  0.053266536	-6.154400E+01	  0.053266536	4.185800E+01	  0.053266536	-6.559600E+01
168	  0.053466935	-4.652000E+00	  0.053466935	-6.184800E+01	  0.053466935	4.159400E+01	  0.053466935	-6.530100E+01
169	  0.053667337	-4.648000E+00	  0.053667337	-6.216000E+01	  0.053667337	4.127900E+01	  0.053667337	-6.504900E+01
170	  0.053867739	-4.643000E+00	  0.053867739	-6.243200E+01	  0.053867739	4.099700E+01	  0.053867739	-6.484100E+01
171	  0.054068137	-4.643000E+00	  0.054068137	-6.273500E+01	  0.054068137	4.071300E+01	  0.054068137	-6.458000E+01
172	  0.054268539	-4.640000E+00	  0.054268539	-6.295500E+01	  0.054268539	4.049400E+01	  0.054268539	-6.440600E+01
173	  0.054468941	-4.636000E+00	  0.054468941	-6.317700E+01	  0.054468941	4.027000E+01	  0.054468941	-6.423400E+01
174	  0.054669339	-4.632000E+00	  0.054669339	-6.340200E+01	  0.054669339	4.004600E+01	  0.054669339	-6.406000E+01
175	  0.054869737	-4.633000E+00	  0.054869737	-6.362300E+01	  0.054869737	3.985400E+01	  0.054869737	-6.386400E+01
176	  0.055070139	-4.634000E+00	  0.055070139	-6.380800E+01	  0.055070139	3.969600E+01	  0.055070139	-6.369500E+01
177	  0.055270538	-4.637000E+00	  0.055270538	-6.403500E+01	  0.055270538	3.951500E+01	  0.055270538	-6.347900E+01
178	  0.055470940	-4.640000E+00	  0.055470940	-6.426600E+01	  0.055470940	3.933100E+01	  0.055470940	-6.326300E+01
179	  0.055671342	-4.644000E+00	  0.055671342	-6.449000E+01	  0.055671342	3.916000E+01	  0.055671342	-6.304700E+01
180	  0.055871744	-4.647000E+00	  0.055871744	-6.472500E+01	  0.055871744	3.897700E+01	  0.055871744	-6.282600E+01
181	  0.056072142	-4.649000E+00	  0.056072142	-6.499900E+01	  0.056072142	3.875500E+01	  0.056072142	-6.257900E+01
182	  0.056272544	-4.649000E+00	  0.056272544	-6.528600E+01	  0.056272544	3.851200E+01	  0.056272544	-6.233400E+01
183	  0.056472946	-4.648000E+00	  0.056472946	-6.553100E+01	  0.056472946	3.829900E+01	  0.056472946	-6.213400E+01
184	  0.056673344	-4.648000E+00	  0.056673344	-6.577000E+01	  0.056673344	3.810300E+01	  0.056673344	-6.192800E+01
185	  0.056873746	-4.649000E+00	  0.056873746	-6.600600E+01	  0.056873746	3.791700E+01	  0.056873746	-6.171900E+01
186	  0.057074148	-4.649000E+00	  0.057074148	-6.622300E+01	  0.057074148	3.773800E+01	  0.057074148	-6.153900E+01
187	  0.057274550	-4.651000E+00	  0.057274550	-6.646600E+01	  0.057274550	3.755600E+01	  0.057274550	-6.131800E+01
188	  0.057474948	-4.656000E+00	  0.057474948	-6.669700E+01	  0.057474948	3.739500E+01	  0.057474948	-6.110000E+01
189	  0.057675350	-4.662000E+00	  0.057675350	-6.695500E+01	  0.057675350	3.722300E+01	  0.057675350	-6.085300E+01
190	  0.057875752	-4.661000E+00	  0.057875752	-6.721500E+01	  0.057875752	3.701600E+01	  0.057875752	-6.063600E+01
191	  0.058076151	-4.665000E+00	  0.058076151	-6.744500E+01	  0.058076151	3.685500E+01	  0.058076151	-6.042500E+01
192	  0.058276553	-4.666000E+00	  0.058276553	-6.772900E+01	  0.058276553	3.664200E+01	  0.058276553	-6.018200E+01
193	  0.058476955	-4.665000E+00	  0.058476955	-6.798100E+01	  0.058476955	3.644600E+01	  0.058476955	-5.997600E+01
194	  0.058677353	-4.663000E+00	  0.058677353	-6.827000E+01	  0.058677353	3.621700E+01	  0.058677353	-5.974400E+01
195	  0.058877755	-4.661000E+00	  0.058877755	-6.853300E+01	  0.058877755	3.600800E+01	  0.058877755	-5.953600E+01
196	  0.059078157	-4.658000E+00	  0.059078157	-6.881800E+01	  0.059078157	3.577700E+01	  0.059078157	-5.931700E+01
197	  0.059278559	-4.652000E+00	  0.059278559	-6.907900E+01	  0.059278559	3.555000E+01	  0.059278559	-5.913200E+01
198	  0.059478957	-4.647000E+00	  0.059478957	-6.929100E+01	  0.059478957	3.537100E+01	  0.059478957	-5.897800E+01
199	  0.059679359	-4.639000E+00	  0.059679359	-6.951000E+01	  0.059679359	3.516900E+01	  0.059679359	-5.883500E+01
200	  0.059879761	-4.634000E+00	  0.059879761	-6.970900E+01	  0.059879761	3.499900E+01	  0.059879761	-5.869400E+01
201	  0.060080159	-4.631000E+00	  0.060080159	-6.990500E+01	  0.060080159	3.484200E+01	  0.060080159	-5.854800E+01
202	  0.060280561	-4.626000E+00	  0.060280561	-7.005000E+01	  0.060280561	3.471200E+01	  0.060280561	-5.845200E+01
203	  0.060480963	-4.629000E+00	  0.060480963	-7.023400E+01	  0.060480963	3.459800E+01	  0.060480963	-5.828800E+01
204	  0.060681365	-4.630000E+00	  0.060681365	-7.041300E+01	  0.060681365	3.448000E+01	  0.060681365	-5.813500E+01
205	  0.060881764	-4.637000E+00	  0.060881764	-7.057500E+01	  0.060881764	3.440200E+01	  0.060881764	-5.797200E+01
206	  0.061082166	-4.639000E+00	  0.061082166	-7.078900E+01	  0.061082166	3.426500E+01	  0.061082166	-5.778700E+01
207	  0.061282568	-4.645000E+00	  0.061282568	-7.099800E+01	  0.061282568	3.414900E+01	  0.061282568	-5.759300E+01
208	  0.061482966	-4.646000E+00	  0.061482966	-7.124400E+01	  0.061482966	3.398900E+01	  0.061482966	-5.738700E+01
209	  0.061683368	-4.652000E+00	  0.061683368	-7.142600E+01	  0.061683368	3.389700E+01	  0.061683368	-5.721300E+01
210	  0.061883770	-4.657000E+00	  0.061883770	-7.168500E+01	  0.061883770	3.374900E+01	  0.061883770	-5.698400E+01
211	  0.062084168	-4.658000E+00	  0.062084168	-7.189100E+01	  0.062084168	3.361900E+01	  0.062084168	-5.681000E+01
212	  0.062284570	-4.664000E+00	  0.062284570	-7.211700E+01	  0.062284570	3.349800E+01	  0.062284570	-5.660600E+01
213	  0.062484972	-4.666000E+00	  0.062484972	-7.230500E+01	  0.062484972	3.338500E+01	  0.062484972	-5.644700E+01
214	  0.062685370	-4.672000E+00	  0.062685370	-7.255200E+01	  0.062685370	3.325400E+01	  0.062685370	-5.622400E+01
215	  0.062885776	-4.677000E+00	  0.062885776	-7.275400E+01	  0.062885776	3.314900E+01	  0.062885776	-5.604200E+01
216	  0.063086174	-4.680000E+00	  0.063086174	-7.303400E+01	  0.063086174	3.298300E+01	  0.063086174	-5.580900E+01
217	  0.063286573	-4.691000E+00	  0.063286573	-7.328900E+01	  0.063286573	3.288000E+01	  0.063286573	-5.555800E+01
218	  0.063486971	-4.698000E+00	  0.063486971	-7.353200E+01	  0.063486971	3.276200E+01	  0.063486971	-5.533800E+01
219	  0.063687377	-4.702000E+00	  0.063687377	-7.384000E+01	  0.063687377	3.258600E+01	  0.063687377	-5.508400E+01
220	  0.063887775	-4.708000E+00	  0.063887775	-7.413900E+01	  0.063887775	3.243400E+01	  0.063887775	-5.482300E+01
221	  0.064088173	-4.711000E+00	  0.064088173	-7.445000E+01	  0.064088173	3.225500E+01	  0.064088173	-5.457100E+01
222	  0.064288579	-4.712000E+00	  0.064288579	-7.478600E+01	  0.064288579	3.205400E+01	  0.064288579	-5.430900E+01
223	  0.064488977	-4.711000E+00	  0.064488977	-7.504000E+01	  0.064488977	3.189700E+01	  0.064488977	-5.411500E+01
224	  0.064689375	-4.710000E+00	  0.064689375	-7.534100E+01	  0.064689375	3.171200E+01	  0.064689375	-5.388700E+01
225	  0.064889781	-4.706000E+00	  0.064889781	-7.563700E+01	  0.064889781	3.151600E+01	  0.064889781	-5.367600E+01
226	  0.065090179	-4.709000E+00	  0.065090179	-7.592900E+01	  0.065090179	3.135600E+01	  0.065090179	-5.344400E+01
227	  0.065290578	-4.699000E+00	  0.065290578	-7.616800E+01	  0.065290578	3.116700E+01	  0.065290578	-5.330000E+01
228	  0.065490983	-4.693000E+00	  0.065490983	-7.641600E+01	  0.065490983	3.099400E+01	  0.065490983	-5.313400E+01
229	  0.065691382	-4.694000E+00	  0.065691382	-7.665400E+01	  0.065691382	3.086400E+01	  0.065691382	-5.294700E+01
230	  0.065891780	-4.692000E+00	  0.065891780	-7.689000E+01	  0.065891780	3.071900E+01	  0.065891780	-5.277600E+01
231	  0.066092186	-4.687000E+00	  0.066092186	-7.710100E+01	  0.066092186	3.057600E+01	  0.066092186	-5.263400E+01
232	  0.066292584	-4.688000E+00	  0.066292584	-7.734200E+01	  0.066292584	3.044700E+01	  0.066292584	-5.244800E+01
233	  0.066492982	-4.687000E+00	  0.066492982	-7.761200E+01	  0.066492982	3.029300E+01	  0.066492982	-5.224800E+01
234	  0.066693388	-4.685000E+00	  0.066693388	-7.785500E+01	  0.066693388	3.014700E+01	  0.066693388	-5.207300E+01
235	  0.066893786	-4.685000E+00	  0.066893786	-7.810300E+01	  0.066893786	3.001200E+01	  0.066893786	-5.188700E+01
236	  0.067094192	-4.685000E+00	  0.067094192	-7.835800E+01	  0.067094192	2.987400E+01	  0.067094192	-5.169700E+01
237	  0.067294590	-4.684000E+00	  0.067294590	-7.857900E+01	  0.067294590	2.975000E+01	  0.067294590	-5.153600E+01
238	  0.067494988	-4.688000E+00	  0.067494988	-7.880300E+01	  0.067494988	2.964900E+01	  0.067494988	-5.135600E+01
239	  0.067695394	-4.680000E+00	  0.067695394	-7.904500E+01	  0.067695394	2.948100E+01	  0.067695394	-5.120500E+01
240	  0.067895792	-4.680000E+00	  0.067895792	-7.925900E+01	  0.067895792	2.937000E+01	  0.067895792	-5.104500E+01
241	  0.068096191	-4.679000E+00	  0.068096191	-7.945100E+01	  0.068096191	2.926400E+01	  0.068096191	-5.090700E+01
242	  0.068296596	-4.679000E+00	  0.068296596	-7.966000E+01	  0.068296596	2.915700E+01	  0.068296596	-5.075200E+01
243	  0.068496995	-4.678000E+00	  0.068496995	-7.984700E+01	  0.068496995	2.905700E+01	  0.068496995	-5.061700E+01
244	  0.068697393	-4.685000E+00	  0.068697393	-8.006400E+01	  0.068697393	2.898000E+01	  0.068697393	-5.043300E+01
245	  0.068897791	-4.683000E+00	  0.068897791	-8.028500E+01	  0.068897791	2.885600E+01	  0.068897791	-5.027900E+01
246	  0.069098189	-4.686000E+00	  0.069098189	-8.052400E+01	  0.069098189	2.875200E+01	  0.069098189	-5.009300E+01
247	  0.069298595	-4.692000E+00	  0.069298595	-8.074800E+01	  0.069298595	2.866500E+01	  0.069298595	-4.991200E+01
248	  0.069498993	-4.694000E+00	  0.069498993	-8.101200E+01	  0.069498993	2.854600E+01	  0.069498993	-4.971200E+01
249	  0.069699399	-4.696000E+00	  0.069699399	-8.126200E+01	  0.069699399	2.843100E+01	  0.069699399	-4.952500E+01
250	  0.069899797	-4.699000E+00	  0.069899797	-8.151400E+01	  0.069899797	2.832400E+01	  0.069899797	-4.933300E+01
251	  0.070100196	-4.697000E+00	  0.070100196	-8.178400E+01	  0.070100196	2.818300E+01	  0.070100196	-4.914500E+01
252	  0.070300601	-4.698000E+00	  0.070300601	-8.204200E+01	  0.070300601	2.806400E+01	  0.070300601	-4.895500E+01
253	  0.070501000	-4.699000E+00	  0.070501000	-8.227200E+01	  0.070501000	2.795600E+01	  0.070501000	-4.878900E+01
254	  0.070701398	-4.695000E+00	  0.070701398	-8.250900E+01	  0.070701398	2.782800E+01	  0.070701398	-4.863100E+01
255	  0.070901804	-4.693000E+00	  0.070901804	-8.278200E+01	  0.070901804	2.769000E+01	  0.070901804	-4.844200E+01
256	  0.071102202	-4.697000E+00	  0.071102202	-8.297000E+01	  0.071102202	2.761900E+01	  0.071102202	-4.829700E+01
257	  0.071302600	-4.692000E+00	  0.071302600	-8.323600E+01	  0.071302600	2.747400E+01	  0.071302600	-4.812300E+01
258	  0.071503006	-4.696000E+00	  0.071503006	-8.347100E+01	  0.071503006	2.738100E+01	  0.071503006	-4.794700E+01
259	  0.071703404	-4.697000E+00	  0.071703404	-8.372000E+01	  0.071703404	2.727300E+01	  0.071703404	-4.776800E+01
260	  0.071903802	-4.701000E+00	  0.071903802	-8.396600E+01	  0.071903802	2.718100E+01	  0.071903802	-4.758100E+01
261	  0.072104208	-4.701000E+00	  0.072104208	-8.426400E+01	  0.072104208	2.704900E+01	  0.072104208	-4.737200E+01
262	  0.072304606	-4.698000E+00	  0.072304606	-8.450600E+01	  0.072304606	2.692600E+01	  0.072304606	-4.721200E+01
263	  0.072505005	-4.699000E+00	  0.072505005	-8.476800E+01	  0.072505005	2.681200E+01	  0.072505005	-4.702700E+01
264	  0.072705410	-4.697000E+00	  0.072705410	-8.503100E+01	  0.072705410	2.668900E+01	  0.072705410	-4.685000E+01
265	  0.072905809	-4.695000E+00	  0.072905809	-8.525700E+01	  0.072905809	2.658300E+01	  0.072905809	-4.669800E+01
266	  0.073106214	-4.694000E+00	  0.073106214	-8.547800E+01	  0.073106214	2.648400E+01	  0.073106214	-4.654700E+01
267	  0.073306613	-4.689000E+00	  0.073306613	-8.571700E+01	  0.073306613	2.635800E+01	  0.073306613	-4.639700E+01
268	  0.073507011	-4.685000E+00	  0.073507011	-8.592300E+01	  0.073507011	2.625200E+01	  0.073507011	-4.626600E+01
269	  0.073707417	-4.678000E+00	  0.073707417	-8.611800E+01	  0.073707417	2.613800E+01	  0.073707417	-4.615100E+01
270	  0.073907815	-4.679000E+00	  0.073907815	-8.631900E+01	  0.073907815	2.605900E+01	  0.073907815	-4.600900E+01
271	  0.074108213	-4.678000E+00	  0.074108213	-8.649400E+01	  0.074108213	2.598100E+01	  0.074108213	-4.589100E+01
272	  0.074308619	-4.683000E+00	  0.074308619	-8.672100E+01	  0.074308619	2.590700E+01	  0.074308619	-4.572400E+01
273	  0.074509017	-4.686000E+00	  0.074509017	-8.690900E+01	  0.074509017	2.584500E+01	  0.074509017	-4.558600E+01
274	  0.074709415	-4.688000E+00	  0.074709415	-8.711900E+01	  0.074709415	2.576700E+01	  0.074709415	-4.543800E+01
275	  0.074909821	-4.697000E+00	  0.074909821	-8.733600E+01	  0.074909821	2.571800E+01	  0.074909821	-4.526700E+01
276	  0.075110219	-4.700000E+00	  0.075110219	-8.754100E+01	  0.075110219	2.564800E+01	  0.075110219	-4.512100E+01
277	  0.075310618	-4.706000E+00	  0.075310618	-8.778800E+01	  0.075310618	2.557700E+01	  0.075310618	-4.493600E+01
278	  0.075511023	-4.711000E+00	  0.075511023	-8.801600E+01	  0.075511023	2.550600E+01	  0.075511023	-4.477100E+01
279	  0.075711422	-4.714000E+00	  0.075711422	-8.826400E+01	  0.075711422	2.542500E+01	  0.075711422	-4.459400E+01
280	  0.075911827	-4.718000E+00	  0.075911827	-8.851500E+01	  0.075911827	2.534300E+01	  0.075911827	-4.441600E+01
281	  0.076112226	-4.721000E+00	  0.076112226	-8.875900E+01	  0.076112226	2.525800E+01	  0.076112226	-4.424700E+01
282	  0.076312624	-4.724000E+00	  0.076312624	-8.898900E+01	  0.076312624	2.518200E+01	  0.076312624	-4.408500E+01
283	  0.076513030	-4.727000E+00	  0.076513030	-8.923000E+01	  0.076513030	2.510500E+01	  0.076513030	-4.391700E+01
284	  0.076713428	-4.732000E+00	  0.076713428	-8.949700E+01	  0.076713428	2.502200E+01	  0.076713428	-4.372900E+01
285	  0.076913826	-4.735000E+00	  0.076913826	-8.975900E+01	  0.076913826	2.493600E+01	  0.076913826	-4.354800E+01
286	  0.077114232	-4.743000E+00	  0.077114232	-9.005300E+01	  0.077114232	2.486100E+01	  0.077114232	-4.333400E+01
287	  0.077314630	-4.749000E+00	  0.077314630	-9.035600E+01	  0.077314630	2.477300E+01	  0.077314630	-4.312100E+01
288	  0.077515028	-4.750000E+00	  0.077515028	-9.065100E+01	  0.077515028	2.466600E+01	  0.077515028	-4.292700E+01
289	  0.077715434	-4.749000E+00	  0.077715434	-9.094000E+01	  0.077715434	2.455600E+01	  0.077715434	-4.274100E+01
290	  0.077915832	-4.748000E+00	  0.077915832	-9.127100E+01	  0.077915832	2.443300E+01	  0.077915832	-4.252700E+01
291	  0.078116231	-4.748000E+00	  0.078116231	-9.155700E+01	  0.078116231	2.433000E+01	  0.078116231	-4.234200E+01
292	  0.078316636	-4.743000E+00	  0.078316636	-9.182400E+01	  0.078316636	2.421200E+01	  0.078316636	-4.218200E+01
293	  0.078517035	-4.734000E+00	  0.078517035	-9.213000E+01	  0.078517035	2.406300E+01	  0.078517035	-4.200800E+01
294	  0.078717433	-4.725000E+00	  0.078717433	-9.237800E+01	  0.078717433	2.393800E+01	  0.078717433	-4.186900E+01
295	  0.078917839	-4.716000E+00	  0.078917839	-9.262100E+01	  0.078917839	2.381700E+01	  0.078917839	-4.173200E+01
296	  0.079118237	-4.708000E+00	  0.079118237	-9.285700E+01	  0.079118237	2.369900E+01	  0.079118237	-4.160000E+01
297	  0.079318643	-4.694000E+00	  0.079318643	-9.307000E+01	  0.079318643	2.357000E+01	  0.079318643	-4.149400E+01
298	  0.079519041	-4.689000E+00	  0.079519041	-9.324100E+01	  0.079519041	2.348800E+01	  0.079519041	-4.139800E+01
299	  0.079719439	-4.688000E+00	  0.079719439	-9.345200E+01	  0.079719439	2.341300E+01	  0.079719439	-4.126500E+01
300	  0.079919845	-4.684000E+00	  0.079919845	-9.361500E+01	  0.079919845	2.334000E+01	  0.079919845	-4.117100E+01
301	  0.080120243	-4.679000E+00	  0.080120243	-9.379400E+01	  0.080120243	2.326300E+01	  0.080120243	-4.106600E+01
302	  0.080320641	-4.683000E+00	  0.080320641	-9.396100E+01	  0.080320641	2.322100E+01	  0.080320641	-4.095200E+01
303	  0.080521047	-4.684000E+00	  0.080521047	-9.413900E+01	  0.080521047	2.316800E+01	  0.080521047	-4.083700E+01
304	  0.080721445	-4.685000E+00	  0.080721445	-9.431100E+01	  0.080721445	2.311500E+01	  0.080721445	-4.072600E+01
305	  0.080921844	-4.687000E+00	  0.080921844	-9.447400E+01	  0.080921844	2.306900E+01	  0.080921844	-4.061900E+01
306	  0.081122249	-4.694000E+00	  0.081122249	-9.468700E+01	  0.081122249	2.303000E+01	  0.081122249	-4.046800E+01
307	  0.081322648	-4.696000E+00	  0.081322648	-9.486800E+01	  0.081322648	2.298000E+01	  0.081322648	-4.035100E+01
308	  0.081523046	-4.700000E+00	  0.081523046	-9.502900E+01	  0.081523046	2.294300E+01	  0.081523046	-4.024200E+01
309	  0.081723452	-4.704000E+00	  0.081723452	-9.523300E+01	  0.081723452	2.289600E+01	  0.081723452	-4.010400E+01
310	  0.081923850	-4.715000E+00	  0.081923850	-9.542100E+01	  0.081923850	2.288200E+01	  0.081923850	-3.996400E+01
311	  0.082124248	-4.725000E+00	  0.082124248	-9.563000E+01	  0.082124248	2.285300E+01	  0.082124248	-3.981400E+01
312	  0.082324654	-4.733000E+00	  0.082324654	-9.589800E+01	  0.082324654	2.280300E+01	  0.082324654	-3.963000E+01
313	  0.082525052	-4.749000E+00	  0.082525052	-9.611400E+01	  0.082525052	2.279800E+01	  0.082525052	-3.946400E+01
314	  0.082725458	-4.755000E+00	  0.082725458	-9.637000E+01	  0.082725458	2.274400E+01	  0.082725458	-3.929300E+01
315	  0.082925856	-4.769000E+00	  0.082925856	-9.665400E+01	  0.082925856	2.271300E+01	  0.082925856	-3.908900E+01
316	  0.083126254	-4.777000E+00	  0.083126254	-9.696700E+01	  0.083126254	2.264700E+01	  0.083126254	-3.888200E+01
317	  0.083326660	-4.786000E+00	  0.083326660	-9.727300E+01	  0.083326660	2.258900E+01	  0.083326660	-3.867900E+01
318	  0.083527058	-4.793000E+00	  0.083527058	-9.756300E+01	  0.083527058	2.252900E+01	  0.083527058	-3.848800E+01
319	  0.083727457	-4.792000E+00	  0.083727457	-9.789200E+01	  0.083727457	2.242600E+01	  0.083727457	-3.829100E+01
320	  0.083927862	-4.787000E+00	  0.083927862	-9.823100E+01	  0.083927862	2.230700E+01	  0.083927862	-3.809500E+01
321	  0.084128261	-4.787000E+00	  0.084128261	-9.853500E+01	  0.084128261	2.221500E+01	  0.084128261	-3.791300E+01
322	  0.084328659	-4.779000E+00	  0.084328659	-9.883200E+01	  0.084328659	2.209800E+01	  0.084328659	-3.774900E+01
323	  0.084529065	-4.775000E+00	  0.084529065	-9.910300E+01	  0.084529065	2.200500E+01	  0.084529065	-3.759400E+01
324	  0.084729463	-4.772000E+00	  0.084729463	-9.938800E+01	  0.084729463	2.190900E+01	  0.084729463	-3.743000E+01
325	  0.084929861	-4.762000E+00	  0.084929861	-9.964600E+01	  0.084929861	2.179700E+01	  0.084929861	-3.729500E+01
326	  0.085130267	-4.755000E+00	  0.085130267	-9.986100E+01	  0.085130267	2.170900E+01	  0.085130267	-3.718000E+01
327	  0.085330658	-4.753000E+00	  0.085330658	-1.001120E+02	  0.085330658	2.163100E+01	  0.085330658	-3.703400E+01
328	  0.085531056	-4.748000E+00	  0.085531056	-1.003550E+02	  0.085531056	2.154400E+01	  0.085531056	-3.689900E+01
329	  0.085731462	-4.746000E+00	  0.085731462	-1.005760E+02	  0.085731462	2.147300E+01	  0.085731462	-3.677300E+01
330	  0.085931860	-4.744000E+00	  0.085931860	-1.007670E+02	  0.085931860	2.141200E+01	  0.085931860	-3.666400E+01
331	  0.086132258	-4.740000E+00	  0.086132258	-1.010090E+02	  0.086132258	2.133200E+01	  0.086132258	-3.652700E+01
332	  0.086332664	-4.739000E+00	  0.086332664	-1.012250E+02	  0.086332664	2.126900E+01	  0.086332664	-3.640200E+01
333	  0.086533062	-4.738000E+00	  0.086533062	-1.014580E+02	  0.086533062	2.120200E+01	  0.086533062	-3.626700E+01
334	  0.086733460	-4.732000E+00	  0.086733460	-1.016550E+02	  0.086733460	2.112900E+01	  0.086733460	-3.616000E+01
335	  0.086933866	-4.738000E+00	  0.086933866	-1.018490E+02	  0.086933866	2.110000E+01	  0.086933866	-3.603700E+01
336	  0.087134264	-4.731000E+00	  0.087134264	-1.020410E+02	  0.087134264	2.102200E+01	  0.087134264	-3.593600E+01
337	  0.087334670	-4.737000E+00	  0.087334670	-1.022200E+02	  0.087334670	2.099600E+01	  0.087334670	-3.582200E+01
338	  0.087535068	-4.739000E+00	  0.087535068	-1.024500E+02	  0.087535068	2.094400E+01	  0.087535068	-3.568500E+01
339	  0.087735467	-4.750000E+00	  0.087735467	-1.026350E+02	  0.087735467	2.093700E+01	  0.087735467	-3.555900E+01
340	  0.087935872	-4.755000E+00	  0.087935872	-1.028560E+02	  0.087935872	2.090000E+01	  0.087935872	-3.542100E+01
341	  0.088136271	-4.764000E+00	  0.088136271	-1.030810E+02	  0.088136271	2.087600E+01	  0.088136271	-3.527600E+01
342	  0.088336669	-4.771000E+00	  0.088336669	-1.033140E+02	  0.088336669	2.084400E+01	  0.088336669	-3.513000E+01
343	  0.088537075	-4.778000E+00	  0.088537075	-1.035490E+02	  0.088537075	2.080900E+01	  0.088537075	-3.498400E+01
344	  0.088737473	-4.791000E+00	  0.088737473	-1.038090E+02	  0.088737473	2.079400E+01	  0.088737473	-3.481200E+01
345	  0.088937871	-4.787000E+00	  0.088937871	-1.041020E+02	  0.088937871	2.070600E+01	  0.088937871	-3.465100E+01
346	  0.089138277	-4.797000E+00	  0.089138277	-1.043880E+02	  0.089138277	2.067000E+01	  0.089138277	-3.447200E+01
347	  0.089338675	-4.797000E+00	  0.089338675	-1.046660E+02	  0.089338675	2.060100E+01	  0.089338675	-3.431500E+01
348	  0.089539073	-4.797000E+00	  0.089539073	-1.049270E+02	  0.089539073	2.053800E+01	  0.089539073	-3.416600E+01
349	  0.089739479	-4.800000E+00	  0.089739479	-1.052150E+02	  0.089739479	2.048000E+01	  0.089739479	-3.399800E+01
350	  0.089939877	-4.795000E+00	  0.089939877	-1.054680E+02	  0.089939877	2.039700E+01	  0.089939877	-3.386400E+01
351	  0.090140276	-4.797000E+00	  0.090140276	-1.057360E+02	  0.090140276	2.034100E+01	  0.090140276	-3.371000E+01
352	  0.090340681	-4.796000E+00	  0.090340681	-1.059800E+02	  0.090340681	2.028200E+01	  0.090340681	-3.357300E+01
353	  0.090541080	-4.793000E+00	  0.090541080	-1.062420E+02	  0.090541080	2.020800E+01	  0.090541080	-3.343100E+01
354	  0.090741485	-4.791000E+00	  0.090741485	-1.065030E+02	  0.090741485	2.013700E+01	  0.090741485	-3.328900E+01
355	  0.090941884	-4.798000E+00	  0.090941884	-1.067610E+02	  0.090941884	2.010500E+01	  0.090941884	-3.313300E+01
356	  0.091142282	-4.793000E+00	  0.091142282	-1.069960E+02	  0.091142282	2.003000E+01	  0.091142282	-3.301100E+01
357	  0.091342688	-4.797000E+00	  0.091342688	-1.072680E+02	  0.091342688	1.998400E+01	  0.091342688	-3.285300E+01
358	  0.091543086	-4.791000E+00	  0.091543086	-1.075480E+02	  0.091543086	1.989600E+01	  0.091543086	-3.270700E+01
359	  0.091743484	-4.785000E+00	  0.091743484	-1.077820E+02	  0.091743484	1.982400E+01	  0.091743484	-3.258600E+01
360	  0.091943890	-4.784000E+00	  0.091943890	-1.080820E+02	  0.091943890	1.975100E+01	  0.091943890	-3.242300E+01
361	  0.092144288	-4.776000E+00	  0.092144288	-1.083240E+02	  0.092144288	1.966800E+01	  0.092144288	-3.230100E+01
362	  0.092344686	-4.776000E+00	  0.092344686	-1.085410E+02	  0.092344686	1.962200E+01	  0.092344686	-3.218000E+01
363	  0.092545092	-4.769000E+00	  0.092545092	-1.087850E+02	  0.092545092	1.954100E+01	  0.092545092	-3.205700E+01
364	  0.092745490	-4.769000E+00	  0.092745490	-1.090110E+02	  0.092745490	1.949200E+01	  0.092745490	-3.193300E+01
365	  0.092945889	-4.765000E+00	  0.092945889	-1.092330E+02	  0.092945889	1.943000E+01	  0.092945889	-3.181700E+01
366	  0.093146294	-4.766000E+00	  0.093146294	-1.094450E+02	  0.093146294	1.938700E+01	  0.093146294	-3.170000E+01
367	  0.093346693	-4.763000E+00	  0.093346693	-1.096450E+02	  0.093346693	1.933300E+01	  0.093346693	-3.159500E+01
368	  0.093547091	-4.768000E+00	  0.093547091	-1.098690E+02	  0.093547091	1.930400E+01	  0.093547091	-3.146600E+01
369	  0.093747497	-4.765000E+00	  0.093747497	-1.100680E+02	  0.093747497	1.925200E+01	  0.093747497	-3.136200E+01
370	  0.093947895	-4.772000E+00	  0.093947895	-1.102920E+02	  0.093947895	1.923100E+01	  0.093947895	-3.123000E+01
371	  0.094148301	-4.771000E+00	  0.094148301	-1.104780E+02	  0.094148301	1.918900E+01	  0.094148301	-3.113100E+01
372	  0.094348699	-4.770000E+00	  0.094348699	-1.106930E+02	  0.094348699	1.914000E+01	  0.094348699	-3.101600E+01
373	  0.094549097	-4.773000E+00	  0.094549097	-1.109390E+02	  0.094549097	1.909800E+01	  0.094549097	-3.088000E+01
374	  0.094749503	-4.775000E+00	  0.094749503	-1.111260E+02	  0.094749503	1.906600E+01	  0.094749503	-3.077700E+01
375	  0.094949901	-4.776000E+00	  0.094949901	-1.113360E+02	  0.094949901	1.902900E+01	  0.094949901	-3.066200E+01
376	  0.095150299	-4.779000E+00	  0.095150299	-1.115480E+02	  0.095150299	1.899500E+01	  0.095150299	-3.054400E+01
377	  0.095350705	-4.784000E+00	  0.095350705	-1.117390E+02	  0.095350705	1.897500E+01	  0.095350705	-3.043500E+01
378	  0.095551103	-4.786000E+00	  0.095551103	-1.119320E+02	  0.095551103	1.894300E+01	  0.095551103	-3.032900E+01
379	  0.095751502	-4.795000E+00	  0.095751502	-1.121550E+02	  0.095751502	1.893000E+01	  0.095751502	-3.019800E+01
380	  0.095951907	-4.800000E+00	  0.095951907	-1.123680E+02	  0.095951907	1.890400E+01	  0.095951907	-3.007900E+01
381	  0.096152306	-4.810000E+00	  0.096152306	-1.125870E+02	  0.096152306	1.889800E+01	  0.096152306	-2.994900E+01
382	  0.096352704	-4.823000E+00	  0.096352704	-1.128380E+02	  0.096352704	1.889300E+01	  0.096352704	-2.979900E+01
383	  0.096553110	-4.834000E+00	  0.096553110	-1.131020E+02	  0.096553110	1.887900E+01	  0.096553110	-2.964500E+01
384	  0.096753508	-4.844000E+00	  0.096753508	-1.133710E+02	  0.096753508	1.886200E+01	  0.096753508	-2.949100E+01
385	  0.096953906	-4.847000E+00	  0.096953906	-1.136860E+02	  0.096953906	1.881100E+01	  0.096953906	-2.932100E+01
386	  0.097154312	-4.859000E+00	  0.097154312	-1.139820E+02	  0.097154312	1.879500E+01	  0.097154312	-2.915200E+01
387	  0.097354710	-4.862000E+00	  0.097354710	-1.143080E+02	  0.097354710	1.874500E+01	  0.097354710	-2.897700E+01
388	  0.097555116	-4.866000E+00	  0.097555116	-1.146130E+02	  0.097555116	1.870200E+01	  0.097555116	-2.881300E+01
389	  0.097755514	-4.871000E+00	  0.097755514	-1.149450E+02	  0.097755514	1.865600E+01	  0.097755514	-2.863500E+01
390	  0.097955912	-4.874000E+00	  0.097955912	-1.152740E+02	  0.097955912	1.860400E+01	  0.097955912	-2.846100E+01
391	  0.098156318	-4.870000E+00	  0.098156318	-1.155870E+02	  0.098156318	1.853300E+01	  0.098156318	-2.830400E+01
392	  0.098356716	-4.870000E+00	  0.098356716	-1.159320E+02	  0.098356716	1.847000E+01	  0.098356716	-2.812600E+01
393	  0.098557115	-4.864000E+00	  0.098557115	-1.162590E+02	  0.098557115	1.839000E+01	  0.098557115	-2.796600E+01
394	  0.098757520	-4.857000E+00	  0.098757520	-1.165950E+02	  0.098757520	1.830600E+01	  0.098757520	-2.780100E+01
395	  0.098957919	-4.858000E+00	  0.098957919	-1.168820E+02	  0.098957919	1.825800E+01	  0.098957919	-2.765300E+01
396	  0.099158317	-4.849000E+00	  0.099158317	-1.171910E+02	  0.099158317	1.817400E+01	  0.099158317	-2.750600E+01
397	  0.099358723	-4.840000E+00	  0.099358723	-1.174530E+02	  0.099358723	1.810100E+01	  0.099358723	-2.738100E+01
398	  0.099559121	-4.828000E+00	  0.099559121	-1.177350E+02	  0.099559121	1.801000E+01	  0.099559121	-2.725200E+01
399	  0.099759519	-4.819000E+00	  0.099759519	-1.179890E+02	  0.099759519	1.793600E+01	  0.099759519	-2.713300E+01
400	  0.099959925	-4.808000E+00	  0.099959925	-1.182180E+02	  0.099959925	1.786100E+01	  0.099959925	-2.702900E+01
401	  0.100160323	-4.796000E+00	  0.100160323	-1.184140E+02	  0.100160323	1.778900E+01	  0.100160323	-2.694200E+01
402	  0.100360721	-4.787000E+00	  0.100360721	-1.186150E+02	  0.100360721	1.772600E+01	  0.100360721	-2.684900E+01
403	  0.100561127	-4.770000E+00	  0.100561127	-1.188040E+02	  0.100561127	1.763800E+01	  0.100561127	-2.677200E+01
404	  0.100761525	-4.772000E+00	  0.100761525	-1.189610E+02	  0.100761525	1.761900E+01	  0.100761525	-2.669000E+01
405	  0.100961931	-4.762000E+00	  0.100961931	-1.191260E+02	  0.100961931	1.755700E+01	  0.100961931	-2.661800E+01
406	  0.101162329	-4.763000E+00	  0.101162329	-1.192310E+02	  0.101162329	1.754400E+01	  0.101162329	-2.656400E+01
407	  0.101362728	-4.768000E+00	  0.101362728	-1.193980E+02	  0.101362728	1.753300E+01	  0.101362728	-2.647400E+01
408	  0.101563133	-4.768000E+00	  0.101563133	-1.195410E+02	  0.101563133	1.751000E+01	  0.101563133	-2.640200E+01
409	  0.101763532	-4.769000E+00	  0.101763532	-1.196890E+02	  0.101763532	1.749000E+01	  0.101763532	-2.632600E+01
410	  0.101963930	-4.776000E+00	  0.101963930	-1.198590E+02	  0.101963930	1.748600E+01	  0.101963930	-2.623300E+01
411	  0.102164336	-4.784000E+00	  0.102164336	-1.200000E+02	  0.102164336	1.748900E+01	  0.102164336	-2.615400E+01
412	  0.102364734	-4.795000E+00	  0.102364734	-1.201880E+02	  0.102364734	1.749500E+01	  0.102364734	-2.604800E+01
413	  0.102565132	-4.803000E+00	  0.102565132	-1.203860E+02	  0.102565132	1.748900E+01	  0.102565132	-2.594100E+01
414	  0.102765530	-4.819000E+00	  0.102765530	-1.205780E+02	  0.102765530	1.751400E+01	  0.102765530	-2.582700E+01
415	  0.102965929	-4.820000E+00	  0.102965929	-1.208540E+02	  0.102965929	1.747400E+01	  0.102965929	-2.568900E+01
416	  0.103166327	-4.835000E+00	  0.103166327	-1.210780E+02	  0.103166327	1.748600E+01	  0.103166327	-2.556200E+01
417	  0.103366733	-4.842000E+00	  0.103366733	-1.213270E+02	  0.103366733	1.747200E+01	  0.103366733	-2.543100E+01
418	  0.103567131	-4.856000E+00	  0.103567131	-1.216160E+02	  0.103567131	1.747300E+01	  0.103567131	-2.527400E+01
419	  0.103767529	-4.859000E+00	  0.103767529	-1.219190E+02	  0.103767529	1.743400E+01	  0.103767529	-2.512200E+01
420	  0.103967935	-4.867000E+00	  0.103967935	-1.221780E+02	  0.103967935	1.742200E+01	  0.103967935	-2.498600E+01
421	  0.104168333	-4.869000E+00	  0.104168333	-1.225050E+02	  0.104168333	1.738000E+01	  0.104168333	-2.482300E+01
422	  0.104368731	-4.876000E+00	  0.104368731	-1.227950E+02	  0.104368731	1.735900E+01	  0.104368731	-2.467400E+01
423	  0.104569137	-4.880000E+00	  0.104569137	-1.231410E+02	  0.104569137	1.732100E+01	  0.104569137	-2.450000E+01
424	  0.104769535	-4.882000E+00	  0.104769535	-1.234200E+02	  0.104769535	1.728300E+01	  0.104769535	-2.436300E+01
425	  0.104969934	-4.886000E+00	  0.104969934	-1.237150E+02	  0.104969934	1.725400E+01	  0.104969934	-2.421500E+01
426	  0.105170339	-4.875000E+00	  0.105170339	-1.240240E+02	  0.105170339	1.717300E+01	  0.105170339	-2.407500E+01
427	  0.105370738	-4.878000E+00	  0.105370738	-1.243200E+02	  0.105370738	1.714300E+01	  0.105370738	-2.392800E+01
428	  0.105571143	-4.869000E+00	  0.105571143	-1.246070E+02	  0.105571143	1.707100E+01	  0.105571143	-2.379800E+01
429	  0.105771542	-4.867000E+00	  0.105771542	-1.249050E+02	  0.105771542	1.702400E+01	  0.105771542	-2.365500E+01
430	  0.105971940	-4.858000E+00	  0.105971940	-1.251700E+02	  0.105971940	1.695800E+01	  0.105971940	-2.353500E+01
431	  0.106172346	-4.848000E+00	  0.106172346	-1.253640E+02	  0.106172346	1.689900E+01	  0.106172346	-2.345100E+01
432	  0.106372744	-4.844000E+00	  0.106372744	-1.256110E+02	  0.106372744	1.685200E+01	  0.106372744	-2.333600E+01
433	  0.106573142	-4.836000E+00	  0.106573142	-1.258300E+02	  0.106573142	1.679700E+01	  0.106573142	-2.323700E+01
434	  0.106773548	-4.845000E+00	  0.106773548	-1.260870E+02	  0.106773548	1.679100E+01	  0.106773548	-2.310500E+01
435	  0.106973946	-4.838000E+00	  0.106973946	-1.262770E+02	  0.106973946	1.674400E+01	  0.106973946	-2.302100E+01
436	  0.107174344	-4.841000E+00	  0.107174344	-1.264740E+02	  0.107174344	1.672700E+01	  0.107174344	-2.292300E+01
437	  0.107374750	-4.840000E+00	  0.107374750	-1.266970E+02	  0.107374750	1.669400E+01	  0.107374750	-2.281800E+01
438	  0.107575148	-4.835000E+00	  0.107575148	-1.269220E+02	  0.107575148	1.664700E+01	  0.107575148	-2.271400E+01
439	  0.107775547	-4.837000E+00	  0.107775547	-1.271430E+02	  0.107775547	1.662300E+01	  0.107775547	-2.260800E+01
440	  0.107975952	-4.849000E+00	  0.107975952	-1.273480E+02	  0.107975952	1.663400E+01	  0.107975952	-2.249900E+01
441	  0.108176351	-4.843000E+00	  0.108176351	-1.275820E+02	  0.108176351	1.658800E+01	  0.108176351	-2.239300E+01
442	  0.108376749	-4.850000E+00	  0.108376749	-1.278200E+02	  0.108376749	1.657800E+01	  0.108376749	-2.227300E+01
443	  0.108577155	-4.853000E+00	  0.108577155	-1.280210E+02	  0.108577155	1.656100E+01	  0.108577155	-2.217500E+01
444	  0.108777553	-4.859000E+00	  0.108777553	-1.283370E+02	  0.108777553	1.654100E+01	  0.108777553	-2.202100E+01
445	  0.108977959	-4.859000E+00	  0.108977959	-1.285540E+02	  0.108977959	1.651300E+01	  0.108977959	-2.191800E+01
446	  0.109178357	-4.859000E+00	  0.109178357	-1.288240E+02	  0.109178357	1.647700E+01	  0.109178357	-2.179100E+01
447	  0.109378755	-4.861000E+00	  0.109378755	-1.290700E+02	  0.109378755	1.645300E+01	  0.109378755	-2.167300E+01
448	  0.109579161	-4.865000E+00	  0.109579161	-1.293280E+02	  0.109579161	1.643300E+01	  0.109579161	-2.154900E+01
449	  0.109779559	-4.872000E+00	  0.109779559	-1.296110E+02	  0.109779559	1.642100E+01	  0.109779559	-2.141000E+01
450	  0.109979957	-4.876000E+00	  0.109979957	-1.298460E+02	  0.109979957	1.640500E+01	  0.109979957	-2.129600E+01
451	  0.110180363	-4.861000E+00	  0.110180363	-1.300970E+02	  0.110180363	1.632800E+01	  0.110180363	-2.119100E+01
452	  0.110380761	-4.861000E+00	  0.110380761	-1.302850E+02	  0.110380761	1.630400E+01	  0.110380761	-2.110300E+01
453	  0.110581160	-4.861000E+00	  0.110581160	-1.305950E+02	  0.110581160	1.626600E+01	  0.110581160	-2.095900E+01
454	  0.110781565	-4.860000E+00	  0.110781565	-1.308170E+02	  0.110781565	1.623700E+01	  0.110781565	-2.085600E+01
455	  0.110981964	-4.858000E+00	  0.110981964	-1.310710E+02	  0.110981964	1.620200E+01	  0.110981964	-2.073800E+01
456	  0.111182362	-4.857000E+00	  0.111182362	-1.313200E+02	  0.111182362	1.617100E+01	  0.111182362	-2.062300E+01
457	  0.111382768	-4.859000E+00	  0.111382768	-1.314990E+02	  0.111382768	1.615500E+01	  0.111382768	-2.053900E+01
458	  0.111583166	-4.856000E+00	  0.111583166	-1.317230E+02	  0.111583166	1.611900E+01	  0.111583166	-2.043800E+01
459	  0.111783572	-4.854000E+00	  0.111783572	-1.319670E+02	  0.111783572	1.608500E+01	  0.111783572	-2.032500E+01
460	  0.111983970	-4.858000E+00	  0.111983970	-1.321580E+02	  0.111983970	1.607800E+01	  0.111983970	-2.023400E+01
461	  0.112184368	-4.857000E+00	  0.112184368	-1.324030E+02	  0.112184368	1.604700E+01	  0.112184368	-2.012100E+01
462	  0.112384774	-4.866000E+00	  0.112384774	-1.326230E+02	  0.112384774	1.604900E+01	  0.112384774	-2.001300E+01
463	  0.112585172	-4.870000E+00	  0.112585172	-1.328760E+02	  0.112585172	1.603200E+01	  0.112585172	-1.989400E+01
464	  0.112785570	-4.873000E+00	  0.112785570	-1.330760E+02	  0.112785570	1.601900E+01	  0.112785570	-1.980000E+01
465	  0.112985976	-4.874000E+00	  0.112985976	-1.332970E+02	  0.112985976	1.599700E+01	  0.112985976	-1.969700E+01
466	  0.113186374	-4.881000E+00	  0.113186374	-1.335740E+02	  0.113186374	1.598900E+01	  0.113186374	-1.956500E+01
467	  0.113386773	-4.890000E+00	  0.113386773	-1.338160E+02	  0.113386773	1.598800E+01	  0.113386773	-1.944800E+01
468	  0.113587178	-4.895000E+00	  0.113587178	-1.340800E+02	  0.113587178	1.597600E+01	  0.113587178	-1.932300E+01
469	  0.113787577	-4.897000E+00	  0.113787577	-1.343590E+02	  0.113787577	1.595100E+01	  0.113787577	-1.919500E+01
470	  0.113987975	-4.904000E+00	  0.113987975	-1.346300E+02	  0.113987975	1.594400E+01	  0.113987975	-1.906600E+01
471	  0.114188381	-4.905000E+00	  0.114188381	-1.349100E+02	  0.114188381	1.591800E+01	  0.114188381	-1.893800E+01
472	  0.114388779	-4.906000E+00	  0.114388779	-1.351680E+02	  0.114388779	1.589500E+01	  0.114388779	-1.882000E+01
473	  0.114589177	-4.905000E+00	  0.114589177	-1.354430E+02	  0.114589177	1.586300E+01	  0.114589177	-1.869600E+01
474	  0.114789583	-4.906000E+00	  0.114789583	-1.357280E+02	  0.114789583	1.583400E+01	  0.114789583	-1.856600E+01
475	  0.114989981	-4.908000E+00	  0.114989981	-1.359910E+02	  0.114989981	1.581400E+01	  0.114989981	-1.844600E+01
476	  0.115190387	-4.901000E+00	  0.115190387	-1.362550E+02	  0.115190387	1.576800E+01	  0.115190387	-1.833100E+01
477	  0.115390785	-4.900000E+00	  0.115390785	-1.364590E+02	  0.115390785	1.574300E+01	  0.115390785	-1.824000E+01
478	  0.115591183	-4.895000E+00	  0.115591183	-1.367520E+02	  0.115591183	1.569900E+01	  0.115591183	-1.811100E+01
479	  0.115791589	-4.901000E+00	  0.115791589	-1.369890E+02	  0.115791589	1.569400E+01	  0.115791589	-1.800100E+01
480	  0.115991987	-4.892000E+00	  0.115991987	-1.372440E+02	  0.115991987	1.564300E+01	  0.115991987	-1.789100E+01
481	  0.116192386	-4.894000E+00	  0.116192386	-1.374740E+02	  0.116192386	1.562700E+01	  0.116192386	-1.778700E+01
482	  0.116392791	-4.886000E+00	  0.116392791	-1.376960E+02	  0.116392791	1.558000E+01	  0.116392791	-1.769200E+01
483	  0.116593190	-4.885000E+00	  0.116593190	-1.379360E+02	  0.116593190	1.555500E+01	  0.116593190	-1.758500E+01
484	  0.116793588	-4.888000E+00	  0.116793588	-1.381750E+02	  0.116793588	1.554100E+01	  0.116793588	-1.747600E+01
485	  0.116993994	-4.892000E+00	  0.116993994	-1.383890E+02	  0.116993994	1.553200E+01	  0.116993994	-1.737800E+01
486	  0.117194392	-4.892000E+00	  0.117194392	-1.386200E+02	  0.117194392	1.551100E+01	  0.117194392	-1.727500E+01
487	  0.117394790	-4.896000E+00	  0.117394790	-1.388280E+02	  0.117394790	1.550400E+01	  0.117394790	-1.718000E+01
488	  0.117595196	-4.898000E+00	  0.117595196	-1.390750E+02	  0.117595196	1.548600E+01	  0.117595196	-1.706900E+01
489	  0.117795594	-4.903000E+00	  0.117795594	-1.393360E+02	  0.117795594	1.547600E+01	  0.117795594	-1.695000E+01
490	  0.117995992	-4.908000E+00	  0.117995992	-1.395480E+02	  0.117995992	1.547100E+01	  0.117995992	-1.685300E+01
491	  0.118196398	-4.909000E+00	  0.118196398	-1.397950E+02	  0.118196398	1.545400E+01	  0.118196398	-1.674200E+01
492	  0.118396796	-4.917000E+00	  0.118396796	-1.400880E+02	  0.118396796	1.545000E+01	  0.118396796	-1.660700E+01
493	  0.118597202	-4.924000E+00	  0.118597202	-1.403680E+02	  0.118597202	1.544400E+01	  0.118597202	-1.648000E+01
494	  0.118797600	-4.927000E+00	  0.118797600	-1.406550E+02	  0.118797600	1.542700E+01	  0.118797600	-1.635100E+01
495	  0.118997999	-4.933000E+00	  0.118997999	-1.409230E+02	  0.118997999	1.542100E+01	  0.118997999	-1.622900E+01
496	  0.119198404	-4.932000E+00	  0.119198404	-1.412760E+02	  0.119198404	1.539000E+01	  0.119198404	-1.607400E+01
497	  0.119398803	-4.926000E+00	  0.119398803	-1.415210E+02	  0.119398803	1.534900E+01	  0.119398803	-1.597000E+01
498	  0.119599201	-4.933000E+00	  0.119599201	-1.418370E+02	  0.119599201	1.534500E+01	  0.119599201	-1.582700E+01
499	  0.119799607	-4.933000E+00	  0.119799607	-1.421120E+02	  0.119799607	1.532000E+01	  0.119799607	-1.570700E+01
500	  0.120000005	-4.923000E+00	  0.120000005	-1.424070E+02	  0.120000005	1.526600E+01	  0.120000005	-1.558300E+01
