! Anritsu VNA Master:             	Model: MS2036C/10/77
! SN:             	1601066
! /card0/usr/18may27.balun/5b.m5_1.txt
! Existing Calibration Information:
! TYPE:             	Current Settings	Active Cal Settings
! TIME:             	05/27/2018 04:15:22 PM	05/27/2018 03:52:12 PM
! INTERNAL TEMP:    	51.8 C	52.5 C
! # POINTS:         	500	500
! START FREQ:       	20.000 MHz	20.000 MHz
! STOP FREQ:        	120.000 MHz	120.000 MHz
! SOURCE POWER:     	High	High
! IFBW:             	50 Hz	50 Hz
! AVG FACTOR:       	  1 	  1 
! REF PLANE 1:      	0 mm	0 mm
! REF PLANE 2:      	0 mm	0 mm
! CAL TYPE:         	Full S11	Full S11
! CAL METHOD:       	SOLT	SOLT
! CAL LINE TYPE:    	Coax	Coax
! DUT PORT 1:       	K-Conn(M)	K-Conn(M)
! DUT PORT 2:       	K-Conn(M)	K-Conn(M)
! CAL STATUS:       	OK: Accuracy High	--
! PROP-V:       	0.700
! CABLE LOSS:       	0.000 dB/m
! REF IMPEDANCE:       	50.0
! Trace Specific Parameters:	TR1	TR2	TR3	TR4
! TRACE.#.Y (GRAPH TYPE)	LOG MAG	PHASE	REAL IMPEDANCE	IMAGINARY IMPEDANCE
! TRACE.#.X 	FREQ.GHZ	FREQ.GHZ	FREQ.GHZ	FREQ.GHZ
! S-PARAMETER	S11	S11	S11	S11
! SMOOTH/APERTURE %	0	0	0	0
! WINDOW	NSL	NSL	NSL	NSL
! GATING	OFF	OFF	OFF	OFF
! FGTD	OFF	OFF	OFF	OFF
Marker Information per Trace:	TR1	TR2	TR3	TR4
!MK1	--	--	--	"MK1 TR4:  70.100 200 MHz,Z:(17.293 ohm, -2.569 ohm)"
!MK2	--	--	--	--
!MK3	--	--	--	--
!MK4	--	--	--	--
!MK5	--	--	--	--
!MK6	--	--	--	--
!MK7	--	--	--	--
!MK8	--	--	--	--
PNT	TR1.FREQ.GHZ	TR1.LOG MAG.dB	TR2.FREQ.GHZ	TR2.PHASE.deg	TR3.FREQ.GHZ	TR3.REAL IMPEDANCE.ohm	TR4.FREQ.GHZ	TR4.IMAGINARY IMPEDANCE.ohm
1	  0.020000000	-7.150000E-01	  0.020000000	-1.249880E+02	  0.020000000	2.615000E+00	  0.020000000	-2.597800E+01
2	  0.020200402	-7.160000E-01	  0.020200402	-1.264480E+02	  0.020200402	2.585000E+00	  0.020200402	-2.517600E+01
3	  0.020400802	-7.170000E-01	  0.020400802	-1.278870E+02	  0.020400802	2.555000E+00	  0.020400802	-2.439500E+01
4	  0.020601204	-7.220000E-01	  0.020601204	-1.293210E+02	  0.020601204	2.543000E+00	  0.020601204	-2.362700E+01
5	  0.020801604	-7.300000E-01	  0.020801604	-1.307910E+02	  0.020801604	2.541000E+00	  0.020801604	-2.284700E+01
6	  0.021002004	-7.370000E-01	  0.021002004	-1.323000E+02	  0.021002004	2.536000E+00	  0.021002004	-2.205600E+01
7	  0.021202406	-7.450000E-01	  0.021202406	-1.338250E+02	  0.021202406	2.533000E+00	  0.021202406	-2.126700E+01
8	  0.021402806	-7.540000E-01	  0.021402806	-1.353520E+02	  0.021402806	2.536000E+00	  0.021402806	-2.048500E+01
9	  0.021603208	-7.600000E-01	  0.021603208	-1.368860E+02	  0.021603208	2.528000E+00	  0.021603208	-1.970800E+01
10	  0.021803608	-7.670000E-01	  0.021803608	-1.384220E+02	  0.021803608	2.525000E+00	  0.021803608	-1.893900E+01
11	  0.022004008	-7.730000E-01	  0.022004008	-1.399920E+02	  0.022004008	2.518000E+00	  0.022004008	-1.816100E+01
12	  0.022204408	-7.780000E-01	  0.022204408	-1.415800E+02	  0.022204408	2.510000E+00	  0.022204408	-1.738200E+01
13	  0.022404809	-7.790000E-01	  0.022404809	-1.431820E+02	  0.022404809	2.488000E+00	  0.022404809	-1.660400E+01
14	  0.022605211	-7.840000E-01	  0.022605211	-1.447450E+02	  0.022605211	2.484000E+00	  0.022605211	-1.585100E+01
15	  0.022805611	-7.870000E-01	  0.022805611	-1.463080E+02	  0.022805611	2.472000E+00	  0.022805611	-1.510500E+01
16	  0.023006011	-7.880000E-01	  0.023006011	-1.478770E+02	  0.023006011	2.456000E+00	  0.023006011	-1.436200E+01
17	  0.023206413	-7.950000E-01	  0.023206413	-1.494540E+02	  0.023206413	2.459000E+00	  0.023206413	-1.362200E+01
18	  0.023406813	-8.030000E-01	  0.023406813	-1.510510E+02	  0.023406813	2.465000E+00	  0.023406813	-1.287700E+01
19	  0.023607215	-8.100000E-01	  0.023607215	-1.526570E+02	  0.023607215	2.468000E+00	  0.023607215	-1.213300E+01
20	  0.023807615	-8.200000E-01	  0.023807615	-1.542460E+02	  0.023807615	2.483000E+00	  0.023807615	-1.140300E+01
21	  0.024008015	-8.280000E-01	  0.024008015	-1.558530E+02	  0.024008015	2.492000E+00	  0.024008015	-1.066900E+01
22	  0.024208417	-8.400000E-01	  0.024208417	-1.574510E+02	  0.024208417	2.512000E+00	  0.024208417	-9.943000E+00
23	  0.024408817	-8.520000E-01	  0.024408817	-1.590740E+02	  0.024408817	2.536000E+00	  0.024408817	-9.210000E+00
24	  0.024609219	-8.650000E-01	  0.024609219	-1.607180E+02	  0.024609219	2.561000E+00	  0.024609219	-8.471000E+00
25	  0.024809619	-8.750000E-01	  0.024809619	-1.623920E+02	  0.024809619	2.577000E+00	  0.024809619	-7.723000E+00
26	  0.025010020	-8.830000E-01	  0.025010020	-1.640670E+02	  0.025010020	2.590000E+00	  0.025010020	-6.978000E+00
27	  0.025210422	-8.930000E-01	  0.025210422	-1.657280E+02	  0.025210422	2.609000E+00	  0.025210422	-6.242000E+00
28	  0.025410822	-9.080000E-01	  0.025410822	-1.674160E+02	  0.025410822	2.644000E+00	  0.025410822	-5.497000E+00
29	  0.025611224	-9.190000E-01	  0.025611224	-1.690960E+02	  0.025611224	2.669000E+00	  0.025611224	-4.758000E+00
30	  0.025811624	-9.330000E-01	  0.025811624	-1.708130E+02	  0.025811624	2.700000E+00	  0.025811624	-4.005000E+00
31	  0.026012026	-9.470000E-01	  0.026012026	-1.725300E+02	  0.026012026	2.736000E+00	  0.026012026	-3.254000E+00
32	  0.026212426	-9.650000E-01	  0.026212426	-1.742680E+02	  0.026212426	2.781000E+00	  0.026212426	-2.495000E+00
33	  0.026412826	-9.820000E-01	  0.026412826	-1.760140E+02	  0.026412826	2.829000E+00	  0.026412826	-1.734000E+00
34	  0.026613226	-1.002000E+00	  0.026613226	-1.777720E+02	  0.026613226	2.883000E+00	  0.026613226	-9.680000E-01
35	  0.026813626	-1.020000E+00	  0.026813626	-1.795230E+02	  0.026813626	2.933000E+00	  0.026813626	-2.070000E-01
36	  0.027014028	-1.036000E+00	  0.027014028	1.787330E+02	  0.027014028	2.980000E+00	  0.027014028	5.500000E-01
37	  0.027214428	-1.050000E+00	  0.027214428	1.769810E+02	  0.027214428	3.022000E+00	  0.027214428	1.312000E+00
38	  0.027414829	-1.067000E+00	  0.027414829	1.752260E+02	  0.027414829	3.075000E+00	  0.027414829	2.076000E+00
39	  0.027615231	-1.085000E+00	  0.027615231	1.734670E+02	  0.027615231	3.130000E+00	  0.027615231	2.842000E+00
40	  0.027815631	-1.107000E+00	  0.027815631	1.717030E+02	  0.027815631	3.201000E+00	  0.027815631	3.611000E+00
41	  0.028016033	-1.127000E+00	  0.028016033	1.699190E+02	  0.028016033	3.265000E+00	  0.028016033	4.391000E+00
42	  0.028216433	-1.149000E+00	  0.028216433	1.681220E+02	  0.028216433	3.339000E+00	  0.028216433	5.178000E+00
43	  0.028416833	-1.171000E+00	  0.028416833	1.663350E+02	  0.028416833	3.415000E+00	  0.028416833	5.962000E+00
44	  0.028617235	-1.195000E+00	  0.028617235	1.645520E+02	  0.028617235	3.498000E+00	  0.028617235	6.748000E+00
45	  0.028817635	-1.223000E+00	  0.028817635	1.627410E+02	  0.028817635	3.596000E+00	  0.028817635	7.549000E+00
46	  0.029018037	-1.250000E+00	  0.029018037	1.609050E+02	  0.029018037	3.695000E+00	  0.029018037	8.364000E+00
47	  0.029218437	-1.277000E+00	  0.029218437	1.590490E+02	  0.029218437	3.794000E+00	  0.029218437	9.193000E+00
48	  0.029418837	-1.302000E+00	  0.029418837	1.571970E+02	  0.029418837	3.891000E+00	  0.029418837	1.002400E+01
49	  0.029619239	-1.326000E+00	  0.029619239	1.553450E+02	  0.029619239	3.990000E+00	  0.029619239	1.086000E+01
50	  0.029819639	-1.355000E+00	  0.029819639	1.534980E+02	  0.029819639	4.107000E+00	  0.029819639	1.169800E+01
51	  0.030020041	-1.384000E+00	  0.030020041	1.516490E+02	  0.030020041	4.227000E+00	  0.030020041	1.254300E+01
52	  0.030220442	-1.418000E+00	  0.030220442	1.497650E+02	  0.030220442	4.367000E+00	  0.030220442	1.341000E+01
53	  0.030420844	-1.456000E+00	  0.030420844	1.478630E+02	  0.030420844	4.527000E+00	  0.030420844	1.429200E+01
54	  0.030621244	-1.498000E+00	  0.030621244	1.458990E+02	  0.030621244	4.703000E+00	  0.030621244	1.521000E+01
55	  0.030821644	-1.536000E+00	  0.030821644	1.439040E+02	  0.030821644	4.875000E+00	  0.030821644	1.615100E+01
56	  0.031022044	-1.570000E+00	  0.031022044	1.418910E+02	  0.031022044	5.040000E+00	  0.031022044	1.711200E+01
57	  0.031222444	-1.595000E+00	  0.031222444	1.398730E+02	  0.031222444	5.185000E+00	  0.031222444	1.808700E+01
58	  0.031422846	-1.625000E+00	  0.031422846	1.378470E+02	  0.031422846	5.349000E+00	  0.031422846	1.907700E+01
59	  0.031623244	-1.648000E+00	  0.031623244	1.358550E+02	  0.031623244	5.499000E+00	  0.031623244	2.006300E+01
60	  0.031823646	-1.672000E+00	  0.031823646	1.338660E+02	  0.031823646	5.661000E+00	  0.031823646	2.106100E+01
61	  0.032024048	-1.698000E+00	  0.032024048	1.319160E+02	  0.032024048	5.832000E+00	  0.032024048	2.205100E+01
62	  0.032224450	-1.722000E+00	  0.032224450	1.299840E+02	  0.032224450	6.002000E+00	  0.032224450	2.304600E+01
63	  0.032424849	-1.751000E+00	  0.032424849	1.280810E+02	  0.032424849	6.201000E+00	  0.032424849	2.403900E+01
64	  0.032625251	-1.786000E+00	  0.032625251	1.261520E+02	  0.032625251	6.428000E+00	  0.032625251	2.505800E+01
65	  0.032825653	-1.826000E+00	  0.032825653	1.242370E+02	  0.032825653	6.683000E+00	  0.032825653	2.608200E+01
66	  0.033026051	-1.869000E+00	  0.033026051	1.222950E+02	  0.033026051	6.964000E+00	  0.033026051	2.713500E+01
67	  0.033226453	-1.915000E+00	  0.033226453	1.203650E+02	  0.033226453	7.267000E+00	  0.033226453	2.819700E+01
68	  0.033426855	-1.962000E+00	  0.033426855	1.183990E+02	  0.033426855	7.587000E+00	  0.033426855	2.929700E+01
69	  0.033627257	-2.008000E+00	  0.033627257	1.164070E+02	  0.033627257	7.925000E+00	  0.033627257	3.043100E+01
70	  0.033827655	-2.055000E+00	  0.033827655	1.143850E+02	  0.033827655	8.288000E+00	  0.033827655	3.160200E+01
71	  0.034028057	-2.103000E+00	  0.034028057	1.123500E+02	  0.034028057	8.674000E+00	  0.034028057	3.280200E+01
72	  0.034228459	-2.152000E+00	  0.034228459	1.102770E+02	  0.034228459	9.089000E+00	  0.034228459	3.404900E+01
73	  0.034428857	-2.201000E+00	  0.034428857	1.082260E+02	  0.034428857	9.523000E+00	  0.034428857	3.530700E+01
74	  0.034629259	-2.245000E+00	  0.034629259	1.061620E+02	  0.034629259	9.962000E+00	  0.034629259	3.660400E+01
75	  0.034829661	-2.287000E+00	  0.034829661	1.041080E+02	  0.034829661	1.041500E+01	  0.034829661	3.792400E+01
76	  0.035030060	-2.332000E+00	  0.035030060	1.020790E+02	  0.035030060	1.090800E+01	  0.035030060	3.925400E+01
77	  0.035230462	-2.380000E+00	  0.035230462	1.000670E+02	  0.035230462	1.144400E+01	  0.035230462	4.059800E+01
78	  0.035430863	-2.436000E+00	  0.035430863	9.804700E+01	  0.035430863	1.204800E+01	  0.035430863	4.196900E+01
79	  0.035631265	-2.496000E+00	  0.035631265	9.598100E+01	  0.035631265	1.271700E+01	  0.035631265	4.339900E+01
80	  0.035831664	-2.562000E+00	  0.035831664	9.387600E+01	  0.035831664	1.346400E+01	  0.035831664	4.488300E+01
81	  0.036032066	-2.623000E+00	  0.036032066	9.174800E+01	  0.036032066	1.424200E+01	  0.036032066	4.642600E+01
82	  0.036232468	-2.682000E+00	  0.036232468	8.953600E+01	  0.036232468	1.508500E+01	  0.036232468	4.807600E+01
83	  0.036432866	-2.737000E+00	  0.036432866	8.736700E+01	  0.036432866	1.595300E+01	  0.036432866	4.974100E+01
84	  0.036633268	-2.781000E+00	  0.036633268	8.515200E+01	  0.036633268	1.684000E+01	  0.036633268	5.150900E+01
85	  0.036833670	-2.824000E+00	  0.036833670	8.300700E+01	  0.036833670	1.776300E+01	  0.036833670	5.327200E+01
86	  0.037034072	-2.862000E+00	  0.037034072	8.088600E+01	  0.037034072	1.871700E+01	  0.037034072	5.507400E+01
87	  0.037234470	-2.899000E+00	  0.037234470	7.880500E+01	  0.037234470	1.972000E+01	  0.037234470	5.689500E+01
88	  0.037434869	-2.931000E+00	  0.037434869	7.678200E+01	  0.037434869	2.074900E+01	  0.037434869	5.872600E+01
89	  0.037635271	-2.963000E+00	  0.037635271	7.473500E+01	  0.037635271	2.186300E+01	  0.037635271	6.063600E+01
90	  0.037835669	-2.997000E+00	  0.037835669	7.267300E+01	  0.037835669	2.308700E+01	  0.037835669	6.261200E+01
91	  0.038036071	-3.045000E+00	  0.038036071	7.055700E+01	  0.038036071	2.453600E+01	  0.038036071	6.465400E+01
92	  0.038236473	-3.110000E+00	  0.038236473	6.846200E+01	  0.038236473	2.621500E+01	  0.038236473	6.666100E+01
93	  0.038436871	-3.183000E+00	  0.038436871	6.643700E+01	  0.038436871	2.804200E+01	  0.038436871	6.859300E+01
94	  0.038637273	-3.255000E+00	  0.038637273	6.443100E+01	  0.038637273	2.999900E+01	  0.038637273	7.053000E+01
95	  0.038837675	-3.332000E+00	  0.038837675	6.236700E+01	  0.038837675	3.218800E+01	  0.038837675	7.253300E+01
96	  0.039038073	-3.399000E+00	  0.039038073	6.029100E+01	  0.039038073	3.448700E+01	  0.039038073	7.462200E+01
97	  0.039238475	-3.465000E+00	  0.039238475	5.817400E+01	  0.039238475	3.701900E+01	  0.039238475	7.677600E+01
98	  0.039438877	-3.521000E+00	  0.039438877	5.607900E+01	  0.039438877	3.966100E+01	  0.039438877	7.898500E+01
99	  0.039639279	-3.576000E+00	  0.039639279	5.399600E+01	  0.039639279	4.251000E+01	  0.039639279	8.119700E+01
100	  0.039839678	-3.628000E+00	  0.039839678	5.191500E+01	  0.039839678	4.558100E+01	  0.039839678	8.342800E+01
101	  0.040040080	-3.682000E+00	  0.040040080	4.987900E+01	  0.040040080	4.887100E+01	  0.040040080	8.557200E+01
102	  0.040240481	-3.737000E+00	  0.040240481	4.783600E+01	  0.040240481	5.248000E+01	  0.040240481	8.765900E+01
103	  0.040440880	-3.799000E+00	  0.040440880	4.575000E+01	  0.040440880	5.651800E+01	  0.040440880	8.967100E+01
104	  0.040641282	-3.862000E+00	  0.040641282	4.363800E+01	  0.040641282	6.097500E+01	  0.040641282	9.156800E+01
105	  0.040841684	-3.926000E+00	  0.040841684	4.152700E+01	  0.040841684	6.580600E+01	  0.040841684	9.330300E+01
106	  0.041042086	-3.984000E+00	  0.041042086	3.938000E+01	  0.041042086	7.107800E+01	  0.041042086	9.494700E+01
107	  0.041242484	-4.040000E+00	  0.041242484	3.725400E+01	  0.041242484	7.672300E+01	  0.041242484	9.632700E+01
108	  0.041442886	-4.089000E+00	  0.041442886	3.512200E+01	  0.041442886	8.279000E+01	  0.041442886	9.751200E+01
109	  0.041643288	-4.141000E+00	  0.041643288	3.298300E+01	  0.041643288	8.935900E+01	  0.041643288	9.826700E+01
110	  0.041843686	-4.185000E+00	  0.041843686	3.087800E+01	  0.041843686	9.625600E+01	  0.041843686	9.866100E+01
111	  0.042044088	-4.227000E+00	  0.042044088	2.880800E+01	  0.042044088	1.034800E+02	  0.042044088	9.852000E+01
112	  0.042244490	-4.265000E+00	  0.042244490	2.676700E+01	  0.042244490	1.110100E+02	  0.042244490	9.783500E+01
113	  0.042444889	-4.304000E+00	  0.042444889	2.477200E+01	  0.042444889	1.187270E+02	  0.042444889	9.638700E+01
114	  0.042645290	-4.342000E+00	  0.042645290	2.279000E+01	  0.042645290	1.266690E+02	  0.042645290	9.418000E+01
115	  0.042845692	-4.388000E+00	  0.042845692	2.083600E+01	  0.042845692	1.346000E+02	  0.042845692	9.085100E+01
116	  0.043046094	-4.426000E+00	  0.043046094	1.889900E+01	  0.043046094	1.425430E+02	  0.043046094	8.679600E+01
117	  0.043246493	-4.468000E+00	  0.043246493	1.698300E+01	  0.043246493	1.502240E+02	  0.043246493	8.164700E+01
118	  0.043446895	-4.516000E+00	  0.043446895	1.507100E+01	  0.043446895	1.574580E+02	  0.043446895	7.530300E+01
119	  0.043647297	-4.563000E+00	  0.043647297	1.316500E+01	  0.043647297	1.641420E+02	  0.043647297	6.798800E+01
120	  0.043847695	-4.612000E+00	  0.043847695	1.126100E+01	  0.043847695	1.700480E+02	  0.043847695	5.969600E+01
121	  0.044048097	-4.663000E+00	  0.044048097	9.366000E+00	  0.044048097	1.749120E+02	  0.044048097	5.055400E+01
122	  0.044248499	-4.706000E+00	  0.044248499	7.442000E+00	  0.044248499	1.790170E+02	  0.044248499	4.077100E+01
123	  0.044448901	-4.751000E+00	  0.044448901	5.495000E+00	  0.044448901	1.818950E+02	  0.044448901	3.031100E+01
124	  0.044649299	-4.794000E+00	  0.044649299	3.592000E+00	  0.044649299	1.834280E+02	  0.044649299	1.979900E+01
125	  0.044849701	-4.843000E+00	  0.044849701	1.691000E+00	  0.044849701	1.834680E+02	  0.044849701	9.224000E+00
126	  0.045050103	-4.890000E+00	  0.045050103	-2.260000E-01	  0.045050103	1.822580E+02	  0.045050103	-1.213000E+00
127	  0.045250501	-4.938000E+00	  0.045250501	-2.141000E+00	  0.045250501	1.798440E+02	  0.045250501	-1.120800E+01
128	  0.045450903	-4.980000E+00	  0.045450903	-4.068000E+00	  0.045450903	1.765250E+02	  0.045450903	-2.069300E+01
129	  0.045651305	-5.018000E+00	  0.045651305	-6.000000E+00	  0.045651305	1.723510E+02	  0.045651305	-2.951300E+01
130	  0.045851704	-5.054000E+00	  0.045851704	-7.935000E+00	  0.045851704	1.674560E+02	  0.045851704	-3.757300E+01
131	  0.046052106	-5.090000E+00	  0.046052106	-9.886000E+00	  0.046052106	1.618800E+02	  0.046052106	-4.481500E+01
132	  0.046252504	-5.121000E+00	  0.046252504	-1.179200E+01	  0.046252504	1.560680E+02	  0.046252504	-5.108100E+01
133	  0.046452906	-5.152000E+00	  0.046452906	-1.369100E+01	  0.046452906	1.499600E+02	  0.046452906	-5.646000E+01
134	  0.046653304	-5.183000E+00	  0.046653304	-1.555200E+01	  0.046653304	1.438040E+02	  0.046653304	-6.092800E+01
135	  0.046853706	-5.210000E+00	  0.046853706	-1.741000E+01	  0.046853706	1.376550E+02	  0.046853706	-6.471200E+01
136	  0.047054108	-5.240000E+00	  0.047054108	-1.924900E+01	  0.047054108	1.315360E+02	  0.047054108	-6.769000E+01
137	  0.047254506	-5.267000E+00	  0.047254506	-2.107000E+01	  0.047254506	1.256190E+02	  0.047254506	-7.009800E+01
138	  0.047454908	-5.293000E+00	  0.047454908	-2.288300E+01	  0.047454908	1.198740E+02	  0.047454908	-7.195200E+01
139	  0.047655310	-5.316000E+00	  0.047655310	-2.466600E+01	  0.047655310	1.144170E+02	  0.047655310	-7.334200E+01
140	  0.047855709	-5.345000E+00	  0.047855709	-2.644400E+01	  0.047855709	1.091460E+02	  0.047855709	-7.420600E+01
141	  0.048056111	-5.369000E+00	  0.048056111	-2.818300E+01	  0.048056111	1.042300E+02	  0.048056111	-7.477500E+01
142	  0.048256513	-5.396000E+00	  0.048256513	-2.992300E+01	  0.048256513	9.952400E+01	  0.048256513	-7.499000E+01
143	  0.048456915	-5.423000E+00	  0.048456915	-3.168400E+01	  0.048456915	9.500200E+01	  0.048456915	-7.495200E+01
144	  0.048657313	-5.448000E+00	  0.048657313	-3.339400E+01	  0.048657313	9.083500E+01	  0.048657313	-7.470600E+01
145	  0.048857715	-5.476000E+00	  0.048857715	-3.513700E+01	  0.048857715	8.681700E+01	  0.048857715	-7.422900E+01
146	  0.049058117	-5.499000E+00	  0.049058117	-3.683500E+01	  0.049058117	8.311200E+01	  0.049058117	-7.367600E+01
147	  0.049258515	-5.527000E+00	  0.049258515	-3.848700E+01	  0.049258515	7.971000E+01	  0.049258515	-7.293500E+01
148	  0.049458917	-5.555000E+00	  0.049458917	-4.016000E+01	  0.049458917	7.645700E+01	  0.049458917	-7.208100E+01
149	  0.049659319	-5.585000E+00	  0.049659319	-4.184400E+01	  0.049659319	7.337400E+01	  0.049659319	-7.112000E+01
150	  0.049859721	-5.615000E+00	  0.049859721	-4.354700E+01	  0.049859721	7.043800E+01	  0.049859721	-7.007800E+01
151	  0.050060119	-5.649000E+00	  0.050060119	-4.527000E+01	  0.050060119	6.765000E+01	  0.050060119	-6.893500E+01
152	  0.050260521	-5.678000E+00	  0.050260521	-4.698600E+01	  0.050260521	6.502800E+01	  0.050260521	-6.779900E+01
153	  0.050460923	-5.703000E+00	  0.050460923	-4.871900E+01	  0.050460923	6.251900E+01	  0.050460923	-6.665900E+01
154	  0.050661322	-5.725000E+00	  0.050661322	-5.044900E+01	  0.050661322	6.015100E+01	  0.050661322	-6.551100E+01
155	  0.050861724	-5.742000E+00	  0.050861724	-5.219400E+01	  0.050861724	5.788000E+01	  0.050861724	-6.437800E+01
156	  0.051062126	-5.750000E+00	  0.051062126	-5.391900E+01	  0.051062126	5.572900E+01	  0.051062126	-6.329900E+01
157	  0.051262524	-5.764000E+00	  0.051262524	-5.559800E+01	  0.051262524	5.377000E+01	  0.051262524	-6.218300E+01
158	  0.051462926	-5.770000E+00	  0.051462926	-5.725600E+01	  0.051462926	5.190900E+01	  0.051462926	-6.112200E+01
159	  0.051663328	-5.781000E+00	  0.051663328	-5.887300E+01	  0.051663328	5.020700E+01	  0.051663328	-6.003900E+01
160	  0.051863730	-5.792000E+00	  0.051863730	-6.046600E+01	  0.051863730	4.861800E+01	  0.051863730	-5.896400E+01
161	  0.052064128	-5.804000E+00	  0.052064128	-6.205100E+01	  0.052064128	4.712100E+01	  0.052064128	-5.788500E+01
162	  0.052264530	-5.821000E+00	  0.052264530	-6.360900E+01	  0.052264530	4.574400E+01	  0.052264530	-5.679400E+01
163	  0.052464932	-5.829000E+00	  0.052464932	-6.516000E+01	  0.052464932	4.440400E+01	  0.052464932	-5.576200E+01
164	  0.052665330	-5.836000E+00	  0.052665330	-6.672000E+01	  0.052665330	4.311600E+01	  0.052665330	-5.473400E+01
165	  0.052865732	-5.851000E+00	  0.052865732	-6.823100E+01	  0.052865732	4.196400E+01	  0.052865732	-5.369500E+01
166	  0.053066134	-5.864000E+00	  0.053066134	-6.976400E+01	  0.053066134	4.084000E+01	  0.053066134	-5.266100E+01
167	  0.053266536	-5.876000E+00	  0.053266536	-7.126500E+01	  0.053266536	3.979000E+01	  0.053266536	-5.166000E+01
168	  0.053466935	-5.890000E+00	  0.053466935	-7.279800E+01	  0.053466935	3.877000E+01	  0.053466935	-5.064100E+01
169	  0.053667337	-5.893000E+00	  0.053667337	-7.428800E+01	  0.053667337	3.778500E+01	  0.053667337	-4.970300E+01
170	  0.053867739	-5.906000E+00	  0.053867739	-7.579100E+01	  0.053867739	3.687400E+01	  0.053867739	-4.872200E+01
171	  0.054068137	-5.919000E+00	  0.054068137	-7.723600E+01	  0.054068137	3.604000E+01	  0.054068137	-4.778700E+01
172	  0.054268539	-5.929000E+00	  0.054268539	-7.867200E+01	  0.054268539	3.523100E+01	  0.054268539	-4.688100E+01
173	  0.054468941	-5.944000E+00	  0.054468941	-8.010900E+01	  0.054468941	3.448100E+01	  0.054468941	-4.596000E+01
174	  0.054669339	-5.960000E+00	  0.054669339	-8.152300E+01	  0.054669339	3.377800E+01	  0.054669339	-4.506100E+01
175	  0.054869737	-5.977000E+00	  0.054869737	-8.297400E+01	  0.054869737	3.308800E+01	  0.054869737	-4.415000E+01
176	  0.055070139	-5.993000E+00	  0.055070139	-8.443600E+01	  0.055070139	3.241700E+01	  0.055070139	-4.324700E+01
177	  0.055270538	-6.011000E+00	  0.055270538	-8.590300E+01	  0.055270538	3.178500E+01	  0.055270538	-4.234200E+01
178	  0.055470940	-6.026000E+00	  0.055470940	-8.736900E+01	  0.055470940	3.116600E+01	  0.055470940	-4.146200E+01
179	  0.055671342	-6.037000E+00	  0.055671342	-8.887500E+01	  0.055671342	3.053900E+01	  0.055671342	-4.058300E+01
180	  0.055871744	-6.041000E+00	  0.055871744	-9.034300E+01	  0.055871744	2.993300E+01	  0.055871744	-3.975100E+01
181	  0.056072142	-6.047000E+00	  0.056072142	-9.179300E+01	  0.056072142	2.936600E+01	  0.056072142	-3.893200E+01
182	  0.056272544	-6.045000E+00	  0.056272544	-9.327100E+01	  0.056272544	2.877800E+01	  0.056272544	-3.812900E+01
183	  0.056472946	-6.045000E+00	  0.056472946	-9.468900E+01	  0.056472946	2.824600E+01	  0.056472946	-3.735900E+01
184	  0.056673344	-6.041000E+00	  0.056673344	-9.606300E+01	  0.056673344	2.773700E+01	  0.056673344	-3.662700E+01
185	  0.056873746	-6.039000E+00	  0.056873746	-9.742900E+01	  0.056873746	2.725400E+01	  0.056873746	-3.590200E+01
186	  0.057074148	-6.040000E+00	  0.057074148	-9.873300E+01	  0.057074148	2.681900E+01	  0.057074148	-3.521100E+01
187	  0.057274550	-6.043000E+00	  0.057274550	-1.000690E+02	  0.057274550	2.639600E+01	  0.057274550	-3.450300E+01
188	  0.057474948	-6.039000E+00	  0.057474948	-1.013690E+02	  0.057474948	2.597600E+01	  0.057474948	-3.383500E+01
189	  0.057675350	-6.041000E+00	  0.057675350	-1.027040E+02	  0.057675350	2.558400E+01	  0.057675350	-3.314100E+01
190	  0.057875752	-6.043000E+00	  0.057875752	-1.039900E+02	  0.057875752	2.521500E+01	  0.057875752	-3.247900E+01
191	  0.058076151	-6.048000E+00	  0.058076151	-1.053000E+02	  0.058076151	2.486300E+01	  0.058076151	-3.180600E+01
192	  0.058276553	-6.048000E+00	  0.058276553	-1.066140E+02	  0.058276553	2.450800E+01	  0.058276553	-3.114400E+01
193	  0.058476955	-6.051000E+00	  0.058476955	-1.079190E+02	  0.058476955	2.417400E+01	  0.058476955	-3.048900E+01
194	  0.058677353	-6.051000E+00	  0.058677353	-1.091810E+02	  0.058677353	2.385600E+01	  0.058677353	-2.986500E+01
195	  0.058877755	-6.049000E+00	  0.058877755	-1.104570E+02	  0.058877755	2.353900E+01	  0.058877755	-2.924100E+01
196	  0.059078157	-6.052000E+00	  0.059078157	-1.117150E+02	  0.059078157	2.325000E+01	  0.059078157	-2.862500E+01
197	  0.059278559	-6.051000E+00	  0.059278559	-1.129680E+02	  0.059278559	2.295900E+01	  0.059278559	-2.802100E+01
198	  0.059478957	-6.053000E+00	  0.059478957	-1.141980E+02	  0.059478957	2.269600E+01	  0.059478957	-2.742700E+01
199	  0.059679359	-6.059000E+00	  0.059679359	-1.153970E+02	  0.059679359	2.245800E+01	  0.059679359	-2.684900E+01
200	  0.059879761	-6.067000E+00	  0.059879761	-1.166430E+02	  0.059879761	2.222500E+01	  0.059879761	-2.625000E+01
201	  0.060080159	-6.072000E+00	  0.060080159	-1.178600E+02	  0.060080159	2.199600E+01	  0.060080159	-2.567300E+01
202	  0.060280561	-6.079000E+00	  0.060280561	-1.191160E+02	  0.060280561	2.177300E+01	  0.060280561	-2.508000E+01
203	  0.060480963	-6.088000E+00	  0.060480963	-1.203800E+02	  0.060480963	2.156400E+01	  0.060480963	-2.448500E+01
204	  0.060681365	-6.093000E+00	  0.060681365	-1.216240E+02	  0.060681365	2.135400E+01	  0.060681365	-2.390900E+01
205	  0.060881764	-6.098000E+00	  0.060881764	-1.228810E+02	  0.060881764	2.115000E+01	  0.060881764	-2.333100E+01
206	  0.061082166	-6.101000E+00	  0.061082166	-1.241330E+02	  0.061082166	2.094500E+01	  0.061082166	-2.276300E+01
207	  0.061282568	-6.109000E+00	  0.061282568	-1.253460E+02	  0.061282568	2.077000E+01	  0.061282568	-2.221000E+01
208	  0.061482966	-6.102000E+00	  0.061482966	-1.265860E+02	  0.061482966	2.055400E+01	  0.061482966	-2.166400E+01
209	  0.061683368	-6.103000E+00	  0.061683368	-1.278070E+02	  0.061683368	2.037100E+01	  0.061683368	-2.112100E+01
210	  0.061883770	-6.103000E+00	  0.061883770	-1.289980E+02	  0.061883770	2.019400E+01	  0.061883770	-2.059800E+01
211	  0.062084168	-6.102000E+00	  0.062084168	-1.301880E+02	  0.062084168	2.002100E+01	  0.062084168	-2.007700E+01
212	  0.062284570	-6.104000E+00	  0.062284570	-1.313240E+02	  0.062284570	1.987100E+01	  0.062284570	-1.958000E+01
213	  0.062484972	-6.095000E+00	  0.062484972	-1.324230E+02	  0.062484972	1.969900E+01	  0.062484972	-1.911200E+01
214	  0.062685370	-6.094000E+00	  0.062685370	-1.335320E+02	  0.062685370	1.955300E+01	  0.062685370	-1.863500E+01
215	  0.062885776	-6.102000E+00	  0.062885776	-1.346740E+02	  0.062885776	1.943200E+01	  0.062885776	-1.813800E+01
216	  0.063086174	-6.107000E+00	  0.063086174	-1.358030E+02	  0.063086174	1.930900E+01	  0.063086174	-1.765200E+01
217	  0.063286573	-6.104000E+00	  0.063286573	-1.369630E+02	  0.063286573	1.916500E+01	  0.063286573	-1.716200E+01
218	  0.063486971	-6.106000E+00	  0.063486971	-1.380680E+02	  0.063486971	1.904600E+01	  0.063486971	-1.669400E+01
219	  0.063687377	-6.115000E+00	  0.063687377	-1.391730E+02	  0.063687377	1.895100E+01	  0.063687377	-1.622200E+01
220	  0.063887775	-6.114000E+00	  0.063887775	-1.403020E+02	  0.063887775	1.882700E+01	  0.063887775	-1.575100E+01
221	  0.064088173	-6.117000E+00	  0.064088173	-1.413980E+02	  0.064088173	1.872600E+01	  0.064088173	-1.529200E+01
222	  0.064288579	-6.120000E+00	  0.064288579	-1.424880E+02	  0.064288579	1.862600E+01	  0.064288579	-1.483700E+01
223	  0.064488977	-6.129000E+00	  0.064488977	-1.435830E+02	  0.064488977	1.854600E+01	  0.064488977	-1.437900E+01
224	  0.064689375	-6.138000E+00	  0.064689375	-1.446370E+02	  0.064689375	1.847400E+01	  0.064689375	-1.394000E+01
225	  0.064889781	-6.142000E+00	  0.064889781	-1.457200E+02	  0.064889781	1.839100E+01	  0.064889781	-1.349400E+01
226	  0.065090179	-6.149000E+00	  0.065090179	-1.468290E+02	  0.065090179	1.831500E+01	  0.065090179	-1.303700E+01
227	  0.065290578	-6.156000E+00	  0.065290578	-1.478850E+02	  0.065290578	1.824800E+01	  0.065290578	-1.260400E+01
228	  0.065490983	-6.164000E+00	  0.065490983	-1.489590E+02	  0.065490983	1.818500E+01	  0.065490983	-1.216400E+01
229	  0.065691382	-6.170000E+00	  0.065691382	-1.500980E+02	  0.065691382	1.811500E+01	  0.065691382	-1.170100E+01
230	  0.065891780	-6.179000E+00	  0.065891780	-1.511610E+02	  0.065891780	1.806200E+01	  0.065891780	-1.126900E+01
231	  0.066092186	-6.193000E+00	  0.066092186	-1.522400E+02	  0.066092186	1.802200E+01	  0.066092186	-1.083100E+01
232	  0.066292584	-6.195000E+00	  0.066292584	-1.533520E+02	  0.066292584	1.795400E+01	  0.066292584	-1.038500E+01
233	  0.066492982	-6.202000E+00	  0.066492982	-1.544570E+02	  0.066492982	1.790300E+01	  0.066492982	-9.942000E+00
234	  0.066693388	-6.209000E+00	  0.066693388	-1.555490E+02	  0.066693388	1.785500E+01	  0.066693388	-9.506000E+00
235	  0.066893786	-6.216000E+00	  0.066893786	-1.566880E+02	  0.066893786	1.780500E+01	  0.066893786	-9.053000E+00
236	  0.067094192	-6.219000E+00	  0.067094192	-1.577310E+02	  0.067094192	1.775700E+01	  0.067094192	-8.640000E+00
237	  0.067294590	-6.224000E+00	  0.067294590	-1.588360E+02	  0.067294590	1.771200E+01	  0.067294590	-8.203000E+00
238	  0.067494988	-6.224000E+00	  0.067494988	-1.599050E+02	  0.067494988	1.766000E+01	  0.067494988	-7.783000E+00
239	  0.067695394	-6.230000E+00	  0.067695394	-1.609680E+02	  0.067695394	1.762600E+01	  0.067695394	-7.364000E+00
240	  0.067895792	-6.228000E+00	  0.067895792	-1.620210E+02	  0.067895792	1.757500E+01	  0.067895792	-6.953000E+00
241	  0.068096191	-6.230000E+00	  0.068096191	-1.631070E+02	  0.068096191	1.753600E+01	  0.068096191	-6.528000E+00
242	  0.068296596	-6.237000E+00	  0.068296596	-1.641480E+02	  0.068296596	1.751300E+01	  0.068296596	-6.121000E+00
243	  0.068496995	-6.242000E+00	  0.068496995	-1.651920E+02	  0.068496995	1.748800E+01	  0.068496995	-5.713000E+00
244	  0.068697393	-6.244000E+00	  0.068697393	-1.662830E+02	  0.068697393	1.745700E+01	  0.068697393	-5.289000E+00
245	  0.068897791	-6.239000E+00	  0.068897791	-1.673350E+02	  0.068897791	1.741100E+01	  0.068897791	-4.883000E+00
246	  0.069098189	-6.238000E+00	  0.069098189	-1.683530E+02	  0.069098189	1.737800E+01	  0.069098189	-4.488000E+00
247	  0.069298595	-6.240000E+00	  0.069298595	-1.693400E+02	  0.069298595	1.735700E+01	  0.069298595	-4.106000E+00
248	  0.069498993	-6.239000E+00	  0.069498993	-1.703820E+02	  0.069498993	1.733200E+01	  0.069498993	-3.703000E+00
249	  0.069699399	-6.244000E+00	  0.069699399	-1.713340E+02	  0.069699399	1.732400E+01	  0.069699399	-3.335000E+00
250	  0.069899797	-6.246000E+00	  0.069899797	-1.723400E+02	  0.069899797	1.730900E+01	  0.069899797	-2.947000E+00
251	  0.070100196	-6.246000E+00	  0.070100196	-1.733230E+02	  0.070100196	1.729200E+01	  0.070100196	-2.568000E+00
252	  0.070300601	-6.247000E+00	  0.070300601	-1.742680E+02	  0.070300601	1.728200E+01	  0.070300601	-2.204000E+00
253	  0.070501000	-6.243000E+00	  0.070501000	-1.752610E+02	  0.070501000	1.726000E+01	  0.070501000	-1.822000E+00
254	  0.070701398	-6.248000E+00	  0.070701398	-1.762310E+02	  0.070701398	1.726400E+01	  0.070701398	-1.448000E+00
255	  0.070901804	-6.251000E+00	  0.070901804	-1.771570E+02	  0.070901804	1.726200E+01	  0.070901804	-1.092000E+00
256	  0.071102202	-6.254000E+00	  0.071102202	-1.781190E+02	  0.071102202	1.726600E+01	  0.071102202	-7.220000E-01
257	  0.071302600	-6.257000E+00	  0.071302600	-1.790600E+02	  0.071302600	1.727100E+01	  0.071302600	-3.600000E-01
258	  0.071503006	-6.263000E+00	  0.071503006	1.799820E+02	  0.071503006	1.728400E+01	  0.071503006	6.000000E-03
259	  0.071703404	-6.270000E+00	  0.071703404	1.790560E+02	  0.071703404	1.730200E+01	  0.071703404	3.620000E-01
260	  0.071903802	-6.272000E+00	  0.071903802	1.780850E+02	  0.071903802	1.731200E+01	  0.071903802	7.350000E-01
261	  0.072104208	-6.283000E+00	  0.072104208	1.771470E+02	  0.072104208	1.734400E+01	  0.072104208	1.095000E+00
262	  0.072304606	-6.292000E+00	  0.072304606	1.762270E+02	  0.072304606	1.737600E+01	  0.072304606	1.447000E+00
263	  0.072505005	-6.299000E+00	  0.072505005	1.752970E+02	  0.072505005	1.740200E+01	  0.072505005	1.804000E+00
264	  0.072705410	-6.302000E+00	  0.072705410	1.743600E+02	  0.072705410	1.742000E+01	  0.072705410	2.164000E+00
265	  0.072905809	-6.316000E+00	  0.072905809	1.734210E+02	  0.072905809	1.746900E+01	  0.072905809	2.523000E+00
266	  0.073106214	-6.323000E+00	  0.073106214	1.724660E+02	  0.073106214	1.750300E+01	  0.073106214	2.889000E+00
267	  0.073306613	-6.335000E+00	  0.073306613	1.715180E+02	  0.073306613	1.755000E+01	  0.073306613	3.253000E+00
268	  0.073507011	-6.342000E+00	  0.073507011	1.705630E+02	  0.073507011	1.758800E+01	  0.073507011	3.619000E+00
269	  0.073707417	-6.347000E+00	  0.073707417	1.696340E+02	  0.073707417	1.762400E+01	  0.073707417	3.975000E+00
270	  0.073907815	-6.354000E+00	  0.073907815	1.687180E+02	  0.073907815	1.766500E+01	  0.073907815	4.327000E+00
271	  0.074108213	-6.358000E+00	  0.074108213	1.677910E+02	  0.074108213	1.770000E+01	  0.074108213	4.683000E+00
272	  0.074308619	-6.367000E+00	  0.074308619	1.668530E+02	  0.074308619	1.775300E+01	  0.074308619	5.043000E+00
273	  0.074509017	-6.375000E+00	  0.074509017	1.659270E+02	  0.074509017	1.780300E+01	  0.074509017	5.399000E+00
274	  0.074709415	-6.386000E+00	  0.074709415	1.650610E+02	  0.074709415	1.785900E+01	  0.074709415	5.731000E+00
275	  0.074909821	-6.393000E+00	  0.074909821	1.641210E+02	  0.074909821	1.791300E+01	  0.074909821	6.093000E+00
276	  0.075110219	-6.398000E+00	  0.075110219	1.632110E+02	  0.075110219	1.796200E+01	  0.075110219	6.443000E+00
277	  0.075310618	-6.408000E+00	  0.075310618	1.623470E+02	  0.075310618	1.802300E+01	  0.075310618	6.775000E+00
278	  0.075511023	-6.416000E+00	  0.075511023	1.614390E+02	  0.075511023	1.808400E+01	  0.075511023	7.125000E+00
279	  0.075711422	-6.424000E+00	  0.075711422	1.605740E+02	  0.075711422	1.814300E+01	  0.075711422	7.459000E+00
280	  0.075911827	-6.433000E+00	  0.075911827	1.596990E+02	  0.075911827	1.820800E+01	  0.075911827	7.796000E+00
281	  0.076112226	-6.444000E+00	  0.076112226	1.588090E+02	  0.076112226	1.828200E+01	  0.076112226	8.139000E+00
282	  0.076312624	-6.454000E+00	  0.076312624	1.579660E+02	  0.076312624	1.835400E+01	  0.076312624	8.464000E+00
283	  0.076513030	-6.464000E+00	  0.076513030	1.571060E+02	  0.076513030	1.842500E+01	  0.076513030	8.796000E+00
284	  0.076713428	-6.474000E+00	  0.076713428	1.562380E+02	  0.076713428	1.850100E+01	  0.076713428	9.132000E+00
285	  0.076913826	-6.489000E+00	  0.076913826	1.553620E+02	  0.076913826	1.859200E+01	  0.076913826	9.469000E+00
286	  0.077114232	-6.502000E+00	  0.077114232	1.545080E+02	  0.077114232	1.868000E+01	  0.077114232	9.798000E+00
287	  0.077314630	-6.516000E+00	  0.077314630	1.536550E+02	  0.077314630	1.877300E+01	  0.077314630	1.012600E+01
288	  0.077515028	-6.530000E+00	  0.077515028	1.528180E+02	  0.077515028	1.886500E+01	  0.077515028	1.044900E+01
289	  0.077715434	-6.550000E+00	  0.077715434	1.519770E+02	  0.077715434	1.897600E+01	  0.077715434	1.077100E+01
290	  0.077915832	-6.568000E+00	  0.077915832	1.510980E+02	  0.077915832	1.908700E+01	  0.077915832	1.110900E+01
291	  0.078116231	-6.585000E+00	  0.078116231	1.502140E+02	  0.078116231	1.919700E+01	  0.078116231	1.144900E+01
292	  0.078316636	-6.598000E+00	  0.078316636	1.493270E+02	  0.078316636	1.930100E+01	  0.078316636	1.179200E+01
293	  0.078517035	-6.617000E+00	  0.078517035	1.484440E+02	  0.078517035	1.942000E+01	  0.078517035	1.213200E+01
294	  0.078717433	-6.628000E+00	  0.078717433	1.475830E+02	  0.078717433	1.952300E+01	  0.078717433	1.246700E+01
295	  0.078917839	-6.641000E+00	  0.078917839	1.466820E+02	  0.078917839	1.963400E+01	  0.078917839	1.281800E+01
296	  0.079118237	-6.651000E+00	  0.079118237	1.458160E+02	  0.079118237	1.973700E+01	  0.079118237	1.315700E+01
297	  0.079318643	-6.660000E+00	  0.079318643	1.449990E+02	  0.079318643	1.983800E+01	  0.079318643	1.347700E+01
298	  0.079519041	-6.673000E+00	  0.079519041	1.441250E+02	  0.079519041	1.995500E+01	  0.079519041	1.381900E+01
299	  0.079719439	-6.686000E+00	  0.079719439	1.433020E+02	  0.079719439	2.006900E+01	  0.079719439	1.414000E+01
300	  0.079919845	-6.696000E+00	  0.079919845	1.424470E+02	  0.079919845	2.018000E+01	  0.079919845	1.447700E+01
301	  0.080120243	-6.709000E+00	  0.080120243	1.416500E+02	  0.080120243	2.029800E+01	  0.080120243	1.478800E+01
302	  0.080320641	-6.724000E+00	  0.080320641	1.408180E+02	  0.080320641	2.042600E+01	  0.080320641	1.511300E+01
303	  0.080521047	-6.737000E+00	  0.080521047	1.400310E+02	  0.080521047	2.054800E+01	  0.080521047	1.542100E+01
304	  0.080721445	-6.748000E+00	  0.080721445	1.392480E+02	  0.080721445	2.066300E+01	  0.080721445	1.573000E+01
305	  0.080921844	-6.759000E+00	  0.080921844	1.384780E+02	  0.080921844	2.078200E+01	  0.080921844	1.603400E+01
306	  0.081122249	-6.771000E+00	  0.081122249	1.376960E+02	  0.081122249	2.090500E+01	  0.081122249	1.634200E+01
307	  0.081322648	-6.781000E+00	  0.081322648	1.369290E+02	  0.081322648	2.102500E+01	  0.081322648	1.664600E+01
308	  0.081523046	-6.793000E+00	  0.081523046	1.361700E+02	  0.081523046	2.115200E+01	  0.081523046	1.694600E+01
309	  0.081723452	-6.805000E+00	  0.081723452	1.354070E+02	  0.081723452	2.128000E+01	  0.081723452	1.724900E+01
310	  0.081923850	-6.827000E+00	  0.081923850	1.347060E+02	  0.081923850	2.143000E+01	  0.081923850	1.751700E+01
311	  0.082124248	-6.843000E+00	  0.082124248	1.339870E+02	  0.082124248	2.156800E+01	  0.082124248	1.779800E+01
312	  0.082324654	-6.860000E+00	  0.082324654	1.332770E+02	  0.082324654	2.171000E+01	  0.082324654	1.807400E+01
313	  0.082525052	-6.878000E+00	  0.082525052	1.325740E+02	  0.082525052	2.185800E+01	  0.082525052	1.834700E+01
314	  0.082725458	-6.900000E+00	  0.082725458	1.318620E+02	  0.082725458	2.201900E+01	  0.082725458	1.861900E+01
315	  0.082925856	-6.928000E+00	  0.082925856	1.311530E+02	  0.082925856	2.219600E+01	  0.082925856	1.888500E+01
316	  0.083126254	-6.955000E+00	  0.083126254	1.304520E+02	  0.083126254	2.237400E+01	  0.083126254	1.914800E+01
317	  0.083326660	-6.988000E+00	  0.083326660	1.297140E+02	  0.083326660	2.257600E+01	  0.083326660	1.942000E+01
318	  0.083527058	-7.014000E+00	  0.083527058	1.289500E+02	  0.083527058	2.276400E+01	  0.083527058	1.971000E+01
319	  0.083727457	-7.040000E+00	  0.083727457	1.281720E+02	  0.083727457	2.296100E+01	  0.083727457	2.000400E+01
320	  0.083927862	-7.067000E+00	  0.083927862	1.274100E+02	  0.083927862	2.315800E+01	  0.083927862	2.029100E+01
321	  0.084128261	-7.094000E+00	  0.084128261	1.266210E+02	  0.084128261	2.336200E+01	  0.084128261	2.058800E+01
322	  0.084328659	-7.117000E+00	  0.084328659	1.258470E+02	  0.084328659	2.355600E+01	  0.084328659	2.088500E+01
323	  0.084529065	-7.144000E+00	  0.084529065	1.251290E+02	  0.084529065	2.375400E+01	  0.084529065	2.115200E+01
324	  0.084729463	-7.168000E+00	  0.084729463	1.243380E+02	  0.084729463	2.396200E+01	  0.084729463	2.145300E+01
325	  0.084929861	-7.192000E+00	  0.084929861	1.235570E+02	  0.084929861	2.416700E+01	  0.084929861	2.175000E+01
326	  0.085130267	-7.219000E+00	  0.085130267	1.227940E+02	  0.085130267	2.438300E+01	  0.085130267	2.203600E+01
327	  0.085330658	-7.242000E+00	  0.085330658	1.220300E+02	  0.085330658	2.459300E+01	  0.085330658	2.232500E+01
328	  0.085531056	-7.266000E+00	  0.085531056	1.212500E+02	  0.085531056	2.480900E+01	  0.085531056	2.262100E+01
329	  0.085731462	-7.295000E+00	  0.085731462	1.204940E+02	  0.085731462	2.504100E+01	  0.085731462	2.289900E+01
330	  0.085931860	-7.315000E+00	  0.085931860	1.197570E+02	  0.085931860	2.524500E+01	  0.085931860	2.318100E+01
331	  0.086132258	-7.332000E+00	  0.086132258	1.189980E+02	  0.086132258	2.544800E+01	  0.086132258	2.347600E+01
332	  0.086332664	-7.349000E+00	  0.086332664	1.182400E+02	  0.086332664	2.565400E+01	  0.086332664	2.377100E+01
333	  0.086533062	-7.367000E+00	  0.086533062	1.175020E+02	  0.086533062	2.586300E+01	  0.086533062	2.405500E+01
334	  0.086733460	-7.383000E+00	  0.086733460	1.167560E+02	  0.086733460	2.607200E+01	  0.086733460	2.434500E+01
335	  0.086933866	-7.407000E+00	  0.086933866	1.161000E+02	  0.086933866	2.628400E+01	  0.086933866	2.458800E+01
336	  0.087134264	-7.425000E+00	  0.087134264	1.154030E+02	  0.087134264	2.649200E+01	  0.087134264	2.485400E+01
337	  0.087334670	-7.433000E+00	  0.087334670	1.147380E+02	  0.087334670	2.666900E+01	  0.087334670	2.512200E+01
338	  0.087535068	-7.453000E+00	  0.087535068	1.141520E+02	  0.087535068	2.686400E+01	  0.087535068	2.533900E+01
339	  0.087735467	-7.471000E+00	  0.087735467	1.135060E+02	  0.087735467	2.706800E+01	  0.087735467	2.558400E+01
340	  0.087935872	-7.490000E+00	  0.087935872	1.128950E+02	  0.087935872	2.726900E+01	  0.087935872	2.581200E+01
341	  0.088136271	-7.511000E+00	  0.088136271	1.123010E+02	  0.088136271	2.747700E+01	  0.088136271	2.602700E+01
342	  0.088336669	-7.539000E+00	  0.088336669	1.117410E+02	  0.088336669	2.769500E+01	  0.088336669	2.621800E+01
343	  0.088537075	-7.565000E+00	  0.088537075	1.111530E+02	  0.088537075	2.791900E+01	  0.088537075	2.642200E+01
344	  0.088737473	-7.586000E+00	  0.088737473	1.105630E+02	  0.088737473	2.813100E+01	  0.088737473	2.663500E+01
345	  0.088937871	-7.609000E+00	  0.088937871	1.099810E+02	  0.088937871	2.834800E+01	  0.088937871	2.684100E+01
346	  0.089138277	-7.637000E+00	  0.089138277	1.093870E+02	  0.089138277	2.858400E+01	  0.089138277	2.704200E+01
347	  0.089338675	-7.664000E+00	  0.089338675	1.087980E+02	  0.089338675	2.881900E+01	  0.089338675	2.724200E+01
348	  0.089539073	-7.691000E+00	  0.089539073	1.082260E+02	  0.089539073	2.905200E+01	  0.089539073	2.743300E+01
349	  0.089739479	-7.720000E+00	  0.089739479	1.076480E+02	  0.089739479	2.929500E+01	  0.089739479	2.762100E+01
350	  0.089939877	-7.750000E+00	  0.089939877	1.070790E+02	  0.089939877	2.953900E+01	  0.089939877	2.780500E+01
351	  0.090140276	-7.770000E+00	  0.090140276	1.065140E+02	  0.090140276	2.975600E+01	  0.090140276	2.800400E+01
352	  0.090340681	-7.801000E+00	  0.090340681	1.059220E+02	  0.090340681	3.001600E+01	  0.090340681	2.819100E+01
353	  0.090541080	-7.833000E+00	  0.090541080	1.053480E+02	  0.090541080	3.027700E+01	  0.090541080	2.836700E+01
354	  0.090741485	-7.866000E+00	  0.090741485	1.047930E+02	  0.090741485	3.053400E+01	  0.090741485	2.853300E+01
355	  0.090941884	-7.896000E+00	  0.090941884	1.041890E+02	  0.090941884	3.079900E+01	  0.090941884	2.872400E+01
356	  0.091142282	-7.926000E+00	  0.091142282	1.036310E+02	  0.091142282	3.105500E+01	  0.091142282	2.889300E+01
357	  0.091342688	-7.957000E+00	  0.091342688	1.030070E+02	  0.091342688	3.133800E+01	  0.091342688	2.908500E+01
358	  0.091543086	-7.983000E+00	  0.091543086	1.023960E+02	  0.091543086	3.160500E+01	  0.091543086	2.928200E+01
359	  0.091743484	-8.016000E+00	  0.091743484	1.017640E+02	  0.091743484	3.190000E+01	  0.091743484	2.947100E+01
360	  0.091943890	-8.036000E+00	  0.091943890	1.011590E+02	  0.091943890	3.215400E+01	  0.091943890	2.967500E+01
361	  0.092144288	-8.072000E+00	  0.092144288	1.005750E+02	  0.092144288	3.244700E+01	  0.092144288	2.983400E+01
362	  0.092344686	-8.084000E+00	  0.092344686	9.998500E+01	  0.092344686	3.268000E+01	  0.092344686	3.004800E+01
363	  0.092545092	-8.114000E+00	  0.092545092	9.942300E+01	  0.092545092	3.295500E+01	  0.092545092	3.020800E+01
364	  0.092745490	-8.123000E+00	  0.092745490	9.885700E+01	  0.092745490	3.317800E+01	  0.092745490	3.041600E+01
365	  0.092945889	-8.151000E+00	  0.092945889	9.832900E+01	  0.092945889	3.343800E+01	  0.092945889	3.056700E+01
366	  0.093146294	-8.170000E+00	  0.093146294	9.778400E+01	  0.093146294	3.368400E+01	  0.093146294	3.074100E+01
367	  0.093346693	-8.196000E+00	  0.093346693	9.727300E+01	  0.093346693	3.394000E+01	  0.093346693	3.088300E+01
368	  0.093547091	-8.216000E+00	  0.093547091	9.676500E+01	  0.093547091	3.418000E+01	  0.093547091	3.103900E+01
369	  0.093747497	-8.239000E+00	  0.093747497	9.629300E+01	  0.093747497	3.441700E+01	  0.093747497	3.117100E+01
370	  0.093947895	-8.260000E+00	  0.093947895	9.578500E+01	  0.093947895	3.466200E+01	  0.093947895	3.132300E+01
371	  0.094148301	-8.278000E+00	  0.094148301	9.525600E+01	  0.094148301	3.491100E+01	  0.094148301	3.148700E+01
372	  0.094348699	-8.303000E+00	  0.094348699	9.481100E+01	  0.094348699	3.514900E+01	  0.094348699	3.159900E+01
373	  0.094549097	-8.324000E+00	  0.094549097	9.437600E+01	  0.094549097	3.537300E+01	  0.094549097	3.171700E+01
374	  0.094749503	-8.350000E+00	  0.094749503	9.391900E+01	  0.094749503	3.561900E+01	  0.094749503	3.183000E+01
375	  0.094949901	-8.367000E+00	  0.094949901	9.345700E+01	  0.094949901	3.584700E+01	  0.094949901	3.196600E+01
376	  0.095150299	-8.392000E+00	  0.095150299	9.301300E+01	  0.095150299	3.609100E+01	  0.095150299	3.207100E+01
377	  0.095350705	-8.410000E+00	  0.095350705	9.257500E+01	  0.095350705	3.631400E+01	  0.095350705	3.219400E+01
378	  0.095551103	-8.438000E+00	  0.095551103	9.210900E+01	  0.095551103	3.657700E+01	  0.095551103	3.229700E+01
379	  0.095751502	-8.456000E+00	  0.095751502	9.170100E+01	  0.095751502	3.679000E+01	  0.095751502	3.240600E+01
380	  0.095951907	-8.485000E+00	  0.095951907	9.130400E+01	  0.095951907	3.703000E+01	  0.095951907	3.247700E+01
381	  0.096152306	-8.513000E+00	  0.096152306	9.083900E+01	  0.096152306	3.729600E+01	  0.096152306	3.257500E+01
382	  0.096352704	-8.539000E+00	  0.096352704	9.038500E+01	  0.096352704	3.755500E+01	  0.096352704	3.267400E+01
383	  0.096553110	-8.568000E+00	  0.096553110	8.985200E+01	  0.096553110	3.785600E+01	  0.096553110	3.279100E+01
384	  0.096753508	-8.589000E+00	  0.096753508	8.938000E+01	  0.096753508	3.811300E+01	  0.096753508	3.290800E+01
385	  0.096953906	-8.620000E+00	  0.096953906	8.887900E+01	  0.096953906	3.841000E+01	  0.096953906	3.300300E+01
386	  0.097154312	-8.631000E+00	  0.097154312	8.837000E+01	  0.097154312	3.866200E+01	  0.097154312	3.315900E+01
387	  0.097354710	-8.658000E+00	  0.097354710	8.785500E+01	  0.097354710	3.896000E+01	  0.097354710	3.326600E+01
388	  0.097555116	-8.668000E+00	  0.097555116	8.735700E+01	  0.097555116	3.921100E+01	  0.097555116	3.341700E+01
389	  0.097755514	-8.674000E+00	  0.097755514	8.681100E+01	  0.097755514	3.947700E+01	  0.097755514	3.359500E+01
390	  0.097955912	-8.682000E+00	  0.097955912	8.627800E+01	  0.097955912	3.974400E+01	  0.097955912	3.376300E+01
391	  0.098156318	-8.693000E+00	  0.098156318	8.578200E+01	  0.098156318	4.000300E+01	  0.098156318	3.390700E+01
392	  0.098356716	-8.698000E+00	  0.098356716	8.529500E+01	  0.098356716	4.024600E+01	  0.098356716	3.406600E+01
393	  0.098557115	-8.699000E+00	  0.098557115	8.479900E+01	  0.098557115	4.048700E+01	  0.098557115	3.424000E+01
394	  0.098757520	-8.698000E+00	  0.098757520	8.438100E+01	  0.098757520	4.068700E+01	  0.098757520	3.439200E+01
395	  0.098957919	-8.693000E+00	  0.098957919	8.387500E+01	  0.098957919	4.092600E+01	  0.098957919	3.458500E+01
396	  0.099158317	-8.693000E+00	  0.099158317	8.345300E+01	  0.099158317	4.113600E+01	  0.099158317	3.473300E+01
397	  0.099358723	-8.685000E+00	  0.099358723	8.303500E+01	  0.099358723	4.132500E+01	  0.099358723	3.490800E+01
398	  0.099559121	-8.680000E+00	  0.099559121	8.262900E+01	  0.099559121	4.152000E+01	  0.099559121	3.506600E+01
399	  0.099759519	-8.676000E+00	  0.099759519	8.223500E+01	  0.099759519	4.171100E+01	  0.099759519	3.521800E+01
400	  0.099959925	-8.654000E+00	  0.099959925	8.188700E+01	  0.099959925	4.183900E+01	  0.099959925	3.541500E+01
401	  0.100160323	-8.648000E+00	  0.100160323	8.154000E+01	  0.100160323	4.200600E+01	  0.100160323	3.555600E+01
402	  0.100360721	-8.637000E+00	  0.100360721	8.118800E+01	  0.100360721	4.216500E+01	  0.100360721	3.571700E+01
403	  0.100561127	-8.639000E+00	  0.100561127	8.086600E+01	  0.100561127	4.233900E+01	  0.100561127	3.582300E+01
404	  0.100761525	-8.633000E+00	  0.100761525	8.057500E+01	  0.100761525	4.248100E+01	  0.100761525	3.594400E+01
405	  0.100961931	-8.634000E+00	  0.100961931	8.029700E+01	  0.100961931	4.263200E+01	  0.100961931	3.603600E+01
406	  0.101162329	-8.636000E+00	  0.101162329	8.002500E+01	  0.101162329	4.278400E+01	  0.101162329	3.612100E+01
407	  0.101362728	-8.643000E+00	  0.101362728	7.975500E+01	  0.101362728	4.294400E+01	  0.101362728	3.619100E+01
408	  0.101563133	-8.658000E+00	  0.101563133	7.943300E+01	  0.101563133	4.315400E+01	  0.101563133	3.624700E+01
409	  0.101763532	-8.659000E+00	  0.101763532	7.903300E+01	  0.101763532	4.337500E+01	  0.101763532	3.638000E+01
410	  0.101963930	-8.669000E+00	  0.101963930	7.869800E+01	  0.101963930	4.358300E+01	  0.101963930	3.645500E+01
411	  0.102164336	-8.671000E+00	  0.102164336	7.831400E+01	  0.102164336	4.380100E+01	  0.102164336	3.657700E+01
412	  0.102364734	-8.695000E+00	  0.102364734	7.793800E+01	  0.102364734	4.406300E+01	  0.102364734	3.661600E+01
413	  0.102565132	-8.696000E+00	  0.102565132	7.752400E+01	  0.102565132	4.430100E+01	  0.102565132	3.674800E+01
414	  0.102765530	-8.715000E+00	  0.102765530	7.706500E+01	  0.102765530	4.460400E+01	  0.102765530	3.682600E+01
415	  0.102965929	-8.712000E+00	  0.102965929	7.648500E+01	  0.102965929	4.493300E+01	  0.102965929	3.702500E+01
416	  0.103166327	-8.715000E+00	  0.103166327	7.605800E+01	  0.103166327	4.518900E+01	  0.103166327	3.715100E+01
417	  0.103366733	-8.712000E+00	  0.103366733	7.549900E+01	  0.103366733	4.551100E+01	  0.103366733	3.734300E+01
418	  0.103567131	-8.710000E+00	  0.103567131	7.496300E+01	  0.103567131	4.582600E+01	  0.103567131	3.752000E+01
419	  0.103767529	-8.705000E+00	  0.103767529	7.437800E+01	  0.103767529	4.616900E+01	  0.103767529	3.772500E+01
420	  0.103967935	-8.699000E+00	  0.103967935	7.380900E+01	  0.103967935	4.650500E+01	  0.103967935	3.792500E+01
421	  0.104168333	-8.688000E+00	  0.104168333	7.312600E+01	  0.104168333	4.690700E+01	  0.104168333	3.817900E+01
422	  0.104368731	-8.666000E+00	  0.104368731	7.252300E+01	  0.104368731	4.724200E+01	  0.104368731	3.845600E+01
423	  0.104569137	-8.650000E+00	  0.104569137	7.190300E+01	  0.104569137	4.760600E+01	  0.104569137	3.871200E+01
424	  0.104769535	-8.637000E+00	  0.104769535	7.132700E+01	  0.104769535	4.795300E+01	  0.104769535	3.894100E+01
425	  0.104969934	-8.599000E+00	  0.104969934	7.067000E+01	  0.104969934	4.831100E+01	  0.104969934	3.930100E+01
426	  0.105170339	-8.583000E+00	  0.105170339	7.009300E+01	  0.105170339	4.866300E+01	  0.105170339	3.954600E+01
427	  0.105370738	-8.549000E+00	  0.105370738	6.953700E+01	  0.105370738	4.897300E+01	  0.105370738	3.986200E+01
428	  0.105571143	-8.538000E+00	  0.105571143	6.892700E+01	  0.105571143	4.937100E+01	  0.105571143	4.009000E+01
429	  0.105771542	-8.502000E+00	  0.105771542	6.836800E+01	  0.105771542	4.969100E+01	  0.105771542	4.041800E+01
430	  0.105971940	-8.489000E+00	  0.105971940	6.784400E+01	  0.105971940	5.003700E+01	  0.105971940	4.062600E+01
431	  0.106172346	-8.465000E+00	  0.106172346	6.733400E+01	  0.106172346	5.035400E+01	  0.106172346	4.088800E+01
432	  0.106372744	-8.447000E+00	  0.106372744	6.679300E+01	  0.106372744	5.071300E+01	  0.106372744	4.112500E+01
433	  0.106573142	-8.442000E+00	  0.106573142	6.635300E+01	  0.106573142	5.102500E+01	  0.106573142	4.127500E+01
434	  0.106773548	-8.417000E+00	  0.106773548	6.586100E+01	  0.106773548	5.134300E+01	  0.106773548	4.153400E+01
435	  0.106973946	-8.415000E+00	  0.106973946	6.542600E+01	  0.106973946	5.166400E+01	  0.106973946	4.166600E+01
436	  0.107174344	-8.418000E+00	  0.107174344	6.488100E+01	  0.107174344	5.208200E+01	  0.107174344	4.179500E+01
437	  0.107374750	-8.416000E+00	  0.107374750	6.438500E+01	  0.107374750	5.245800E+01	  0.107374750	4.193600E+01
438	  0.107575148	-8.405000E+00	  0.107575148	6.388100E+01	  0.107575148	5.282800E+01	  0.107575148	4.212600E+01
439	  0.107775547	-8.416000E+00	  0.107775547	6.327400E+01	  0.107775547	5.332000E+01	  0.107775547	4.222400E+01
440	  0.107975952	-8.421000E+00	  0.107975952	6.272000E+01	  0.107975952	5.376700E+01	  0.107975952	4.233400E+01
441	  0.108176351	-8.416000E+00	  0.108176351	6.210900E+01	  0.108176351	5.424600E+01	  0.108176351	4.251100E+01
442	  0.108376749	-8.418000E+00	  0.108376749	6.147900E+01	  0.108376749	5.476100E+01	  0.108376749	4.264300E+01
443	  0.108577155	-8.420000E+00	  0.108577155	6.088200E+01	  0.108577155	5.525200E+01	  0.108577155	4.277300E+01
444	  0.108777553	-8.408000E+00	  0.108777553	6.022600E+01	  0.108777553	5.578000E+01	  0.108777553	4.298100E+01
445	  0.108977959	-8.406000E+00	  0.108977959	5.949600E+01	  0.108977959	5.639400E+01	  0.108977959	4.314300E+01
446	  0.109178357	-8.398000E+00	  0.109178357	5.879800E+01	  0.109178357	5.698100E+01	  0.109178357	4.332900E+01
447	  0.109378755	-8.393000E+00	  0.109378755	5.810500E+01	  0.109378755	5.757600E+01	  0.109378755	4.349100E+01
448	  0.109579161	-8.382000E+00	  0.109579161	5.733100E+01	  0.109579161	5.824400E+01	  0.109579161	4.369900E+01
449	  0.109779559	-8.381000E+00	  0.109779559	5.666800E+01	  0.109779559	5.883500E+01	  0.109779559	4.382000E+01
450	  0.109979957	-8.361000E+00	  0.109979957	5.595700E+01	  0.109979957	5.945900E+01	  0.109979957	4.405600E+01
451	  0.110180363	-8.337000E+00	  0.110180363	5.524000E+01	  0.110180363	6.009600E+01	  0.110180363	4.431100E+01
452	  0.110380761	-8.325000E+00	  0.110380761	5.455100E+01	  0.110380761	6.073000E+01	  0.110380761	4.448400E+01
453	  0.110581160	-8.307000E+00	  0.110581160	5.378500E+01	  0.110581160	6.144300E+01	  0.110581160	4.469900E+01
454	  0.110781565	-8.278000E+00	  0.110781565	5.308800E+01	  0.110781565	6.209300E+01	  0.110781565	4.496600E+01
455	  0.110981964	-8.264000E+00	  0.110981964	5.237500E+01	  0.110981964	6.278300E+01	  0.110981964	4.513300E+01
456	  0.111182362	-8.258000E+00	  0.111182362	5.173600E+01	  0.111182362	6.341500E+01	  0.111182362	4.523900E+01
457	  0.111382768	-8.245000E+00	  0.111382768	5.107500E+01	  0.111382768	6.407500E+01	  0.111382768	4.537800E+01
458	  0.111583166	-8.236000E+00	  0.111583166	5.041800E+01	  0.111583166	6.474100E+01	  0.111583166	4.549200E+01
459	  0.111783572	-8.230000E+00	  0.111783572	4.968200E+01	  0.111783572	6.550000E+01	  0.111783572	4.557500E+01
460	  0.111983970	-8.230000E+00	  0.111983970	4.900600E+01	  0.111983970	6.620800E+01	  0.111983970	4.560400E+01
461	  0.112184368	-8.224000E+00	  0.112184368	4.831000E+01	  0.112184368	6.694600E+01	  0.112184368	4.565900E+01
462	  0.112384774	-8.238000E+00	  0.112384774	4.769900E+01	  0.112384774	6.760100E+01	  0.112384774	4.556500E+01
463	  0.112585172	-8.240000E+00	  0.112585172	4.696700E+01	  0.112585172	6.839300E+01	  0.112585172	4.554800E+01
464	  0.112785570	-8.252000E+00	  0.112785570	4.628200E+01	  0.112785570	6.913900E+01	  0.112785570	4.544200E+01
465	  0.112985976	-8.275000E+00	  0.112985976	4.548100E+01	  0.112985976	7.001300E+01	  0.112985976	4.523500E+01
466	  0.113186374	-8.288000E+00	  0.113186374	4.464900E+01	  0.113186374	7.093100E+01	  0.113186374	4.507900E+01
467	  0.113386773	-8.313000E+00	  0.113386773	4.383100E+01	  0.113386773	7.183100E+01	  0.113386773	4.481200E+01
468	  0.113587178	-8.329000E+00	  0.113587178	4.294500E+01	  0.113587178	7.281700E+01	  0.113587178	4.457900E+01
469	  0.113787577	-8.351000E+00	  0.113787577	4.209200E+01	  0.113787577	7.376400E+01	  0.113787577	4.428300E+01
470	  0.113987975	-8.379000E+00	  0.113987975	4.117500E+01	  0.113987975	7.477800E+01	  0.113987975	4.389800E+01
471	  0.114188381	-8.400000E+00	  0.114188381	4.024900E+01	  0.114188381	7.581200E+01	  0.114188381	4.353700E+01
472	  0.114388779	-8.425000E+00	  0.114388779	3.921000E+01	  0.114388779	7.696900E+01	  0.114388779	4.308300E+01
473	  0.114589177	-8.440000E+00	  0.114589177	3.825800E+01	  0.114589177	7.804500E+01	  0.114589177	4.268900E+01
474	  0.114789583	-8.453000E+00	  0.114789583	3.727400E+01	  0.114789583	7.916400E+01	  0.114789583	4.226900E+01
475	  0.114989981	-8.467000E+00	  0.114989981	3.621300E+01	  0.114989981	8.037200E+01	  0.114989981	4.177000E+01
476	  0.115190387	-8.485000E+00	  0.115190387	3.525600E+01	  0.115190387	8.144500E+01	  0.115190387	4.124400E+01
477	  0.115390785	-8.497000E+00	  0.115390785	3.422400E+01	  0.115390785	8.262100E+01	  0.115390785	4.069400E+01
478	  0.115591183	-8.509000E+00	  0.115591183	3.322600E+01	  0.115591183	8.375300E+01	  0.115591183	4.011300E+01
479	  0.115791589	-8.528000E+00	  0.115791589	3.224200E+01	  0.115791589	8.483900E+01	  0.115791589	3.944700E+01
480	  0.115991987	-8.530000E+00	  0.115991987	3.129100E+01	  0.115991987	8.594200E+01	  0.115991987	3.889200E+01
481	  0.116192386	-8.550000E+00	  0.116192386	3.031500E+01	  0.116192386	8.699700E+01	  0.116192386	3.814300E+01
482	  0.116392791	-8.566000E+00	  0.116392791	2.938300E+01	  0.116392791	8.800300E+01	  0.116392791	3.741400E+01
483	  0.116593190	-8.587000E+00	  0.116593190	2.839900E+01	  0.116593190	8.902900E+01	  0.116593190	3.657000E+01
484	  0.116793588	-8.613000E+00	  0.116793588	2.747100E+01	  0.116793588	8.995300E+01	  0.116793588	3.569900E+01
485	  0.116993994	-8.642000E+00	  0.116993994	2.653500E+01	  0.116993994	9.084400E+01	  0.116993994	3.476000E+01
486	  0.117194392	-8.674000E+00	  0.117194392	2.558500E+01	  0.117194392	9.171200E+01	  0.117194392	3.376100E+01
487	  0.117394790	-8.715000E+00	  0.117394790	2.466600E+01	  0.117394790	9.246000E+01	  0.117394790	3.268600E+01
488	  0.117595196	-8.767000E+00	  0.117595196	2.372100E+01	  0.117595196	9.314300E+01	  0.117595196	3.149600E+01
489	  0.117795594	-8.814000E+00	  0.117795594	2.274500E+01	  0.117795594	9.383800E+01	  0.117795594	3.027900E+01
490	  0.117995992	-8.866000E+00	  0.117995992	2.171900E+01	  0.117995992	9.451100E+01	  0.117995992	2.896400E+01
491	  0.118196398	-8.934000E+00	  0.118196398	2.065500E+01	  0.118196398	9.506000E+01	  0.118196398	2.749000E+01
492	  0.118396796	-9.010000E+00	  0.118396796	1.965200E+01	  0.118396796	9.544000E+01	  0.118396796	2.601900E+01
493	  0.118597202	-9.076000E+00	  0.118597202	1.851800E+01	  0.118597202	9.593800E+01	  0.118597202	2.446000E+01
494	  0.118797600	-9.153000E+00	  0.118797600	1.744400E+01	  0.118797600	9.624000E+01	  0.118797600	2.289600E+01
495	  0.118997999	-9.236000E+00	  0.118997999	1.626000E+01	  0.118997999	9.651700E+01	  0.118997999	2.118800E+01
496	  0.119198404	-9.311000E+00	  0.119198404	1.503700E+01	  0.119198404	9.680400E+01	  0.119198404	1.947800E+01
497	  0.119398803	-9.392000E+00	  0.119398803	1.371500E+01	  0.119398803	9.702300E+01	  0.119398803	1.763100E+01
498	  0.119599201	-9.478000E+00	  0.119599201	1.247400E+01	  0.119599201	9.706800E+01	  0.119599201	1.587000E+01
499	  0.119799607	-9.570000E+00	  0.119799607	1.116900E+01	  0.119799607	9.701700E+01	  0.119799607	1.403800E+01
500	  0.120000005	-9.663000E+00	  0.120000005	9.822000E+00	  0.120000005	9.689600E+01	  0.120000005	1.218300E+01
