! Anritsu VNA Master:             	Model: MS2036C/10/77
! SN:             	1601066
! /card0/usr/18may27.balun/5b.r50.txt
! Existing Calibration Information:
! TYPE:             	Current Settings	Active Cal Settings
! TIME:             	05/27/2018 03:35:45 PM	05/27/2018 03:21:57 PM
! INTERNAL TEMP:    	53.3 C	52.3 C
! # POINTS:         	500	500
! START FREQ:       	20.000 MHz	20.000 MHz
! STOP FREQ:        	120.000 MHz	120.000 MHz
! SOURCE POWER:     	High	High
! IFBW:             	50 Hz	50 Hz
! AVG FACTOR:       	  1 	  1 
! REF PLANE 1:      	0 mm	0 mm
! REF PLANE 2:      	0 mm	0 mm
! CAL TYPE:         	Full S11	Full S11
! CAL METHOD:       	SOLT	SOLT
! CAL LINE TYPE:    	Coax	Coax
! DUT PORT 1:       	K-Conn(M)	K-Conn(M)
! DUT PORT 2:       	K-Conn(M)	K-Conn(M)
! CAL STATUS:       	OK: Accuracy High	--
! PROP-V:       	0.700
! CABLE LOSS:       	0.000 dB/m
! REF IMPEDANCE:       	50.0
! Trace Specific Parameters:	TR1	TR2	TR3	TR4
! TRACE.#.Y (GRAPH TYPE)	LOG MAG	PHASE	REAL IMPEDANCE	IMAGINARY IMPEDANCE
! TRACE.#.X 	FREQ.GHZ	FREQ.GHZ	FREQ.GHZ	FREQ.GHZ
! S-PARAMETER	S11	S11	S11	S11
! SMOOTH/APERTURE %	0	0	0	0
! WINDOW	NSL	NSL	NSL	NSL
! GATING	OFF	OFF	OFF	OFF
! FGTD	OFF	OFF	OFF	OFF
Marker Information per Trace:	TR1	TR2	TR3	TR4
!MK1	--	--	--	"MK1 TR4:  70.100 200 MHz,Z:(52.417 ohm, 1.716 ohm)"
!MK2	--	--	--	--
!MK3	--	--	--	--
!MK4	--	--	--	--
!MK5	--	--	--	--
!MK6	--	--	--	--
!MK7	--	--	--	--
!MK8	--	--	--	--
PNT	TR1.FREQ.GHZ	TR1.LOG MAG.dB	TR2.FREQ.GHZ	TR2.PHASE.deg	TR3.FREQ.GHZ	TR3.REAL IMPEDANCE.ohm	TR4.FREQ.GHZ	TR4.IMAGINARY IMPEDANCE.ohm
1	  0.020000000	-3.855900E+01	  0.020000000	4.449600E+01	  0.020000000	5.084200E+01	  0.020000000	8.410000E-01
2	  0.020200402	-3.813700E+01	  0.020200402	4.431500E+01	  0.020200402	5.088600E+01	  0.020200402	8.810000E-01
3	  0.020400802	-3.767100E+01	  0.020400802	4.423400E+01	  0.020400802	5.093700E+01	  0.020400802	9.290000E-01
4	  0.020601204	-3.728300E+01	  0.020601204	4.524400E+01	  0.020601204	5.096200E+01	  0.020601204	9.890000E-01
5	  0.020801604	-3.692000E+01	  0.020801604	4.643700E+01	  0.020801604	5.098100E+01	  0.020801604	1.053000E+00
6	  0.021002004	-3.660100E+01	  0.021002004	4.763500E+01	  0.021002004	5.099400E+01	  0.021002004	1.114000E+00
7	  0.021202406	-3.640200E+01	  0.021202406	4.991300E+01	  0.021202406	5.097000E+01	  0.021202406	1.180000E+00
8	  0.021402806	-3.621600E+01	  0.021402806	5.160000E+01	  0.021402806	5.095400E+01	  0.021402806	1.234000E+00
9	  0.021603208	-3.609700E+01	  0.021603208	5.420200E+01	  0.021603208	5.090800E+01	  0.021603208	1.294000E+00
10	  0.021803608	-3.609000E+01	  0.021803608	5.642700E+01	  0.021803608	5.085700E+01	  0.021803608	1.329000E+00
11	  0.022004008	-3.609400E+01	  0.022004008	5.879100E+01	  0.022004008	5.080000E+01	  0.022004008	1.362000E+00
12	  0.022204408	-3.618800E+01	  0.022204408	6.088700E+01	  0.022204408	5.074100E+01	  0.022204408	1.375000E+00
13	  0.022404809	-3.630500E+01	  0.022404809	6.243100E+01	  0.022404809	5.069400E+01	  0.022404809	1.375000E+00
14	  0.022605211	-3.645700E+01	  0.022605211	6.441700E+01	  0.022605211	5.063400E+01	  0.022605211	1.373000E+00
15	  0.022805611	-3.675300E+01	  0.022805611	6.530500E+01	  0.022805611	5.059300E+01	  0.022805611	1.336000E+00
16	  0.023006011	-3.711400E+01	  0.023006011	6.668400E+01	  0.023006011	5.053800E+01	  0.023006011	1.294000E+00
17	  0.023206413	-3.738300E+01	  0.023206413	6.672100E+01	  0.023206413	5.052100E+01	  0.023206413	1.254000E+00
18	  0.023406813	-3.789200E+01	  0.023406813	6.649300E+01	  0.023406813	5.049700E+01	  0.023406813	1.180000E+00
19	  0.023607215	-3.813100E+01	  0.023607215	6.526100E+01	  0.023607215	5.050800E+01	  0.023607215	1.137000E+00
20	  0.023807615	-3.852700E+01	  0.023807615	6.365000E+01	  0.023807615	5.051700E+01	  0.023807615	1.072000E+00
21	  0.024008015	-3.881200E+01	  0.024008015	6.073600E+01	  0.024008015	5.055300E+01	  0.024008015	1.011000E+00
22	  0.024208417	-3.899700E+01	  0.024208417	5.808700E+01	  0.024208417	5.058700E+01	  0.024208417	9.640000E-01
23	  0.024408817	-3.895300E+01	  0.024408817	5.467600E+01	  0.024408817	5.064700E+01	  0.024408817	9.320000E-01
24	  0.024609219	-3.892300E+01	  0.024609219	5.188900E+01	  0.024609219	5.069500E+01	  0.024609219	9.030000E-01
25	  0.024809619	-3.869300E+01	  0.024809619	4.934600E+01	  0.024809619	5.075500E+01	  0.024809619	8.950000E-01
26	  0.025010020	-3.826700E+01	  0.025010020	4.629000E+01	  0.025010020	5.084200E+01	  0.025010020	8.970000E-01
27	  0.025210422	-3.788500E+01	  0.025210422	4.436100E+01	  0.025210422	5.091200E+01	  0.025210422	9.080000E-01
28	  0.025410822	-3.738700E+01	  0.025410822	4.343600E+01	  0.025410822	5.098100E+01	  0.025410822	9.470000E-01
29	  0.025611224	-3.694900E+01	  0.025611224	4.327300E+01	  0.025611224	5.103500E+01	  0.025611224	9.940000E-01
30	  0.025811624	-3.655900E+01	  0.025811624	4.390000E+01	  0.025811624	5.107100E+01	  0.025811624	1.052000E+00
31	  0.026012026	-3.604700E+01	  0.026012026	4.502000E+01	  0.026012026	5.111300E+01	  0.026012026	1.140000E+00
32	  0.026212426	-3.580500E+01	  0.026212426	4.616000E+01	  0.026212426	5.112100E+01	  0.026212426	1.195000E+00
33	  0.026412826	-3.545700E+01	  0.026412826	4.779600E+01	  0.026412826	5.113000E+01	  0.026412826	1.278000E+00
34	  0.026613226	-3.529800E+01	  0.026613226	4.987800E+01	  0.026613226	5.110100E+01	  0.026613226	1.343000E+00
35	  0.026813626	-3.512000E+01	  0.026813626	5.236800E+01	  0.026813626	5.106200E+01	  0.026813626	1.418000E+00
36	  0.027014028	-3.508200E+01	  0.027014028	5.455300E+01	  0.027014028	5.101000E+01	  0.027014028	1.464000E+00
37	  0.027214428	-3.509200E+01	  0.027214428	5.643900E+01	  0.027214428	5.096000E+01	  0.027214428	1.494000E+00
38	  0.027414829	-3.509900E+01	  0.027414829	5.913300E+01	  0.027414829	5.088600E+01	  0.027414829	1.536000E+00
39	  0.027615231	-3.526500E+01	  0.027615231	6.109400E+01	  0.027615231	5.081700E+01	  0.027615231	1.534000E+00
40	  0.027815631	-3.541800E+01	  0.027815631	6.262100E+01	  0.027815631	5.076200E+01	  0.027815631	1.528000E+00
41	  0.028016033	-3.572900E+01	  0.028016033	6.457000E+01	  0.028016033	5.068400E+01	  0.028016033	1.497000E+00
42	  0.028216433	-3.600200E+01	  0.028216433	6.599100E+01	  0.028216433	5.062700E+01	  0.028216433	1.465000E+00
43	  0.028416833	-3.635300E+01	  0.028416833	6.644800E+01	  0.028416833	5.059100E+01	  0.028416833	1.411000E+00
44	  0.028617235	-3.679400E+01	  0.028617235	6.726500E+01	  0.028617235	5.054300E+01	  0.028617235	1.348000E+00
45	  0.028817635	-3.725800E+01	  0.028817635	6.680400E+01	  0.028817635	5.052600E+01	  0.028817635	1.273000E+00
46	  0.029018037	-3.769000E+01	  0.029018037	6.547400E+01	  0.029018037	5.053000E+01	  0.029018037	1.199000E+00
47	  0.029218437	-3.816600E+01	  0.029218437	6.339800E+01	  0.029218437	5.054300E+01	  0.029218437	1.116000E+00
48	  0.029418837	-3.853900E+01	  0.029418837	6.061000E+01	  0.029418837	5.057300E+01	  0.029418837	1.042000E+00
49	  0.029619239	-3.877300E+01	  0.029619239	5.692100E+01	  0.029619239	5.062300E+01	  0.029619239	9.770000E-01
50	  0.029819639	-3.881300E+01	  0.029819639	5.267400E+01	  0.029819639	5.069100E+01	  0.029819639	9.240000E-01
51	  0.030020041	-3.874000E+01	  0.030020041	4.802600E+01	  0.030020041	5.077100E+01	  0.030020041	8.720000E-01
52	  0.030220442	-3.850000E+01	  0.030220442	4.477900E+01	  0.030220442	5.084300E+01	  0.030220442	8.510000E-01
53	  0.030420844	-3.799400E+01	  0.030420844	4.142300E+01	  0.030420844	5.094600E+01	  0.030420844	8.490000E-01
54	  0.030621244	-3.747000E+01	  0.030621244	3.911600E+01	  0.030621244	5.104100E+01	  0.030621244	8.610000E-01
55	  0.030821644	-3.697000E+01	  0.030821644	3.795600E+01	  0.030821644	5.112200E+01	  0.030821644	8.910000E-01
56	  0.031022044	-3.637300E+01	  0.031022044	3.741900E+01	  0.031022044	5.121100E+01	  0.031022044	9.450000E-01
57	  0.031222444	-3.586200E+01	  0.031222444	3.765700E+01	  0.031222444	5.128100E+01	  0.031222444	1.009000E+00
58	  0.031422846	-3.530500E+01	  0.031422846	3.855200E+01	  0.031422846	5.134900E+01	  0.031422846	1.099000E+00
59	  0.031623244	-3.499300E+01	  0.031623244	3.990400E+01	  0.031623244	5.137000E+01	  0.031623244	1.173000E+00
60	  0.031823646	-3.460900E+01	  0.031823646	4.174200E+01	  0.031823646	5.139100E+01	  0.031823646	1.273000E+00
61	  0.032024048	-3.436900E+01	  0.032024048	4.391700E+01	  0.032024048	5.137800E+01	  0.032024048	1.363000E+00
62	  0.032224450	-3.416900E+01	  0.032224450	4.597000E+01	  0.032224450	5.135800E+01	  0.032224450	1.445000E+00
63	  0.032424849	-3.405000E+01	  0.032424849	4.883700E+01	  0.032424849	5.129900E+01	  0.032424849	1.532000E+00
64	  0.032625251	-3.402500E+01	  0.032625251	5.119200E+01	  0.032625251	5.123700E+01	  0.032625251	1.589000E+00
65	  0.032825653	-3.399200E+01	  0.032825653	5.308600E+01	  0.032825653	5.118700E+01	  0.032825653	1.635000E+00
66	  0.033026051	-3.412100E+01	  0.033026051	5.567700E+01	  0.033026051	5.109400E+01	  0.033026051	1.661000E+00
67	  0.033226453	-3.425300E+01	  0.033226453	5.781200E+01	  0.033226453	5.101500E+01	  0.033226453	1.674000E+00
68	  0.033426855	-3.453600E+01	  0.033426855	5.976000E+01	  0.033426855	5.092600E+01	  0.033426855	1.651000E+00
69	  0.033627257	-3.473700E+01	  0.033627257	6.150000E+01	  0.033627257	5.085500E+01	  0.033627257	1.638000E+00
70	  0.033827655	-3.510100E+01	  0.033827655	6.254300E+01	  0.033827655	5.079200E+01	  0.033827655	1.584000E+00
71	  0.034028057	-3.553700E+01	  0.034028057	6.324600E+01	  0.034028057	5.073500E+01	  0.034028057	1.514000E+00
72	  0.034228459	-3.599900E+01	  0.034228459	6.333500E+01	  0.034228459	5.069500E+01	  0.034228459	1.436000E+00
73	  0.034428857	-3.646500E+01	  0.034428857	6.242100E+01	  0.034428857	5.068200E+01	  0.034428857	1.349000E+00
74	  0.034629259	-3.686900E+01	  0.034629259	6.072000E+01	  0.034629259	5.069000E+01	  0.034629259	1.268000E+00
75	  0.034829661	-3.727100E+01	  0.034829661	5.847500E+01	  0.034829661	5.070700E+01	  0.034829661	1.183000E+00
76	  0.035030060	-3.756900E+01	  0.035030060	5.483900E+01	  0.035030060	5.075500E+01	  0.035030060	1.098000E+00
77	  0.035230462	-3.780300E+01	  0.035230462	5.057900E+01	  0.035230462	5.081400E+01	  0.035230462	1.011000E+00
78	  0.035430863	-3.768500E+01	  0.035430863	4.694700E+01	  0.035430863	5.088900E+01	  0.035430863	9.710000E-01
79	  0.035631265	-3.759400E+01	  0.035631265	4.309000E+01	  0.035631265	5.096400E+01	  0.035631265	9.180000E-01
80	  0.035831664	-3.722800E+01	  0.035831664	3.988300E+01	  0.035831664	5.105800E+01	  0.035831664	9.010000E-01
81	  0.036032066	-3.683900E+01	  0.036032066	3.727000E+01	  0.036032066	5.115000E+01	  0.036032066	8.910000E-01
82	  0.036232468	-3.628200E+01	  0.036232468	3.513600E+01	  0.036232468	5.126200E+01	  0.036232468	9.050000E-01
83	  0.036432866	-3.583900E+01	  0.036432866	3.439900E+01	  0.036432866	5.134100E+01	  0.036432866	9.360000E-01
84	  0.036633268	-3.538800E+01	  0.036633268	3.443900E+01	  0.036633268	5.141200E+01	  0.036633268	9.890000E-01
85	  0.036833670	-3.480000E+01	  0.036833670	3.447400E+01	  0.036833670	5.151100E+01	  0.036833670	1.061000E+00
86	  0.037034072	-3.446700E+01	  0.037034072	3.603900E+01	  0.037034072	5.153900E+01	  0.037034072	1.147000E+00
87	  0.037234470	-3.399700E+01	  0.037234470	3.663600E+01	  0.037234470	5.161200E+01	  0.037234470	1.229000E+00
88	  0.037434869	-3.375400E+01	  0.037434869	3.892900E+01	  0.037434869	5.160500E+01	  0.037434869	1.331000E+00
89	  0.037635271	-3.354700E+01	  0.037635271	4.055900E+01	  0.037635271	5.160300E+01	  0.037635271	1.411000E+00
90	  0.037835669	-3.336400E+01	  0.037835669	4.286700E+01	  0.037835669	5.157600E+01	  0.037835669	1.507000E+00
91	  0.038036071	-3.326200E+01	  0.038036071	4.519600E+01	  0.038036071	5.152900E+01	  0.038036071	1.589000E+00
92	  0.038236473	-3.324600E+01	  0.038236473	4.754500E+01	  0.038236473	5.146300E+01	  0.038236473	1.653000E+00
93	  0.038436871	-3.326500E+01	  0.038436871	4.925600E+01	  0.038436871	5.140900E+01	  0.038436871	1.692000E+00
94	  0.038637273	-3.338700E+01	  0.038637273	5.141100E+01	  0.038637273	5.132400E+01	  0.038637273	1.718000E+00
95	  0.038837675	-3.358000E+01	  0.038837675	5.333400E+01	  0.038837675	5.123600E+01	  0.038837675	1.721000E+00
96	  0.039038073	-3.376700E+01	  0.039038073	5.492000E+01	  0.039038073	5.116200E+01	  0.039038073	1.716000E+00
97	  0.039238475	-3.410700E+01	  0.039238475	5.618200E+01	  0.039238475	5.108100E+01	  0.039238475	1.673000E+00
98	  0.039438877	-3.438300E+01	  0.039438877	5.715300E+01	  0.039438877	5.101900E+01	  0.039438877	1.637000E+00
99	  0.039639279	-3.476800E+01	  0.039639279	5.737500E+01	  0.039639279	5.097000E+01	  0.039639279	1.568000E+00
100	  0.039839678	-3.508800E+01	  0.039839678	5.683900E+01	  0.039839678	5.094900E+01	  0.039839678	1.502000E+00
101	  0.040040080	-3.548800E+01	  0.040040080	5.629200E+01	  0.040040080	5.092100E+01	  0.040040080	1.424000E+00
102	  0.040240481	-3.576900E+01	  0.040240481	5.469800E+01	  0.040240481	5.093100E+01	  0.040240481	1.353000E+00
103	  0.040440880	-3.617500E+01	  0.040440880	5.324600E+01	  0.040440880	5.092200E+01	  0.040440880	1.267000E+00
104	  0.040641282	-3.637000E+01	  0.040641282	4.947100E+01	  0.040641282	5.098200E+01	  0.040641282	1.177000E+00
105	  0.040841684	-3.653500E+01	  0.040841684	4.702400E+01	  0.040841684	5.101300E+01	  0.040841684	1.112000E+00
106	  0.041042086	-3.646100E+01	  0.041042086	4.277500E+01	  0.041042086	5.110400E+01	  0.041042086	1.043000E+00
107	  0.041242484	-3.627600E+01	  0.041242484	3.965400E+01	  0.041242484	5.118600E+01	  0.041242484	1.003000E+00
108	  0.041442886	-3.602200E+01	  0.041442886	3.691800E+01	  0.041442886	5.127000E+01	  0.041442886	9.730000E-01
109	  0.041643288	-3.568900E+01	  0.041643288	3.466900E+01	  0.041643288	5.136000E+01	  0.041643288	9.600000E-01
110	  0.041843686	-3.521900E+01	  0.041843686	3.294900E+01	  0.041843686	5.146700E+01	  0.041843686	9.710000E-01
111	  0.042044088	-3.477200E+01	  0.042044088	3.198600E+01	  0.042044088	5.156200E+01	  0.042044088	9.970000E-01
112	  0.042244490	-3.433800E+01	  0.042244490	3.173700E+01	  0.042244490	5.164800E+01	  0.042244490	1.043000E+00
113	  0.042444889	-3.400200E+01	  0.042444889	3.212700E+01	  0.042444889	5.170600E+01	  0.042444889	1.097000E+00
114	  0.042645290	-3.359600E+01	  0.042645290	3.281900E+01	  0.042645290	5.177400E+01	  0.042645290	1.173000E+00
115	  0.042845692	-3.329700E+01	  0.042845692	3.373700E+01	  0.042845692	5.181600E+01	  0.042845692	1.245000E+00
116	  0.043046094	-3.303700E+01	  0.043046094	3.528000E+01	  0.043046094	5.183500E+01	  0.043046094	1.335000E+00
117	  0.043246493	-3.285900E+01	  0.043246493	3.674700E+01	  0.043246493	5.183700E+01	  0.043246493	1.412000E+00
118	  0.043446895	-3.267200E+01	  0.043446895	3.806400E+01	  0.043446895	5.184200E+01	  0.043446895	1.486000E+00
119	  0.043647297	-3.258700E+01	  0.043647297	3.998500E+01	  0.043647297	5.180700E+01	  0.043647297	1.563000E+00
120	  0.043847695	-3.249100E+01	  0.043847695	4.128700E+01	  0.043847695	5.179000E+01	  0.043847695	1.623000E+00
121	  0.044048097	-3.250300E+01	  0.044048097	4.315500E+01	  0.044048097	5.173100E+01	  0.044048097	1.678000E+00
122	  0.044248499	-3.254000E+01	  0.044248499	4.453300E+01	  0.044248499	5.168200E+01	  0.044248499	1.712000E+00
123	  0.044448901	-3.264100E+01	  0.044448901	4.592200E+01	  0.044448901	5.162000E+01	  0.044448901	1.731000E+00
124	  0.044649299	-3.272200E+01	  0.044649299	4.717600E+01	  0.044649299	5.156600E+01	  0.044649299	1.749000E+00
125	  0.044849701	-3.290900E+01	  0.044849701	4.806200E+01	  0.044849701	5.150500E+01	  0.044849701	1.734000E+00
126	  0.045050103	-3.311800E+01	  0.045050103	4.870300E+01	  0.045050103	5.145000E+01	  0.045050103	1.708000E+00
127	  0.045250501	-3.327200E+01	  0.045250501	4.924700E+01	  0.045250501	5.140800E+01	  0.045250501	1.690000E+00
128	  0.045450903	-3.350100E+01	  0.045450903	4.900700E+01	  0.045450903	5.137900E+01	  0.045450903	1.639000E+00
129	  0.045651305	-3.371400E+01	  0.045651305	4.916500E+01	  0.045651305	5.134100E+01	  0.045651305	1.602000E+00
130	  0.045851704	-3.384100E+01	  0.045851704	4.842800E+01	  0.045851704	5.134200E+01	  0.045851704	1.561000E+00
131	  0.046052106	-3.413500E+01	  0.046052106	4.736000E+01	  0.046052106	5.132600E+01	  0.046052106	1.483000E+00
132	  0.046252504	-3.419600E+01	  0.046252504	4.619500E+01	  0.046252504	5.134800E+01	  0.046252504	1.446000E+00
133	  0.046452906	-3.424600E+01	  0.046452906	4.414500E+01	  0.046452906	5.139200E+01	  0.046452906	1.388000E+00
134	  0.046653304	-3.428500E+01	  0.046653304	4.300500E+01	  0.046653304	5.141400E+01	  0.046653304	1.354000E+00
135	  0.046853706	-3.427700E+01	  0.046853706	4.168500E+01	  0.046853706	5.144700E+01	  0.046853706	1.322000E+00
136	  0.047054108	-3.412100E+01	  0.047054108	3.979600E+01	  0.047054108	5.151800E+01	  0.047054108	1.298000E+00
137	  0.047254506	-3.398800E+01	  0.047254506	3.883000E+01	  0.047254506	5.156400E+01	  0.047254506	1.292000E+00
138	  0.047454908	-3.373400E+01	  0.047454908	3.787500E+01	  0.047454908	5.163300E+01	  0.047454908	1.304000E+00
139	  0.047655310	-3.352100E+01	  0.047655310	3.778300E+01	  0.047655310	5.167600E+01	  0.047655310	1.335000E+00
140	  0.047855709	-3.336200E+01	  0.047855709	3.738600E+01	  0.047855709	5.171700E+01	  0.047855709	1.349000E+00
141	  0.048056111	-3.314400E+01	  0.048056111	3.730200E+01	  0.048056111	5.176300E+01	  0.048056111	1.382000E+00
142	  0.048256513	-3.298600E+01	  0.048256513	3.738800E+01	  0.048256513	5.179400E+01	  0.048256513	1.411000E+00
143	  0.048456915	-3.283600E+01	  0.048456915	3.798100E+01	  0.048456915	5.181000E+01	  0.048456915	1.455000E+00
144	  0.048657313	-3.268800E+01	  0.048657313	3.878800E+01	  0.048657313	5.181900E+01	  0.048657313	1.507000E+00
145	  0.048857715	-3.257700E+01	  0.048857715	3.925800E+01	  0.048857715	5.183000E+01	  0.048857715	1.542000E+00
146	  0.049058117	-3.253700E+01	  0.049058117	4.036000E+01	  0.049058117	5.180700E+01	  0.049058117	1.585000E+00
147	  0.049258515	-3.244900E+01	  0.049258515	4.129200E+01	  0.049258515	5.179800E+01	  0.049258515	1.631000E+00
148	  0.049458917	-3.244100E+01	  0.049458917	4.182500E+01	  0.049458917	5.178400E+01	  0.049458917	1.649000E+00
149	  0.049659319	-3.251600E+01	  0.049659319	4.271100E+01	  0.049659319	5.174200E+01	  0.049659319	1.662000E+00
150	  0.049859721	-3.253000E+01	  0.049859721	4.365300E+01	  0.049859721	5.171100E+01	  0.049859721	1.687000E+00
151	  0.050060119	-3.258000E+01	  0.050060119	4.422200E+01	  0.050060119	5.168400E+01	  0.050060119	1.694000E+00
152	  0.050260521	-3.270500E+01	  0.050260521	4.442200E+01	  0.050260521	5.165400E+01	  0.050260521	1.675000E+00
153	  0.050460923	-3.280100E+01	  0.050460923	4.491000E+01	  0.050460923	5.162100E+01	  0.050460923	1.670000E+00
154	  0.050661322	-3.282800E+01	  0.050661322	4.516900E+01	  0.050661322	5.160800E+01	  0.050661322	1.672000E+00
155	  0.050861724	-3.298600E+01	  0.050861724	4.459400E+01	  0.050861724	5.159600E+01	  0.050861724	1.625000E+00
156	  0.051062126	-3.310200E+01	  0.051062126	4.501300E+01	  0.051062126	5.156300E+01	  0.051062126	1.614000E+00
157	  0.051262524	-3.322300E+01	  0.051262524	4.405400E+01	  0.051262524	5.156800E+01	  0.051262524	1.565000E+00
158	  0.051462926	-3.327800E+01	  0.051462926	4.352200E+01	  0.051462926	5.157300E+01	  0.051462926	1.540000E+00
159	  0.051663328	-3.338000E+01	  0.051663328	4.270000E+01	  0.051663328	5.157700E+01	  0.051663328	1.499000E+00
160	  0.051863730	-3.338200E+01	  0.051863730	4.222900E+01	  0.051863730	5.159000E+01	  0.051863730	1.486000E+00
161	  0.052064128	-3.337400E+01	  0.052064128	4.080700E+01	  0.052064128	5.162900E+01	  0.052064128	1.447000E+00
162	  0.052264530	-3.335300E+01	  0.052264530	4.033700E+01	  0.052264530	5.164500E+01	  0.052264530	1.437000E+00
163	  0.052464932	-3.323300E+01	  0.052464932	3.930800E+01	  0.052464932	5.169500E+01	  0.052464932	1.428000E+00
164	  0.052665330	-3.323200E+01	  0.052665330	3.866900E+01	  0.052665330	5.171100E+01	  0.052665330	1.409000E+00
165	  0.052865732	-3.307800E+01	  0.052865732	3.823700E+01	  0.052865732	5.175300E+01	  0.052865732	1.421000E+00
166	  0.053066134	-3.302600E+01	  0.053066134	3.808400E+01	  0.053066134	5.176800E+01	  0.053066134	1.426000E+00
167	  0.053266536	-3.294000E+01	  0.053266536	3.749900E+01	  0.053266536	5.180100E+01	  0.053266536	1.422000E+00
168	  0.053466935	-3.282600E+01	  0.053466935	3.753900E+01	  0.053466935	5.182300E+01	  0.053466935	1.443000E+00
169	  0.053667337	-3.271600E+01	  0.053667337	3.738900E+01	  0.053667337	5.185100E+01	  0.053667337	1.457000E+00
170	  0.053867739	-3.262900E+01	  0.053867739	3.716400E+01	  0.053867739	5.187600E+01	  0.053867739	1.465000E+00
171	  0.054068137	-3.257500E+01	  0.054068137	3.774700E+01	  0.054068137	5.187200E+01	  0.054068137	1.493000E+00
172	  0.054268539	-3.250000E+01	  0.054268539	3.767700E+01	  0.054268539	5.189000E+01	  0.054268539	1.504000E+00
173	  0.054468941	-3.247600E+01	  0.054468941	3.821700E+01	  0.054468941	5.188000E+01	  0.054468941	1.527000E+00
174	  0.054669339	-3.240400E+01	  0.054669339	3.840300E+01	  0.054669339	5.189100E+01	  0.054669339	1.546000E+00
175	  0.054869737	-3.243500E+01	  0.054869737	3.866500E+01	  0.054869737	5.187700E+01	  0.054869737	1.549000E+00
176	  0.055070139	-3.244300E+01	  0.055070139	3.876900E+01	  0.055070139	5.187200E+01	  0.055070139	1.551000E+00
177	  0.055270538	-3.239200E+01	  0.055270538	3.921400E+01	  0.055270538	5.187000E+01	  0.055270538	1.575000E+00
178	  0.055470940	-3.248400E+01	  0.055470940	3.920600E+01	  0.055470940	5.185100E+01	  0.055470940	1.558000E+00
179	  0.055671342	-3.254000E+01	  0.055671342	3.916100E+01	  0.055671342	5.184000E+01	  0.055671342	1.546000E+00
180	  0.055871744	-3.254500E+01	  0.055871744	3.898000E+01	  0.055871744	5.184400E+01	  0.055871744	1.539000E+00
181	  0.056072142	-3.256400E+01	  0.056072142	3.892700E+01	  0.056072142	5.184200E+01	  0.056072142	1.534000E+00
182	  0.056272544	-3.257700E+01	  0.056272544	3.848100E+01	  0.056272544	5.185100E+01	  0.056272544	1.517000E+00
183	  0.056472946	-3.261000E+01	  0.056472946	3.808700E+01	  0.056472946	5.185500E+01	  0.056472946	1.498000E+00
184	  0.056673344	-3.265300E+01	  0.056673344	3.825300E+01	  0.056673344	5.184100E+01	  0.056673344	1.496000E+00
185	  0.056873746	-3.265500E+01	  0.056873746	3.771200E+01	  0.056873746	5.185500E+01	  0.056873746	1.478000E+00
186	  0.057074148	-3.261900E+01	  0.057074148	3.736000E+01	  0.057074148	5.187300E+01	  0.057074148	1.473000E+00
187	  0.057274550	-3.258800E+01	  0.057274550	3.676400E+01	  0.057274550	5.189500E+01	  0.057274550	1.459000E+00
188	  0.057474948	-3.254100E+01	  0.057474948	3.645400E+01	  0.057474948	5.191400E+01	  0.057474948	1.456000E+00
189	  0.057675350	-3.252400E+01	  0.057675350	3.606600E+01	  0.057675350	5.192800E+01	  0.057675350	1.446000E+00
190	  0.057875752	-3.246400E+01	  0.057875752	3.575100E+01	  0.057875752	5.194900E+01	  0.057875752	1.446000E+00
191	  0.058076151	-3.244000E+01	  0.058076151	3.545100E+01	  0.058076151	5.196300E+01	  0.058076151	1.440000E+00
192	  0.058276553	-3.237400E+01	  0.058276553	3.552700E+01	  0.058276553	5.197600E+01	  0.058276553	1.454000E+00
193	  0.058476955	-3.229200E+01	  0.058476955	3.520400E+01	  0.058476955	5.200300E+01	  0.058476955	1.457000E+00
194	  0.058677353	-3.227100E+01	  0.058677353	3.552300E+01	  0.058677353	5.200000E+01	  0.058677353	1.472000E+00
195	  0.058877755	-3.225900E+01	  0.058877755	3.563400E+01	  0.058877755	5.200000E+01	  0.058877755	1.478000E+00
196	  0.059078157	-3.218700E+01	  0.059078157	3.528300E+01	  0.059078157	5.202600E+01	  0.059078157	1.478000E+00
197	  0.059278559	-3.221800E+01	  0.059278559	3.527800E+01	  0.059278559	5.201900E+01	  0.059278559	1.472000E+00
198	  0.059478957	-3.223900E+01	  0.059478957	3.548900E+01	  0.059478957	5.200800E+01	  0.059478957	1.476000E+00
199	  0.059679359	-3.215600E+01	  0.059679359	3.523300E+01	  0.059679359	5.203400E+01	  0.059679359	1.482000E+00
200	  0.059879761	-3.217700E+01	  0.059879761	3.533600E+01	  0.059879761	5.202700E+01	  0.059879761	1.482000E+00
201	  0.060080159	-3.211700E+01	  0.060080159	3.551700E+01	  0.060080159	5.203600E+01	  0.060080159	1.499000E+00
202	  0.060280561	-3.219700E+01	  0.060280561	3.551600E+01	  0.060280561	5.201700E+01	  0.060280561	1.484000E+00
203	  0.060480963	-3.220000E+01	  0.060480963	3.482000E+01	  0.060480963	5.203500E+01	  0.060480963	1.459000E+00
204	  0.060681365	-3.223200E+01	  0.060681365	3.502100E+01	  0.060681365	5.202200E+01	  0.060681365	1.461000E+00
205	  0.060881764	-3.221900E+01	  0.060881764	3.482100E+01	  0.060881764	5.203100E+01	  0.060881764	1.456000E+00
206	  0.061082166	-3.223400E+01	  0.061082166	3.466500E+01	  0.061082166	5.203100E+01	  0.061082166	1.448000E+00
207	  0.061282568	-3.218400E+01	  0.061282568	3.432200E+01	  0.061282568	5.205200E+01	  0.061282568	1.444000E+00
208	  0.061482966	-3.219700E+01	  0.061482966	3.399800E+01	  0.061482966	5.205700E+01	  0.061482966	1.430000E+00
209	  0.061683368	-3.216900E+01	  0.061683368	3.357600E+01	  0.061683368	5.207500E+01	  0.061683368	1.419000E+00
210	  0.061883770	-3.221700E+01	  0.061883770	3.307900E+01	  0.061883770	5.207600E+01	  0.061883770	1.393000E+00
211	  0.062084168	-3.217000E+01	  0.062084168	3.288100E+01	  0.062084168	5.209300E+01	  0.062084168	1.394000E+00
212	  0.062284570	-3.210100E+01	  0.062284570	3.234800E+01	  0.062284570	5.212300E+01	  0.062284570	1.385000E+00
213	  0.062484972	-3.205800E+01	  0.062484972	3.208400E+01	  0.062484972	5.214100E+01	  0.062484972	1.382000E+00
214	  0.062685370	-3.207600E+01	  0.062685370	3.199800E+01	  0.062685370	5.213800E+01	  0.062685370	1.376000E+00
215	  0.062885776	-3.197400E+01	  0.062885776	3.185200E+01	  0.062885776	5.216700E+01	  0.062885776	1.388000E+00
216	  0.063086174	-3.188500E+01	  0.063086174	3.209100E+01	  0.063086174	5.218400E+01	  0.063086174	1.412000E+00
217	  0.063286573	-3.195000E+01	  0.063286573	3.162300E+01	  0.063286573	5.217900E+01	  0.063286573	1.383000E+00
218	  0.063486971	-3.184900E+01	  0.063486971	3.179300E+01	  0.063486971	5.220100E+01	  0.063486971	1.406000E+00
219	  0.063687377	-3.192000E+01	  0.063687377	3.128600E+01	  0.063687377	5.219500E+01	  0.063687377	1.375000E+00
220	  0.063887775	-3.186200E+01	  0.063887775	3.071800E+01	  0.063887775	5.222400E+01	  0.063887775	1.362000E+00
221	  0.064088173	-3.176300E+01	  0.064088173	3.135100E+01	  0.064088173	5.223400E+01	  0.064088173	1.403000E+00
222	  0.064288579	-3.186000E+01	  0.064288579	3.054300E+01	  0.064288579	5.222900E+01	  0.064288579	1.355000E+00
223	  0.064488977	-3.186100E+01	  0.064488977	3.068800E+01	  0.064488977	5.222500E+01	  0.064488977	1.361000E+00
224	  0.064689375	-3.181100E+01	  0.064689375	3.009900E+01	  0.064689375	5.225300E+01	  0.064689375	1.346000E+00
225	  0.064889781	-3.178700E+01	  0.064889781	2.999000E+01	  0.064889781	5.226200E+01	  0.064889781	1.345000E+00
226	  0.065090179	-3.175500E+01	  0.065090179	2.945700E+01	  0.065090179	5.228400E+01	  0.065090179	1.329000E+00
227	  0.065290578	-3.176500E+01	  0.065290578	2.898800E+01	  0.065290578	5.229200E+01	  0.065290578	1.308000E+00
228	  0.065490983	-3.171000E+01	  0.065490983	2.839500E+01	  0.065490983	5.232100E+01	  0.065490983	1.293000E+00
229	  0.065691382	-3.162900E+01	  0.065691382	2.801100E+01	  0.065691382	5.235200E+01	  0.065691382	1.289000E+00
230	  0.065891780	-3.161200E+01	  0.065891780	2.692600E+01	  0.065891780	5.238200E+01	  0.065891780	1.247000E+00
231	  0.066092186	-3.142500E+01	  0.066092186	2.668300E+01	  0.066092186	5.244100E+01	  0.066092186	1.264000E+00
232	  0.066292584	-3.139300E+01	  0.066292584	2.662900E+01	  0.066292584	5.245100E+01	  0.066292584	1.267000E+00
233	  0.066492982	-3.130700E+01	  0.066492982	2.617700E+01	  0.066492982	5.248700E+01	  0.066492982	1.260000E+00
234	  0.066693388	-3.117900E+01	  0.066693388	2.577700E+01	  0.066693388	5.253300E+01	  0.066693388	1.262000E+00
235	  0.066893786	-3.107700E+01	  0.066893786	2.621800E+01	  0.066893786	5.255400E+01	  0.066893786	1.298000E+00
236	  0.067094192	-3.099300E+01	  0.067094192	2.657600E+01	  0.067094192	5.257000E+01	  0.067094192	1.327000E+00
237	  0.067294590	-3.078000E+01	  0.067294590	2.624400E+01	  0.067294590	5.264400E+01	  0.067294590	1.346000E+00
238	  0.067494988	-3.069600E+01	  0.067494988	2.669700E+01	  0.067494988	5.265800E+01	  0.067494988	1.382000E+00
239	  0.067695394	-3.055100E+01	  0.067695394	2.679500E+01	  0.067695394	5.270100E+01	  0.067695394	1.411000E+00
240	  0.067895792	-3.045900E+01	  0.067895792	2.792000E+01	  0.067895792	5.270000E+01	  0.067895792	1.481000E+00
241	  0.068096191	-3.038600E+01	  0.068096191	2.827800E+01	  0.068096191	5.271400E+01	  0.068096191	1.512000E+00
242	  0.068296596	-3.027600E+01	  0.068296596	2.887200E+01	  0.068296596	5.273200E+01	  0.068296596	1.561000E+00
243	  0.068496995	-3.028600E+01	  0.068496995	2.974400E+01	  0.068496995	5.270400E+01	  0.068496995	1.601000E+00
244	  0.068697393	-3.029100E+01	  0.068697393	3.044200E+01	  0.068697393	5.268100E+01	  0.068697393	1.634000E+00
245	  0.068897791	-3.029100E+01	  0.068897791	3.126200E+01	  0.068897791	5.265600E+01	  0.068897791	1.672000E+00
246	  0.069098189	-3.029700E+01	  0.069098189	3.188500E+01	  0.069098189	5.263500E+01	  0.069098189	1.700000E+00
247	  0.069298595	-3.042400E+01	  0.069298595	3.293300E+01	  0.069298595	5.256400E+01	  0.069298595	1.722000E+00
248	  0.069498993	-3.045300E+01	  0.069498993	3.329700E+01	  0.069498993	5.254300E+01	  0.069498993	1.733000E+00
249	  0.069699399	-3.050900E+01	  0.069699399	3.357700E+01	  0.069699399	5.251800E+01	  0.069699399	1.734000E+00
250	  0.069899797	-3.068400E+01	  0.069899797	3.408000E+01	  0.069899797	5.245100E+01	  0.069899797	1.719000E+00
251	  0.070100196	-3.077100E+01	  0.070100196	3.440900E+01	  0.070100196	5.241600E+01	  0.070100196	1.715000E+00
252	  0.070300601	-3.086600E+01	  0.070300601	3.409900E+01	  0.070300601	5.239900E+01	  0.070300601	1.682000E+00
253	  0.070501000	-3.100100E+01	  0.070501000	3.371300E+01	  0.070501000	5.237300E+01	  0.070501000	1.639000E+00
254	  0.070701398	-3.113500E+01	  0.070701398	3.350700E+01	  0.070701398	5.234300E+01	  0.070701398	1.604000E+00
255	  0.070901804	-3.122000E+01	  0.070901804	3.266700E+01	  0.070901804	5.234400E+01	  0.070901804	1.553000E+00
256	  0.071102202	-3.139000E+01	  0.071102202	3.173000E+01	  0.071102202	5.232400E+01	  0.071102202	1.484000E+00
257	  0.071302600	-3.139400E+01	  0.071302600	3.119600E+01	  0.071302600	5.233700E+01	  0.071302600	1.461000E+00
258	  0.071503006	-3.139700E+01	  0.071503006	2.969000E+01	  0.071503006	5.237500E+01	  0.071503006	1.397000E+00
259	  0.071703404	-3.138400E+01	  0.071703404	2.900300E+01	  0.071703404	5.239600E+01	  0.071703404	1.370000E+00
260	  0.071903802	-3.133800E+01	  0.071903802	2.784100E+01	  0.071903802	5.243800E+01	  0.071903802	1.328000E+00
261	  0.072104208	-3.129800E+01	  0.072104208	2.701400E+01	  0.072104208	5.246900E+01	  0.072104208	1.298000E+00
262	  0.072304606	-3.122400E+01	  0.072304606	2.640500E+01	  0.072304606	5.250500E+01	  0.072304606	1.283000E+00
263	  0.072505005	-3.109800E+01	  0.072505005	2.527000E+01	  0.072505005	5.256900E+01	  0.072505005	1.251000E+00
264	  0.072705410	-3.092200E+01	  0.072705410	2.498000E+01	  0.072705410	5.263000E+01	  0.072705410	1.265000E+00
265	  0.072905809	-3.079700E+01	  0.072905809	2.434200E+01	  0.072905809	5.268400E+01	  0.072905809	1.253000E+00
266	  0.073106214	-3.054500E+01	  0.073106214	2.459300E+01	  0.073106214	5.275800E+01	  0.073106214	1.305000E+00
267	  0.073306613	-3.045000E+01	  0.073306613	2.484100E+01	  0.073306613	5.278300E+01	  0.073306613	1.332000E+00
268	  0.073507011	-3.033800E+01	  0.073507011	2.534200E+01	  0.073507011	5.280700E+01	  0.073507011	1.376000E+00
269	  0.073707417	-3.026100E+01	  0.073707417	2.573300E+01	  0.073707417	5.282300E+01	  0.073707417	1.408000E+00
270	  0.073907815	-3.011800E+01	  0.073907815	2.675300E+01	  0.073907815	5.284300E+01	  0.073907815	1.485000E+00
271	  0.074108213	-3.014300E+01	  0.074108213	2.687400E+01	  0.074108213	5.283200E+01	  0.074108213	1.487000E+00
272	  0.074308619	-3.011100E+01	  0.074308619	2.804400E+01	  0.074308619	5.281000E+01	  0.074308619	1.551000E+00
273	  0.074509017	-3.007700E+01	  0.074509017	2.838100E+01	  0.074509017	5.281100E+01	  0.074509017	1.575000E+00
274	  0.074709415	-3.004500E+01	  0.074709415	2.930300E+01	  0.074709415	5.279400E+01	  0.074709415	1.627000E+00
275	  0.074909821	-3.008000E+01	  0.074909821	3.011200E+01	  0.074909821	5.275800E+01	  0.074909821	1.660000E+00
276	  0.075110219	-3.015800E+01	  0.075110219	3.029500E+01	  0.075110219	5.272800E+01	  0.075110219	1.653000E+00
277	  0.075310618	-3.021300E+01	  0.075310618	3.121700E+01	  0.075310618	5.268200E+01	  0.075310618	1.686000E+00
278	  0.075511023	-3.029700E+01	  0.075511023	3.131600E+01	  0.075511023	5.265300E+01	  0.075511023	1.674000E+00
279	  0.075711422	-3.037400E+01	  0.075711422	3.113400E+01	  0.075711422	5.263400E+01	  0.075711422	1.650000E+00
280	  0.075911827	-3.056400E+01	  0.075911827	3.137100E+01	  0.075911827	5.256900E+01	  0.075911827	1.623000E+00
281	  0.076112226	-3.065500E+01	  0.076112226	3.125500E+01	  0.076112226	5.254600E+01	  0.076112226	1.600000E+00
282	  0.076312624	-3.069900E+01	  0.076312624	3.111200E+01	  0.076312624	5.253700E+01	  0.076312624	1.585000E+00
283	  0.076513030	-3.091900E+01	  0.076513030	3.077000E+01	  0.076513030	5.248200E+01	  0.076513030	1.528000E+00
284	  0.076713428	-3.105800E+01	  0.076713428	2.968800E+01	  0.076713428	5.247100E+01	  0.076713428	1.456000E+00
285	  0.076913826	-3.101800E+01	  0.076913826	2.904900E+01	  0.076913826	5.250000E+01	  0.076913826	1.435000E+00
286	  0.077114232	-3.104800E+01	  0.077114232	2.754000E+01	  0.077114232	5.253000E+01	  0.077114232	1.362000E+00
287	  0.077314630	-3.107100E+01	  0.077314630	2.667900E+01	  0.077314630	5.254400E+01	  0.077314630	1.319000E+00
288	  0.077515028	-3.105200E+01	  0.077515028	2.608900E+01	  0.077515028	5.256400E+01	  0.077515028	1.296000E+00
289	  0.077715434	-3.090300E+01	  0.077715434	2.510600E+01	  0.077715434	5.263300E+01	  0.077715434	1.273000E+00
290	  0.077915832	-3.082400E+01	  0.077915832	2.422000E+01	  0.077915832	5.267800E+01	  0.077915832	1.244000E+00
291	  0.078116231	-3.073900E+01	  0.078116231	2.356200E+01	  0.078116231	5.272000E+01	  0.078116231	1.225000E+00
292	  0.078316636	-3.059400E+01	  0.078316636	2.314700E+01	  0.078316636	5.277600E+01	  0.078316636	1.226000E+00
293	  0.078517035	-3.040900E+01	  0.078517035	2.319000E+01	  0.078517035	5.283600E+01	  0.078517035	1.256000E+00
294	  0.078717433	-3.023700E+01	  0.078717433	2.307900E+01	  0.078717433	5.289700E+01	  0.078717433	1.277000E+00
295	  0.078917839	-3.009500E+01	  0.078917839	2.309100E+01	  0.078917839	5.294500E+01	  0.078917839	1.300000E+00
296	  0.079118237	-3.006500E+01	  0.079118237	2.356300E+01	  0.079118237	5.294500E+01	  0.079118237	1.329000E+00
297	  0.079318643	-2.987800E+01	  0.079318643	2.409200E+01	  0.079318643	5.299700E+01	  0.079318643	1.388000E+00
298	  0.079519041	-2.984400E+01	  0.079519041	2.497800E+01	  0.079519041	5.298500E+01	  0.079519041	1.442000E+00
299	  0.079719439	-2.972200E+01	  0.079719439	2.509700E+01	  0.079719439	5.302500E+01	  0.079719439	1.470000E+00
300	  0.079919845	-2.973500E+01	  0.079919845	2.566800E+01	  0.079919845	5.300500E+01	  0.079919845	1.498000E+00
301	  0.080120243	-2.967800E+01	  0.080120243	2.659500E+01	  0.080120243	5.299900E+01	  0.080120243	1.558000E+00
302	  0.080320641	-2.971600E+01	  0.080320641	2.775300E+01	  0.080320641	5.295200E+01	  0.080320641	1.613000E+00
303	  0.080521047	-2.978000E+01	  0.080521047	2.874800E+01	  0.080521047	5.290000E+01	  0.080521047	1.652000E+00
304	  0.080721445	-2.986600E+01	  0.080721445	2.898400E+01	  0.080721445	5.286300E+01	  0.080721445	1.646000E+00
305	  0.080921844	-2.997600E+01	  0.080921844	2.932700E+01	  0.080921844	5.281600E+01	  0.080921844	1.642000E+00
306	  0.081122249	-3.004800E+01	  0.081122249	3.008400E+01	  0.081122249	5.277000E+01	  0.081122249	1.665000E+00
307	  0.081322648	-3.017600E+01	  0.081322648	3.047100E+01	  0.081322648	5.271700E+01	  0.081322648	1.658000E+00
308	  0.081523046	-3.034300E+01	  0.081523046	3.118500E+01	  0.081523046	5.264200E+01	  0.081523046	1.658000E+00
309	  0.081723452	-3.045400E+01	  0.081723452	3.060700E+01	  0.081723452	5.262600E+01	  0.081723452	1.609000E+00
310	  0.081923850	-3.058000E+01	  0.081923850	3.032200E+01	  0.081923850	5.259600E+01	  0.081923850	1.572000E+00
311	  0.082124248	-3.079800E+01	  0.082124248	2.980100E+01	  0.082124248	5.254500E+01	  0.082124248	1.507000E+00
312	  0.082324654	-3.093200E+01	  0.082324654	2.975100E+01	  0.082324654	5.250600E+01	  0.082324654	1.481000E+00
313	  0.082525052	-3.109800E+01	  0.082525052	2.851000E+01	  0.082525052	5.249100E+01	  0.082525052	1.397000E+00
314	  0.082725458	-3.118800E+01	  0.082725458	2.745200E+01	  0.082725458	5.249100E+01	  0.082725458	1.335000E+00
315	  0.082925856	-3.121000E+01	  0.082925856	2.677900E+01	  0.082925856	5.250100E+01	  0.082925856	1.302000E+00
316	  0.083126254	-3.124900E+01	  0.083126254	2.537700E+01	  0.083126254	5.252200E+01	  0.083126254	1.233000E+00
317	  0.083326660	-3.134100E+01	  0.083326660	2.389600E+01	  0.083326660	5.252700E+01	  0.083326660	1.153000E+00
318	  0.083527058	-3.127700E+01	  0.083527058	2.302000E+01	  0.083527058	5.256400E+01	  0.083527058	1.123000E+00
319	  0.083727457	-3.109700E+01	  0.083727457	2.133800E+01	  0.083727457	5.265300E+01	  0.083727457	1.068000E+00
320	  0.083927862	-3.109400E+01	  0.083927862	2.052800E+01	  0.083927862	5.267000E+01	  0.083927862	1.030000E+00
321	  0.084128261	-3.092600E+01	  0.084128261	1.987100E+01	  0.084128261	5.273600E+01	  0.084128261	1.019000E+00
322	  0.084328659	-3.085300E+01	  0.084328659	1.894400E+01	  0.084328659	5.277700E+01	  0.084328659	9.830000E-01
323	  0.084529065	-3.071600E+01	  0.084529065	1.818700E+01	  0.084529065	5.283600E+01	  0.084529065	9.610000E-01
324	  0.084729463	-3.051200E+01	  0.084729463	1.781400E+01	  0.084729463	5.291100E+01	  0.084729463	9.650000E-01
325	  0.084929861	-3.037100E+01	  0.084929861	1.772400E+01	  0.084929861	5.296200E+01	  0.084929861	9.770000E-01
326	  0.085130267	-3.028000E+01	  0.085130267	1.771300E+01	  0.085130267	5.299400E+01	  0.085130267	9.880000E-01
327	  0.085330658	-3.008900E+01	  0.085330658	1.774000E+01	  0.085330658	5.306200E+01	  0.085330658	1.013000E+00
328	  0.085531056	-2.998600E+01	  0.085531056	1.837800E+01	  0.085531056	5.308700E+01	  0.085531056	1.061000E+00
329	  0.085731462	-2.986700E+01	  0.085731462	1.846500E+01	  0.085731462	5.312900E+01	  0.085731462	1.081000E+00
330	  0.085931860	-2.977900E+01	  0.085931860	1.857900E+01	  0.085931860	5.316000E+01	  0.085931860	1.099000E+00
331	  0.086132258	-2.965800E+01	  0.086132258	1.945500E+01	  0.086132258	5.318700E+01	  0.086132258	1.166000E+00
332	  0.086332664	-2.965100E+01	  0.086332664	1.987600E+01	  0.086332664	5.318000E+01	  0.086332664	1.191000E+00
333	  0.086533062	-2.961700E+01	  0.086533062	2.055500E+01	  0.086533062	5.317800E+01	  0.086533062	1.235000E+00
334	  0.086733460	-2.956700E+01	  0.086733460	2.126700E+01	  0.086733460	5.318000E+01	  0.086733460	1.283000E+00
335	  0.086933866	-2.957100E+01	  0.086933866	2.135400E+01	  0.086933866	5.317600E+01	  0.086933866	1.288000E+00
336	  0.087134264	-2.958000E+01	  0.087134264	2.187000E+01	  0.087134264	5.316000E+01	  0.087134264	1.315000E+00
337	  0.087334670	-2.955900E+01	  0.087334670	2.252500E+01	  0.087334670	5.315200E+01	  0.087334670	1.356000E+00
338	  0.087535068	-2.964500E+01	  0.087535068	2.321100E+01	  0.087535068	5.310300E+01	  0.087535068	1.380000E+00
339	  0.087735467	-2.968700E+01	  0.087735467	2.344500E+01	  0.087735467	5.308200E+01	  0.087735467	1.386000E+00
340	  0.087935872	-2.973700E+01	  0.087935872	2.372500E+01	  0.087935872	5.305600E+01	  0.087935872	1.393000E+00
341	  0.088136271	-2.979200E+01	  0.088136271	2.392500E+01	  0.088136271	5.303100E+01	  0.088136271	1.394000E+00
342	  0.088336669	-2.983100E+01	  0.088336669	2.429400E+01	  0.088336669	5.300800E+01	  0.088336669	1.407000E+00
343	  0.088537075	-2.994800E+01	  0.088537075	2.402000E+01	  0.088537075	5.297400E+01	  0.088537075	1.373000E+00
344	  0.088737473	-3.000900E+01	  0.088737473	2.409900E+01	  0.088737473	5.295000E+01	  0.088737473	1.367000E+00
345	  0.088937871	-3.008200E+01	  0.088937871	2.407900E+01	  0.088937871	5.292600E+01	  0.088937871	1.354000E+00
346	  0.089138277	-3.018500E+01	  0.089138277	2.387400E+01	  0.089138277	5.289600E+01	  0.089138277	1.326000E+00
347	  0.089338675	-3.027700E+01	  0.089338675	2.331300E+01	  0.089338675	5.287800E+01	  0.089338675	1.283000E+00
348	  0.089539073	-3.032400E+01	  0.089539073	2.310000E+01	  0.089539073	5.286700E+01	  0.089539073	1.265000E+00
349	  0.089739479	-3.034800E+01	  0.089739479	2.222000E+01	  0.089739479	5.287900E+01	  0.089739479	1.216000E+00
350	  0.089939877	-3.047600E+01	  0.089939877	2.149400E+01	  0.089939877	5.285100E+01	  0.089939877	1.160000E+00
351	  0.090140276	-3.045800E+01	  0.090140276	2.091400E+01	  0.090140276	5.287000E+01	  0.090140276	1.133000E+00
352	  0.090340681	-3.039500E+01	  0.090340681	2.054200E+01	  0.090340681	5.289900E+01	  0.090340681	1.122000E+00
353	  0.090541080	-3.047300E+01	  0.090541080	1.898800E+01	  0.090541080	5.290300E+01	  0.090541080	1.031000E+00
354	  0.090741485	-3.038100E+01	  0.090741485	1.861200E+01	  0.090741485	5.294200E+01	  0.090741485	1.023000E+00
355	  0.090941884	-3.036600E+01	  0.090941884	1.825700E+01	  0.090941884	5.295400E+01	  0.090941884	1.006000E+00
356	  0.091142282	-3.030400E+01	  0.091142282	1.767500E+01	  0.091142282	5.298700E+01	  0.091142282	9.830000E-01
357	  0.091342688	-3.018900E+01	  0.091342688	1.714800E+01	  0.091342688	5.303700E+01	  0.091342688	9.680000E-01
358	  0.091543086	-3.015600E+01	  0.091543086	1.679300E+01	  0.091543086	5.305500E+01	  0.091543086	9.530000E-01
359	  0.091743484	-2.999700E+01	  0.091743484	1.644400E+01	  0.091743484	5.311900E+01	  0.091743484	9.520000E-01
360	  0.091943890	-2.986100E+01	  0.091943890	1.624900E+01	  0.091943890	5.317400E+01	  0.091943890	9.570000E-01
361	  0.092144288	-2.981900E+01	  0.092144288	1.594600E+01	  0.092144288	5.319500E+01	  0.092144288	9.440000E-01
362	  0.092344686	-2.973300E+01	  0.092344686	1.651700E+01	  0.092344686	5.321700E+01	  0.092344686	9.870000E-01
363	  0.092545092	-2.964800E+01	  0.092545092	1.654500E+01	  0.092545092	5.324900E+01	  0.092545092	9.990000E-01
364	  0.092745490	-2.951300E+01	  0.092745490	1.691800E+01	  0.092745490	5.329500E+01	  0.092745490	1.038000E+00
365	  0.092945889	-2.940500E+01	  0.092945889	1.729700E+01	  0.092945889	5.332900E+01	  0.092945889	1.075000E+00
366	  0.093146294	-2.943000E+01	  0.093146294	1.807600E+01	  0.093146294	5.330400E+01	  0.093146294	1.118000E+00
367	  0.093346693	-2.933100E+01	  0.093346693	1.835100E+01	  0.093346693	5.333700E+01	  0.093346693	1.148000E+00
368	  0.093547091	-2.935700E+01	  0.093547091	1.897000E+01	  0.093547091	5.331300E+01	  0.093547091	1.181000E+00
369	  0.093747497	-2.936100E+01	  0.093747497	1.959200E+01	  0.093747497	5.329800E+01	  0.093747497	1.217000E+00
370	  0.093947895	-2.937000E+01	  0.093947895	2.045000E+01	  0.093947895	5.327400E+01	  0.093947895	1.267000E+00
371	  0.094148301	-2.940500E+01	  0.094148301	2.120900E+01	  0.094148301	5.324300E+01	  0.094148301	1.306000E+00
372	  0.094348699	-2.946400E+01	  0.094348699	2.177100E+01	  0.094348699	5.320700E+01	  0.094348699	1.329000E+00
373	  0.094549097	-2.956800E+01	  0.094549097	2.213600E+01	  0.094549097	5.315800E+01	  0.094549097	1.332000E+00
374	  0.094749503	-2.969900E+01	  0.094749503	2.238000E+01	  0.094749503	5.310400E+01	  0.094749503	1.325000E+00
375	  0.094949901	-2.977300E+01	  0.094949901	2.310000E+01	  0.094949901	5.305900E+01	  0.094949901	1.352000E+00
376	  0.095150299	-2.989500E+01	  0.095150299	2.309500E+01	  0.095150299	5.301600E+01	  0.095150299	1.332000E+00
377	  0.095350705	-3.005000E+01	  0.095350705	2.283100E+01	  0.095350705	5.296700E+01	  0.095350705	1.293000E+00
378	  0.095551103	-3.016700E+01	  0.095551103	2.257200E+01	  0.095551103	5.293300E+01	  0.095551103	1.261000E+00
379	  0.095751502	-3.032300E+01	  0.095751502	2.249700E+01	  0.095751502	5.288100E+01	  0.095751502	1.234000E+00
380	  0.095951907	-3.048800E+01	  0.095951907	2.133600E+01	  0.095951907	5.285100E+01	  0.095951907	1.150000E+00
381	  0.096152306	-3.063900E+01	  0.096152306	2.076800E+01	  0.096152306	5.281200E+01	  0.096152306	1.101000E+00
382	  0.096352704	-3.068900E+01	  0.096352704	1.910700E+01	  0.096352704	5.282800E+01	  0.096352704	1.011000E+00
383	  0.096553110	-3.076000E+01	  0.096553110	1.872700E+01	  0.096553110	5.281100E+01	  0.096553110	9.830000E-01
384	  0.096753508	-3.074800E+01	  0.096753508	1.733000E+01	  0.096753508	5.284000E+01	  0.096753508	9.140000E-01
385	  0.096953906	-3.074600E+01	  0.096953906	1.609500E+01	  0.096953906	5.286100E+01	  0.096953906	8.510000E-01
386	  0.097154312	-3.064700E+01	  0.097154312	1.439800E+01	  0.097154312	5.292000E+01	  0.097154312	7.730000E-01
387	  0.097354710	-3.057900E+01	  0.097354710	1.365600E+01	  0.097354710	5.295400E+01	  0.097354710	7.400000E-01
388	  0.097555116	-3.048400E+01	  0.097555116	1.277000E+01	  0.097555116	5.299900E+01	  0.097555116	7.010000E-01
389	  0.097755514	-3.031400E+01	  0.097755514	1.197800E+01	  0.097755514	5.307000E+01	  0.097755514	6.720000E-01
390	  0.097955912	-3.022800E+01	  0.097955912	1.102700E+01	  0.097955912	5.311300E+01	  0.097955912	6.260000E-01
391	  0.098156318	-3.006200E+01	  0.098156318	1.101000E+01	  0.098156318	5.317500E+01	  0.098156318	6.380000E-01
392	  0.098356716	-2.989900E+01	  0.098356716	1.109400E+01	  0.098356716	5.323600E+01	  0.098356716	6.560000E-01
393	  0.098557115	-2.974500E+01	  0.098557115	1.100800E+01	  0.098557115	5.329700E+01	  0.098557115	6.630000E-01
394	  0.098757520	-2.958900E+01	  0.098757520	1.126200E+01	  0.098757520	5.335600E+01	  0.098757520	6.910000E-01
395	  0.098957919	-2.945700E+01	  0.098957919	1.184200E+01	  0.098957919	5.340100E+01	  0.098957919	7.380000E-01
396	  0.099158317	-2.933200E+01	  0.099158317	1.251200E+01	  0.099158317	5.344200E+01	  0.099158317	7.910000E-01
397	  0.099358723	-2.930200E+01	  0.099358723	1.326400E+01	  0.099358723	5.344300E+01	  0.099358723	8.410000E-01
398	  0.099559121	-2.922300E+01	  0.099559121	1.422700E+01	  0.099559121	5.346000E+01	  0.099559121	9.090000E-01
399	  0.099759519	-2.917300E+01	  0.099759519	1.455700E+01	  0.099759519	5.347400E+01	  0.099759519	9.360000E-01
400	  0.099959925	-2.915300E+01	  0.099959925	1.538000E+01	  0.099959925	5.346800E+01	  0.099959925	9.890000E-01
401	  0.100160323	-2.920000E+01	  0.100160323	1.687600E+01	  0.100160323	5.342000E+01	  0.100160323	1.076000E+00
402	  0.100360721	-2.927200E+01	  0.100360721	1.761500E+01	  0.100360721	5.337600E+01	  0.100360721	1.112000E+00
403	  0.100561127	-2.945100E+01	  0.100561127	1.853000E+01	  0.100561127	5.328600E+01	  0.100561127	1.142000E+00
404	  0.100761525	-2.950800E+01	  0.100761525	1.829300E+01	  0.100761525	5.326900E+01	  0.100761525	1.120000E+00
405	  0.100961931	-2.968600E+01	  0.100961931	1.913700E+01	  0.100961931	5.318300E+01	  0.100961931	1.144000E+00
406	  0.101162329	-2.978700E+01	  0.101162329	1.881800E+01	  0.101162329	5.315200E+01	  0.101162329	1.112000E+00
407	  0.101362728	-3.000800E+01	  0.101362728	1.895100E+01	  0.101362728	5.306800E+01	  0.101362728	1.090000E+00
408	  0.101563133	-3.018000E+01	  0.101563133	1.873400E+01	  0.101563133	5.301100E+01	  0.101563133	1.055000E+00
409	  0.101763532	-3.023400E+01	  0.101763532	1.799900E+01	  0.101763532	5.300500E+01	  0.101763532	1.009000E+00
410	  0.101963930	-3.042300E+01	  0.101963930	1.750600E+01	  0.101963930	5.294800E+01	  0.101963930	9.600000E-01
411	  0.102164336	-3.042800E+01	  0.102164336	1.670000E+01	  0.102164336	5.296000E+01	  0.102164336	9.170000E-01
412	  0.102364734	-3.062500E+01	  0.102364734	1.556000E+01	  0.102364734	5.291000E+01	  0.102364734	8.360000E-01
413	  0.102565132	-3.060100E+01	  0.102565132	1.459300E+01	  0.102565132	5.293300E+01	  0.102565132	7.870000E-01
414	  0.102765530	-3.067600E+01	  0.102765530	1.292600E+01	  0.102765530	5.293000E+01	  0.102765530	6.930000E-01
415	  0.102965929	-3.065600E+01	  0.102965929	1.202500E+01	  0.102965929	5.294800E+01	  0.102965929	6.470000E-01
416	  0.103166327	-3.060200E+01	  0.103166327	1.123300E+01	  0.103166327	5.297600E+01	  0.103166327	6.090000E-01
417	  0.103366733	-3.049900E+01	  0.103366733	1.073600E+01	  0.103366733	5.301800E+01	  0.103366733	5.900000E-01
418	  0.103567131	-3.035700E+01	  0.103567131	9.666000E+00	  0.103567131	5.308000E+01	  0.103567131	5.410000E-01
419	  0.103767529	-3.020800E+01	  0.103767529	8.523000E+00	  0.103767529	5.314700E+01	  0.103767529	4.860000E-01
420	  0.103967935	-3.020400E+01	  0.103967935	8.656000E+00	  0.103967935	5.314700E+01	  0.103967935	4.940000E-01
421	  0.104168333	-2.998200E+01	  0.104168333	8.260000E+00	  0.104168333	5.323500E+01	  0.104168333	4.850000E-01
422	  0.104368731	-2.990000E+01	  0.104368731	8.529000E+00	  0.104368731	5.326400E+01	  0.104368731	5.050000E-01
423	  0.104569137	-2.975700E+01	  0.104569137	8.378000E+00	  0.104569137	5.332100E+01	  0.104569137	5.050000E-01
424	  0.104769535	-2.973200E+01	  0.104769535	8.319000E+00	  0.104769535	5.333200E+01	  0.104769535	5.030000E-01
425	  0.104969934	-2.969400E+01	  0.104969934	8.809000E+00	  0.104969934	5.334200E+01	  0.104969934	5.350000E-01
426	  0.105170339	-2.957100E+01	  0.105170339	9.015000E+00	  0.105170339	5.338900E+01	  0.105170339	5.560000E-01
427	  0.105370738	-2.945600E+01	  0.105370738	1.017200E+01	  0.105370738	5.342300E+01	  0.105370738	6.360000E-01
428	  0.105571143	-2.959600E+01	  0.105571143	1.085300E+01	  0.105571143	5.335800E+01	  0.105571143	6.660000E-01
429	  0.105771542	-2.955100E+01	  0.105771542	1.109900E+01	  0.105771542	5.337300E+01	  0.105771542	6.850000E-01
430	  0.105971940	-2.958100E+01	  0.105971940	1.146400E+01	  0.105971940	5.335600E+01	  0.105971940	7.040000E-01
431	  0.106172346	-2.968900E+01	  0.106172346	1.219300E+01	  0.106172346	5.330400E+01	  0.106172346	7.380000E-01
432	  0.106372744	-2.977900E+01	  0.106372744	1.240500E+01	  0.106372744	5.326600E+01	  0.106372744	7.430000E-01
433	  0.106573142	-2.984800E+01	  0.106573142	1.237800E+01	  0.106573142	5.323900E+01	  0.106573142	7.350000E-01
434	  0.106773548	-2.993300E+01	  0.106773548	1.219200E+01	  0.106773548	5.321000E+01	  0.106773548	7.160000E-01
435	  0.106973946	-3.003500E+01	  0.106973946	1.180500E+01	  0.106973946	5.317600E+01	  0.106973946	6.850000E-01
436	  0.107174344	-3.012900E+01	  0.107174344	1.162600E+01	  0.107174344	5.314300E+01	  0.107174344	6.680000E-01
437	  0.107374750	-3.028500E+01	  0.107374750	1.022800E+01	  0.107374750	5.310100E+01	  0.107374750	5.770000E-01
438	  0.107575148	-3.029000E+01	  0.107575148	9.944000E+00	  0.107575148	5.310200E+01	  0.107575148	5.610000E-01
439	  0.107775547	-3.033300E+01	  0.107775547	9.195000E+00	  0.107775547	5.309400E+01	  0.107775547	5.160000E-01
440	  0.107975952	-3.035100E+01	  0.107975952	8.320000E+00	  0.107975952	5.309500E+01	  0.107975952	4.670000E-01
441	  0.108176351	-3.030200E+01	  0.108176351	6.303000E+00	  0.108176351	5.312900E+01	  0.108176351	3.560000E-01
442	  0.108376749	-3.024100E+01	  0.108376749	5.833000E+00	  0.108376749	5.315500E+01	  0.108376749	3.320000E-01
443	  0.108577155	-3.010400E+01	  0.108577155	5.047000E+00	  0.108577155	5.321100E+01	  0.108577155	2.920000E-01
444	  0.108777553	-3.005300E+01	  0.108777553	4.641000E+00	  0.108777553	5.323300E+01	  0.108777553	2.710000E-01
445	  0.108977959	-2.982300E+01	  0.108977959	3.765000E+00	  0.108977959	5.332600E+01	  0.108977959	2.260000E-01
446	  0.109178357	-2.974900E+01	  0.109178357	3.921000E+00	  0.109178357	5.335500E+01	  0.109178357	2.370000E-01
447	  0.109378755	-2.949300E+01	  0.109378755	4.033000E+00	  0.109378755	5.345800E+01	  0.109378755	2.520000E-01
448	  0.109579161	-2.945600E+01	  0.109579161	3.877000E+00	  0.109579161	5.347400E+01	  0.109579161	2.430000E-01
449	  0.109779559	-2.934600E+01	  0.109779559	3.556000E+00	  0.109779559	5.352200E+01	  0.109779559	2.260000E-01
450	  0.109979957	-2.922300E+01	  0.109979957	4.531000E+00	  0.109979957	5.356900E+01	  0.109979957	2.930000E-01
451	  0.110180363	-2.922800E+01	  0.110180363	4.958000E+00	  0.110180363	5.356400E+01	  0.110180363	3.200000E-01
452	  0.110380761	-2.902400E+01	  0.110380761	5.976000E+00	  0.110380761	5.364500E+01	  0.110380761	3.950000E-01
453	  0.110581160	-2.911900E+01	  0.110581160	6.857000E+00	  0.110581160	5.359700E+01	  0.110581160	4.480000E-01
454	  0.110781565	-2.914600E+01	  0.110781565	7.207000E+00	  0.110781565	5.358300E+01	  0.110781565	4.690000E-01
455	  0.110981964	-2.908700E+01	  0.110981964	8.501000E+00	  0.110981964	5.359600E+01	  0.110981964	5.570000E-01
456	  0.111182362	-2.917900E+01	  0.111182362	8.485000E+00	  0.111182362	5.355700E+01	  0.111182362	5.490000E-01
457	  0.111382768	-2.927500E+01	  0.111382768	9.492000E+00	  0.111382768	5.350500E+01	  0.111382768	6.070000E-01
458	  0.111583166	-2.928700E+01	  0.111583166	9.939000E+00	  0.111583166	5.349500E+01	  0.111583166	6.340000E-01
459	  0.111783572	-2.940600E+01	  0.111783572	9.681000E+00	  0.111783572	5.344900E+01	  0.111783572	6.090000E-01
460	  0.111983970	-2.957100E+01	  0.111983970	1.017800E+01	  0.111983970	5.337600E+01	  0.111983970	6.270000E-01
461	  0.112184368	-2.972700E+01	  0.112184368	1.000800E+01	  0.112184368	5.331600E+01	  0.112184368	6.050000E-01
462	  0.112384774	-2.985500E+01	  0.112384774	1.007000E+01	  0.112384774	5.326500E+01	  0.112384774	5.990000E-01
463	  0.112585172	-2.994400E+01	  0.112585172	9.866000E+00	  0.112585172	5.323300E+01	  0.112585172	5.810000E-01
464	  0.112785570	-3.002400E+01	  0.112785570	8.240000E+00	  0.112785570	5.321800E+01	  0.112785570	4.810000E-01
465	  0.112985976	-3.009100E+01	  0.112985976	8.013000E+00	  0.112985976	5.319500E+01	  0.112985976	4.640000E-01
466	  0.113186374	-3.012800E+01	  0.113186374	6.609000E+00	  0.113186374	5.319200E+01	  0.113186374	3.810000E-01
467	  0.113386773	-3.010500E+01	  0.113386773	5.658000E+00	  0.113386773	5.320700E+01	  0.113386773	3.280000E-01
468	  0.113587178	-3.012100E+01	  0.113587178	4.604000E+00	  0.113587178	5.320700E+01	  0.113587178	2.660000E-01
469	  0.113787577	-3.000900E+01	  0.113787577	3.468000E+00	  0.113787577	5.325500E+01	  0.113787577	2.030000E-01
470	  0.113987975	-2.998100E+01	  0.113987975	2.925000E+00	  0.113987975	5.326800E+01	  0.113987975	1.720000E-01
471	  0.114188381	-2.983400E+01	  0.114188381	2.408000E+00	  0.114188381	5.332700E+01	  0.114188381	1.440000E-01
472	  0.114388779	-2.974100E+01	  0.114388779	1.398000E+00	  0.114388779	5.336600E+01	  0.114388779	8.400000E-02
473	  0.114589177	-2.957800E+01	  0.114589177	2.252000E+00	  0.114589177	5.343000E+01	  0.114589177	1.390000E-01
474	  0.114789583	-2.939100E+01	  0.114789583	1.607000E+00	  0.114789583	5.350900E+01	  0.114789583	1.010000E-01
475	  0.114989981	-2.931300E+01	  0.114989981	1.530000E+00	  0.114989981	5.354200E+01	  0.114989981	9.800000E-02
476	  0.115190387	-2.916000E+01	  0.115190387	2.486000E+00	  0.115190387	5.360400E+01	  0.115190387	1.620000E-01
477	  0.115390785	-2.912000E+01	  0.115390785	2.936000E+00	  0.115390785	5.362000E+01	  0.115390785	1.920000E-01
478	  0.115591183	-2.899700E+01	  0.115591183	3.279000E+00	  0.115591183	5.367200E+01	  0.115591183	2.180000E-01
479	  0.115791589	-2.901000E+01	  0.115791589	4.048000E+00	  0.115791589	5.366400E+01	  0.115791589	2.680000E-01
480	  0.115991987	-2.891000E+01	  0.115991987	4.790000E+00	  0.115991987	5.370300E+01	  0.115991987	3.210000E-01
481	  0.116192386	-2.896300E+01	  0.116192386	5.683000E+00	  0.116192386	5.367400E+01	  0.116192386	3.790000E-01
482	  0.116392791	-2.896100E+01	  0.116392791	6.514000E+00	  0.116392791	5.366800E+01	  0.116392791	4.340000E-01
483	  0.116593190	-2.906400E+01	  0.116593190	7.287000E+00	  0.116593190	5.361700E+01	  0.116593190	4.790000E-01
484	  0.116793588	-2.910100E+01	  0.116793588	7.888000E+00	  0.116793588	5.359600E+01	  0.116793588	5.160000E-01
485	  0.116993994	-2.927100E+01	  0.116993994	8.368000E+00	  0.116993994	5.351900E+01	  0.116993994	5.360000E-01
486	  0.117194392	-2.930800E+01	  0.117194392	8.613000E+00	  0.117194392	5.350100E+01	  0.117194392	5.490000E-01
487	  0.117394790	-2.954200E+01	  0.117394790	8.932000E+00	  0.117394790	5.340100E+01	  0.117394790	5.530000E-01
488	  0.117595196	-2.954400E+01	  0.117595196	8.720000E+00	  0.117595196	5.340300E+01	  0.117595196	5.400000E-01
489	  0.117795594	-2.975300E+01	  0.117795594	8.964000E+00	  0.117795594	5.331700E+01	  0.117795594	5.410000E-01
490	  0.117995992	-2.988100E+01	  0.117995992	8.583000E+00	  0.117995992	5.327000E+01	  0.117995992	5.100000E-01
491	  0.118196398	-3.009500E+01	  0.118196398	7.861000E+00	  0.118196398	5.319500E+01	  0.118196398	4.550000E-01
492	  0.118396796	-3.024100E+01	  0.118396796	7.119000E+00	  0.118396796	5.314600E+01	  0.118396796	4.050000E-01
493	  0.118597202	-3.030500E+01	  0.118597202	5.840000E+00	  0.118597202	5.313100E+01	  0.118597202	3.300000E-01
494	  0.118797600	-3.033400E+01	  0.118797600	5.150000E+00	  0.118797600	5.312400E+01	  0.118797600	2.900000E-01
495	  0.118997999	-3.041800E+01	  0.118997999	3.945000E+00	  0.118997999	5.309900E+01	  0.118997999	2.200000E-01
496	  0.119198404	-3.040500E+01	  0.119198404	3.316000E+00	  0.119198404	5.310600E+01	  0.119198404	1.850000E-01
497	  0.119398803	-3.034500E+01	  0.119398803	1.626000E+00	  0.119398803	5.313200E+01	  0.119398803	9.100000E-02
498	  0.119599201	-3.022900E+01	  0.119599201	8.490000E-01	  0.119599201	5.317700E+01	  0.119599201	4.800000E-02
499	  0.119799607	-3.020700E+01	  0.119799607	3.590000E-01	  0.119799607	5.318500E+01	  0.119799607	2.000000E-02
500	  0.120000005	-3.006800E+01	  0.120000005	-3.220000E-01	  0.120000005	5.323800E+01	  0.120000005	-1.800000E-02
