! Anritsu VNA Master:             	Model: MS2036C/10/77
! SN:             	1601066
! /bd0/18may26.balun/4a.66.txt
! Existing Calibration Information:
! TYPE:             	Current Settings	Active Cal Settings
! TIME:             	05/26/2018 03:02:40 PM	05/26/2018 02:51:55 PM
! INTERNAL TEMP:    	59.5 C	59.5 C
! # POINTS:         	500	500
! START FREQ:       	20.000 MHz	20.000 MHz
! STOP FREQ:        	120.000 MHz	120.000 MHz
! SOURCE POWER:     	High	High
! IFBW:             	50 Hz	50 Hz
! AVG FACTOR:       	  1 	  1 
! REF PLANE 1:      	0 mm	0 mm
! REF PLANE 2:      	0 mm	0 mm
! CAL TYPE:         	Full S11	Full S11
! CAL METHOD:       	SOLT	SOLT
! CAL LINE TYPE:    	Coax	Coax
! DUT PORT 1:       	K-Conn(M)	K-Conn(M)
! DUT PORT 2:       	K-Conn(M)	K-Conn(M)
! CAL STATUS:       	OK: Accuracy High	--
! PROP-V:       	0.700
! CABLE LOSS:       	0.000 dB/m
! REF IMPEDANCE:       	50.0
! Trace Specific Parameters:	TR1	TR2	TR3	TR4
! TRACE.#.Y (GRAPH TYPE)	LOG MAG	PHASE	REAL IMPEDANCE	IMAGINARY IMPEDANCE
! TRACE.#.X 	FREQ.GHZ	FREQ.GHZ	FREQ.GHZ	FREQ.GHZ
! S-PARAMETER	S11	S11	S11	S11
! SMOOTH/APERTURE %	0	0	0	0
! WINDOW	NSL	NSL	NSL	NSL
! GATING	OFF	OFF	OFF	OFF
! FGTD	OFF	OFF	OFF	OFF
Marker Information per Trace:	TR1	TR2	TR3	TR4
!MK1	--	--	--	--
!MK2	--	--	--	--
!MK3	--	--	--	--
!MK4	--	--	--	--
!MK5	--	--	--	--
!MK6	--	--	--	--
!MK7	--	--	--	--
!MK8	--	--	--	--
PNT	TR1.FREQ.GHZ	TR1.LOG MAG.dB	TR2.FREQ.GHZ	TR2.PHASE.deg	TR3.FREQ.GHZ	TR3.REAL IMPEDANCE.ohm	TR4.FREQ.GHZ	TR4.IMAGINARY IMPEDANCE.ohm
1	  0.020000000	-4.800000E-02	  0.020000000	-6.833900E+01	  0.020000000	4.460000E-01	  0.020000000	-7.365400E+01
2	  0.020200402	-4.400000E-02	  0.020200402	-6.900500E+01	  0.020200402	4.010000E-01	  0.020200402	-7.274100E+01
3	  0.020400802	-4.100000E-02	  0.020400802	-6.964600E+01	  0.020400802	3.670000E-01	  0.020400802	-7.187700E+01
4	  0.020601204	-4.100000E-02	  0.020601204	-7.027600E+01	  0.020601204	3.570000E-01	  0.020601204	-7.104100E+01
5	  0.020801604	-3.800000E-02	  0.020801604	-7.091900E+01	  0.020801604	3.280000E-01	  0.020801604	-7.020000E+01
6	  0.021002004	-3.700000E-02	  0.021002004	-7.157200E+01	  0.021002004	3.190000E-01	  0.021002004	-6.936000E+01
7	  0.021202406	-4.000000E-02	  0.021202406	-7.219600E+01	  0.021202406	3.380000E-01	  0.021202406	-6.857100E+01
8	  0.021402806	-4.200000E-02	  0.021402806	-7.283800E+01	  0.021402806	3.460000E-01	  0.021402806	-6.776900E+01
9	  0.021603208	-4.600000E-02	  0.021603208	-7.346600E+01	  0.021603208	3.720000E-01	  0.021603208	-6.699700E+01
10	  0.021803608	-5.100000E-02	  0.021803608	-7.408400E+01	  0.021803608	4.070000E-01	  0.021803608	-6.624800E+01
11	  0.022004008	-5.300000E-02	  0.022004008	-7.468600E+01	  0.022004008	4.200000E-01	  0.022004008	-6.553000E+01
12	  0.022204408	-5.600000E-02	  0.022204408	-7.532100E+01	  0.022204408	4.340000E-01	  0.022204408	-6.478200E+01
13	  0.022404809	-5.600000E-02	  0.022404809	-7.598200E+01	  0.022404809	4.250000E-01	  0.022404809	-6.401500E+01
14	  0.022605211	-5.900000E-02	  0.022605211	-7.663800E+01	  0.022605211	4.420000E-01	  0.022605211	-6.326500E+01
15	  0.022805611	-5.800000E-02	  0.022805611	-7.727200E+01	  0.022805611	4.310000E-01	  0.022805611	-6.255000E+01
16	  0.023006011	-4.800000E-02	  0.023006011	-7.791400E+01	  0.023006011	3.560000E-01	  0.023006011	-6.183800E+01
17	  0.023206413	-4.100000E-02	  0.023206413	-7.857000E+01	  0.023206413	2.990000E-01	  0.023206413	-6.111900E+01
18	  0.023406813	-3.400000E-02	  0.023406813	-7.922000E+01	  0.023406813	2.440000E-01	  0.023406813	-6.041600E+01
19	  0.023607215	-3.300000E-02	  0.023607215	-7.984600E+01	  0.023607215	2.360000E-01	  0.023607215	-5.974900E+01
20	  0.023807615	-3.200000E-02	  0.023807615	-8.045700E+01	  0.023807615	2.240000E-01	  0.023807615	-5.910600E+01
21	  0.024008015	-3.900000E-02	  0.024008015	-8.104200E+01	  0.024008015	2.720000E-01	  0.024008015	-5.849800E+01
22	  0.024208417	-4.600000E-02	  0.024208417	-8.163200E+01	  0.024208417	3.110000E-01	  0.024208417	-5.789100E+01
23	  0.024408817	-5.100000E-02	  0.024408817	-8.218100E+01	  0.024408817	3.450000E-01	  0.024408817	-5.733300E+01
24	  0.024609219	-5.600000E-02	  0.024609219	-8.277900E+01	  0.024609219	3.730000E-01	  0.024609219	-5.673200E+01
25	  0.024809619	-6.200000E-02	  0.024809619	-8.339600E+01	  0.024809619	4.050000E-01	  0.024809619	-5.612100E+01
26	  0.025010020	-6.600000E-02	  0.025010020	-8.405200E+01	  0.025010020	4.240000E-01	  0.025010020	-5.547700E+01
27	  0.025210422	-7.000000E-02	  0.025210422	-8.471100E+01	  0.025210422	4.470000E-01	  0.025210422	-5.484000E+01
28	  0.025410822	-7.200000E-02	  0.025410822	-8.537300E+01	  0.025410822	4.550000E-01	  0.025410822	-5.420700E+01
29	  0.025611224	-7.000000E-02	  0.025611224	-8.604300E+01	  0.025611224	4.350000E-01	  0.025611224	-5.357600E+01
30	  0.025811624	-6.800000E-02	  0.025811624	-8.668300E+01	  0.025811624	4.170000E-01	  0.025811624	-5.297900E+01
31	  0.026012026	-6.300000E-02	  0.026012026	-8.729500E+01	  0.026012026	3.840000E-01	  0.026012026	-5.241500E+01
32	  0.026212426	-6.100000E-02	  0.026212426	-8.789800E+01	  0.026212426	3.640000E-01	  0.026212426	-5.186600E+01
33	  0.026412826	-6.000000E-02	  0.026412826	-8.848600E+01	  0.026412826	3.590000E-01	  0.026412826	-5.133600E+01
34	  0.026613226	-6.600000E-02	  0.026613226	-8.907400E+01	  0.026613226	3.910000E-01	  0.026613226	-5.081200E+01
35	  0.026813626	-7.400000E-02	  0.026813626	-8.963800E+01	  0.026813626	4.300000E-01	  0.026813626	-5.031400E+01
36	  0.027014028	-7.900000E-02	  0.027014028	-9.018100E+01	  0.027014028	4.560000E-01	  0.027014028	-4.984000E+01
37	  0.027214428	-8.900000E-02	  0.027214428	-9.073900E+01	  0.027214428	5.090000E-01	  0.027214428	-4.935600E+01
38	  0.027414829	-1.010000E-01	  0.027414829	-9.136300E+01	  0.027414829	5.690000E-01	  0.027414829	-4.882000E+01
39	  0.027615231	-1.040000E-01	  0.027615231	-9.202800E+01	  0.027615231	5.830000E-01	  0.027615231	-4.825600E+01
40	  0.027815631	-1.090000E-01	  0.027815631	-9.270000E+01	  0.027815631	5.990000E-01	  0.027815631	-4.769300E+01
41	  0.028016033	-1.050000E-01	  0.028016033	-9.338300E+01	  0.028016033	5.720000E-01	  0.028016033	-4.712800E+01
42	  0.028216433	-9.700000E-02	  0.028216433	-9.406900E+01	  0.028216433	5.220000E-01	  0.028216433	-4.656600E+01
43	  0.028416833	-8.900000E-02	  0.028416833	-9.473700E+01	  0.028416833	4.740000E-01	  0.028416833	-4.602500E+01
44	  0.028617235	-8.000000E-02	  0.028617235	-9.537700E+01	  0.028617235	4.240000E-01	  0.028617235	-4.551200E+01
45	  0.028817635	-7.100000E-02	  0.028817635	-9.599300E+01	  0.028817635	3.750000E-01	  0.028817635	-4.502400E+01
46	  0.029018037	-6.300000E-02	  0.029018037	-9.656200E+01	  0.029018037	3.250000E-01	  0.029018037	-4.457600E+01
47	  0.029218437	-5.500000E-02	  0.029218437	-9.710700E+01	  0.029218437	2.850000E-01	  0.029218437	-4.415100E+01
48	  0.029418837	-5.100000E-02	  0.029418837	-9.762300E+01	  0.029418837	2.600000E-01	  0.029418837	-4.375200E+01
49	  0.029619239	-4.800000E-02	  0.029619239	-9.815000E+01	  0.029619239	2.440000E-01	  0.029619239	-4.334800E+01
50	  0.029819639	-5.000000E-02	  0.029819639	-9.867000E+01	  0.029819639	2.500000E-01	  0.029819639	-4.295200E+01
51	  0.030020041	-5.500000E-02	  0.030020041	-9.921900E+01	  0.030020041	2.770000E-01	  0.030020041	-4.253800E+01
52	  0.030220442	-6.300000E-02	  0.030220442	-9.977300E+01	  0.030220442	3.120000E-01	  0.030220442	-4.212200E+01
53	  0.030420844	-7.500000E-02	  0.030420844	-1.003770E+02	  0.030420844	3.670000E-01	  0.030420844	-4.167300E+01
54	  0.030621244	-8.500000E-02	  0.030621244	-1.010120E+02	  0.030621244	4.110000E-01	  0.030621244	-4.120500E+01
55	  0.030821644	-8.500000E-02	  0.030821644	-1.016470E+02	  0.030821644	4.080000E-01	  0.030821644	-4.074300E+01
56	  0.031022044	-8.600000E-02	  0.031022044	-1.022720E+02	  0.031022044	4.090000E-01	  0.031022044	-4.029000E+01
57	  0.031222444	-8.100000E-02	  0.031222444	-1.028690E+02	  0.031222444	3.810000E-01	  0.031222444	-3.986300E+01
58	  0.031422846	-8.300000E-02	  0.031422846	-1.034640E+02	  0.031422846	3.880000E-01	  0.031422846	-3.944000E+01
59	  0.031623244	-8.100000E-02	  0.031623244	-1.040250E+02	  0.031623244	3.760000E-01	  0.031623244	-3.904400E+01
60	  0.031823646	-7.800000E-02	  0.031823646	-1.045710E+02	  0.031823646	3.610000E-01	  0.031823646	-3.866300E+01
61	  0.032024048	-8.000000E-02	  0.032024048	-1.050640E+02	  0.032024048	3.650000E-01	  0.032024048	-3.832000E+01
62	  0.032224450	-8.500000E-02	  0.032224450	-1.055630E+02	  0.032224450	3.890000E-01	  0.032224450	-3.797600E+01
63	  0.032424849	-9.400000E-02	  0.032424849	-1.060830E+02	  0.032424849	4.270000E-01	  0.032424849	-3.761800E+01
64	  0.032625251	-1.070000E-01	  0.032625251	-1.066430E+02	  0.032625251	4.790000E-01	  0.032625251	-3.723700E+01
65	  0.032825653	-1.160000E-01	  0.032825653	-1.072120E+02	  0.032825653	5.170000E-01	  0.032825653	-3.685200E+01
66	  0.033026051	-1.240000E-01	  0.033026051	-1.078280E+02	  0.033026051	5.480000E-01	  0.033026051	-3.643800E+01
67	  0.033226453	-1.260000E-01	  0.033226453	-1.084400E+02	  0.033226453	5.510000E-01	  0.033226453	-3.603100E+01
68	  0.033426855	-1.270000E-01	  0.033426855	-1.090670E+02	  0.033426855	5.530000E-01	  0.033426855	-3.561700E+01
69	  0.033627257	-1.300000E-01	  0.033627257	-1.096920E+02	  0.033627257	5.590000E-01	  0.033627257	-3.520700E+01
70	  0.033827655	-1.300000E-01	  0.033827655	-1.103630E+02	  0.033827655	5.560000E-01	  0.033827655	-3.477100E+01
71	  0.034028057	-1.290000E-01	  0.034028057	-1.109840E+02	  0.034028057	5.470000E-01	  0.034028057	-3.437100E+01
72	  0.034228459	-1.250000E-01	  0.034228459	-1.116100E+02	  0.034228459	5.260000E-01	  0.034228459	-3.397000E+01
73	  0.034428857	-1.150000E-01	  0.034428857	-1.122330E+02	  0.034428857	4.840000E-01	  0.034428857	-3.357500E+01
74	  0.034629259	-1.070000E-01	  0.034629259	-1.127930E+02	  0.034629259	4.450000E-01	  0.034629259	-3.322200E+01
75	  0.034829661	-9.800000E-02	  0.034829661	-1.133420E+02	  0.034829661	4.050000E-01	  0.034829661	-3.287800E+01
76	  0.035030060	-9.400000E-02	  0.035030060	-1.138730E+02	  0.035030060	3.860000E-01	  0.035030060	-3.254700E+01
77	  0.035230462	-8.900000E-02	  0.035230462	-1.143950E+02	  0.035230462	3.640000E-01	  0.035230462	-3.222400E+01
78	  0.035430863	-9.200000E-02	  0.035430863	-1.149210E+02	  0.035430863	3.750000E-01	  0.035430863	-3.190000E+01
79	  0.035631265	-9.700000E-02	  0.035631265	-1.154450E+02	  0.035631265	3.930000E-01	  0.035631265	-3.157900E+01
80	  0.035831664	-1.030000E-01	  0.035831664	-1.159800E+02	  0.035831664	4.150000E-01	  0.035831664	-3.125300E+01
81	  0.036032066	-1.110000E-01	  0.036032066	-1.165520E+02	  0.036032066	4.450000E-01	  0.036032066	-3.090700E+01
82	  0.036232468	-1.210000E-01	  0.036232468	-1.171480E+02	  0.036232468	4.800000E-01	  0.036232468	-3.054800E+01
83	  0.036432866	-1.270000E-01	  0.036432866	-1.177730E+02	  0.036432866	5.010000E-01	  0.036432866	-3.017500E+01
84	  0.036633268	-1.300000E-01	  0.036633268	-1.183860E+02	  0.036633268	5.090000E-01	  0.036633268	-2.981100E+01
85	  0.036833670	-1.260000E-01	  0.036833670	-1.189680E+02	  0.036833670	4.910000E-01	  0.036833670	-2.946800E+01
86	  0.037034072	-1.180000E-01	  0.037034072	-1.195230E+02	  0.037034072	4.560000E-01	  0.037034072	-2.914300E+01
87	  0.037234470	-1.100000E-01	  0.037234470	-1.200300E+02	  0.037234470	4.240000E-01	  0.037234470	-2.884800E+01
88	  0.037434869	-1.030000E-01	  0.037434869	-1.204860E+02	  0.037434869	3.970000E-01	  0.037434869	-2.858300E+01
89	  0.037635271	-1.030000E-01	  0.037635271	-1.209350E+02	  0.037635271	3.950000E-01	  0.037635271	-2.832400E+01
90	  0.037835669	-1.080000E-01	  0.037835669	-1.214250E+02	  0.037835669	4.090000E-01	  0.037835669	-2.804200E+01
91	  0.038036071	-1.180000E-01	  0.038036071	-1.219300E+02	  0.038036071	4.440000E-01	  0.038036071	-2.775300E+01
92	  0.038236473	-1.270000E-01	  0.038236473	-1.224740E+02	  0.038236473	4.780000E-01	  0.038236473	-2.744300E+01
93	  0.038436871	-1.310000E-01	  0.038436871	-1.230010E+02	  0.038436871	4.890000E-01	  0.038436871	-2.714400E+01
94	  0.038637273	-1.360000E-01	  0.038637273	-1.235350E+02	  0.038637273	5.050000E-01	  0.038637273	-2.684400E+01
95	  0.038837675	-1.420000E-01	  0.038837675	-1.240950E+02	  0.038837675	5.230000E-01	  0.038837675	-2.652900E+01
96	  0.039038073	-1.480000E-01	  0.039038073	-1.246830E+02	  0.039038073	5.450000E-01	  0.039038073	-2.620100E+01
97	  0.039238475	-1.540000E-01	  0.039238475	-1.252780E+02	  0.039238475	5.640000E-01	  0.039238475	-2.587100E+01
98	  0.039438877	-1.550000E-01	  0.039438877	-1.258610E+02	  0.039438877	5.630000E-01	  0.039438877	-2.554900E+01
99	  0.039639279	-1.550000E-01	  0.039639279	-1.264500E+02	  0.039639279	5.610000E-01	  0.039639279	-2.522600E+01
100	  0.039839678	-1.500000E-01	  0.039839678	-1.270160E+02	  0.039839678	5.410000E-01	  0.039839678	-2.491700E+01
101	  0.040040080	-1.440000E-01	  0.040040080	-1.275570E+02	  0.040040080	5.170000E-01	  0.040040080	-2.462400E+01
102	  0.040240481	-1.410000E-01	  0.040240481	-1.280950E+02	  0.040240481	5.020000E-01	  0.040240481	-2.433300E+01
103	  0.040440880	-1.380000E-01	  0.040440880	-1.286570E+02	  0.040440880	4.900000E-01	  0.040440880	-2.403000E+01
104	  0.040641282	-1.360000E-01	  0.040641282	-1.291860E+02	  0.040641282	4.810000E-01	  0.040641282	-2.374700E+01
105	  0.040841684	-1.330000E-01	  0.040841684	-1.297240E+02	  0.040841684	4.670000E-01	  0.040841684	-2.346000E+01
106	  0.041042086	-1.350000E-01	  0.041042086	-1.302460E+02	  0.041042086	4.750000E-01	  0.041042086	-2.318200E+01
107	  0.041242484	-1.430000E-01	  0.041242484	-1.307270E+02	  0.041242484	4.980000E-01	  0.041242484	-2.292800E+01
108	  0.041442886	-1.530000E-01	  0.041442886	-1.312450E+02	  0.041442886	5.310000E-01	  0.041442886	-2.265400E+01
109	  0.041643288	-1.650000E-01	  0.041643288	-1.318030E+02	  0.041643288	5.700000E-01	  0.041643288	-2.236100E+01
110	  0.041843686	-1.690000E-01	  0.041843686	-1.323980E+02	  0.041843686	5.820000E-01	  0.041843686	-2.205000E+01
111	  0.042044088	-1.680000E-01	  0.042044088	-1.329640E+02	  0.042044088	5.750000E-01	  0.042044088	-2.175600E+01
112	  0.042244490	-1.570000E-01	  0.042244490	-1.335240E+02	  0.042244490	5.360000E-01	  0.042244490	-2.146600E+01
113	  0.042444889	-1.490000E-01	  0.042444889	-1.340380E+02	  0.042444889	5.080000E-01	  0.042444889	-2.120200E+01
114	  0.042645290	-1.410000E-01	  0.042645290	-1.345010E+02	  0.042645290	4.770000E-01	  0.042645290	-2.096400E+01
115	  0.042845692	-1.410000E-01	  0.042845692	-1.349630E+02	  0.042845692	4.760000E-01	  0.042845692	-2.072700E+01
116	  0.043046094	-1.420000E-01	  0.043046094	-1.354270E+02	  0.043046094	4.790000E-01	  0.043046094	-2.049000E+01
117	  0.043246493	-1.460000E-01	  0.043246493	-1.358970E+02	  0.043246493	4.920000E-01	  0.043246493	-2.025100E+01
118	  0.043446895	-1.490000E-01	  0.043446895	-1.364040E+02	  0.043446895	4.990000E-01	  0.043446895	-1.999400E+01
119	  0.043647297	-1.530000E-01	  0.043647297	-1.368600E+02	  0.043647297	5.100000E-01	  0.043647297	-1.976400E+01
120	  0.043847695	-1.580000E-01	  0.043847695	-1.373610E+02	  0.043847695	5.250000E-01	  0.043847695	-1.951100E+01
121	  0.044048097	-1.630000E-01	  0.044048097	-1.378640E+02	  0.044048097	5.410000E-01	  0.044048097	-1.925900E+01
122	  0.044248499	-1.700000E-01	  0.044248499	-1.383890E+02	  0.044248499	5.610000E-01	  0.044248499	-1.899600E+01
123	  0.044448901	-1.740000E-01	  0.044448901	-1.389300E+02	  0.044448901	5.730000E-01	  0.044448901	-1.872600E+01
124	  0.044649299	-1.760000E-01	  0.044649299	-1.394830E+02	  0.044649299	5.770000E-01	  0.044649299	-1.845200E+01
125	  0.044849701	-1.760000E-01	  0.044849701	-1.399880E+02	  0.044849701	5.750000E-01	  0.044849701	-1.820200E+01
126	  0.045050103	-1.780000E-01	  0.045050103	-1.405050E+02	  0.045050103	5.800000E-01	  0.045050103	-1.794600E+01
127	  0.045250501	-1.780000E-01	  0.045250501	-1.410140E+02	  0.045250501	5.770000E-01	  0.045250501	-1.769600E+01
128	  0.045450903	-1.790000E-01	  0.045450903	-1.415510E+02	  0.045450903	5.780000E-01	  0.045450903	-1.743300E+01
129	  0.045651305	-1.760000E-01	  0.045651305	-1.420880E+02	  0.045651305	5.690000E-01	  0.045651305	-1.717100E+01
130	  0.045851704	-1.740000E-01	  0.045851704	-1.426280E+02	  0.045851704	5.580000E-01	  0.045851704	-1.690800E+01
131	  0.046052106	-1.720000E-01	  0.046052106	-1.431520E+02	  0.046052106	5.500000E-01	  0.046052106	-1.665400E+01
132	  0.046252504	-1.690000E-01	  0.046252504	-1.436590E+02	  0.046252504	5.380000E-01	  0.046252504	-1.640800E+01
133	  0.046452906	-1.720000E-01	  0.046452906	-1.441270E+02	  0.046452906	5.490000E-01	  0.046452906	-1.618200E+01
134	  0.046653304	-1.780000E-01	  0.046653304	-1.446200E+02	  0.046653304	5.660000E-01	  0.046653304	-1.594500E+01
135	  0.046853706	-1.860000E-01	  0.046853706	-1.451320E+02	  0.046853706	5.900000E-01	  0.046853706	-1.569900E+01
136	  0.047054108	-1.910000E-01	  0.047054108	-1.456670E+02	  0.047054108	6.050000E-01	  0.047054108	-1.544300E+01
137	  0.047254506	-1.930000E-01	  0.047254506	-1.462300E+02	  0.047254506	6.080000E-01	  0.047254506	-1.517400E+01
138	  0.047454908	-1.870000E-01	  0.047454908	-1.467450E+02	  0.047454908	5.860000E-01	  0.047454908	-1.492900E+01
139	  0.047655310	-1.820000E-01	  0.047655310	-1.472460E+02	  0.047655310	5.700000E-01	  0.047655310	-1.469200E+01
140	  0.047855709	-1.790000E-01	  0.047855709	-1.477030E+02	  0.047855709	5.580000E-01	  0.047855709	-1.447500E+01
141	  0.048056111	-1.750000E-01	  0.048056111	-1.481670E+02	  0.048056111	5.460000E-01	  0.048056111	-1.425600E+01
142	  0.048256513	-1.750000E-01	  0.048256513	-1.486320E+02	  0.048256513	5.450000E-01	  0.048256513	-1.403700E+01
143	  0.048456915	-1.760000E-01	  0.048456915	-1.490970E+02	  0.048456915	5.450000E-01	  0.048456915	-1.381800E+01
144	  0.048657313	-1.750000E-01	  0.048657313	-1.495460E+02	  0.048657313	5.410000E-01	  0.048657313	-1.360800E+01
145	  0.048857715	-1.800000E-01	  0.048857715	-1.499930E+02	  0.048857715	5.560000E-01	  0.048857715	-1.339900E+01
146	  0.049058117	-1.850000E-01	  0.049058117	-1.504440E+02	  0.049058117	5.690000E-01	  0.049058117	-1.318800E+01
147	  0.049258515	-1.910000E-01	  0.049258515	-1.509260E+02	  0.049258515	5.890000E-01	  0.049258515	-1.296300E+01
148	  0.049458917	-1.960000E-01	  0.049458917	-1.514070E+02	  0.049458917	6.010000E-01	  0.049458917	-1.273900E+01
149	  0.049659319	-1.980000E-01	  0.049659319	-1.519170E+02	  0.049659319	6.070000E-01	  0.049659319	-1.250300E+01
150	  0.049859721	-2.000000E-01	  0.049859721	-1.524100E+02	  0.049859721	6.110000E-01	  0.049859721	-1.227400E+01
151	  0.050060119	-1.980000E-01	  0.050060119	-1.528800E+02	  0.050060119	6.050000E-01	  0.050060119	-1.205700E+01
152	  0.050260521	-2.020000E-01	  0.050260521	-1.533490E+02	  0.050260521	6.150000E-01	  0.050260521	-1.184100E+01
153	  0.050460923	-2.050000E-01	  0.050460923	-1.538400E+02	  0.050460923	6.240000E-01	  0.050460923	-1.161400E+01
154	  0.050661322	-2.060000E-01	  0.050661322	-1.543520E+02	  0.050661322	6.240000E-01	  0.050661322	-1.137900E+01
155	  0.050861724	-2.070000E-01	  0.050861724	-1.548890E+02	  0.050861724	6.250000E-01	  0.050861724	-1.113300E+01
156	  0.051062126	-2.040000E-01	  0.051062126	-1.553940E+02	  0.051062126	6.170000E-01	  0.051062126	-1.090200E+01
157	  0.051262524	-2.030000E-01	  0.051262524	-1.558810E+02	  0.051262524	6.130000E-01	  0.051262524	-1.068000E+01
158	  0.051462926	-2.030000E-01	  0.051462926	-1.563830E+02	  0.051462926	6.120000E-01	  0.051462926	-1.045100E+01
159	  0.051663328	-2.040000E-01	  0.051663328	-1.568490E+02	  0.051663328	6.130000E-01	  0.051663328	-1.023900E+01
160	  0.051863730	-2.090000E-01	  0.051863730	-1.573270E+02	  0.051863730	6.270000E-01	  0.051863730	-1.002200E+01
161	  0.052064128	-2.130000E-01	  0.052064128	-1.578100E+02	  0.052064128	6.380000E-01	  0.052064128	-9.803000E+00
162	  0.052264530	-2.160000E-01	  0.052264530	-1.582860E+02	  0.052264530	6.460000E-01	  0.052264530	-9.587000E+00
163	  0.052464932	-2.160000E-01	  0.052464932	-1.587990E+02	  0.052464932	6.440000E-01	  0.052464932	-9.356000E+00
164	  0.052665330	-2.140000E-01	  0.052665330	-1.592940E+02	  0.052665330	6.370000E-01	  0.052665330	-9.132000E+00
165	  0.052865732	-2.120000E-01	  0.052865732	-1.597690E+02	  0.052865732	6.300000E-01	  0.052865732	-8.918000E+00
166	  0.053066134	-2.070000E-01	  0.053066134	-1.602250E+02	  0.053066134	6.130000E-01	  0.053066134	-8.713000E+00
167	  0.053266536	-2.040000E-01	  0.053266536	-1.606750E+02	  0.053266536	6.060000E-01	  0.053266536	-8.511000E+00
168	  0.053466935	-2.040000E-01	  0.053466935	-1.611400E+02	  0.053466935	6.040000E-01	  0.053466935	-8.302000E+00
169	  0.053667337	-2.030000E-01	  0.053667337	-1.615800E+02	  0.053667337	6.020000E-01	  0.053667337	-8.105000E+00
170	  0.053867739	-2.010000E-01	  0.053867739	-1.620230E+02	  0.053867739	5.950000E-01	  0.053867739	-7.907000E+00
171	  0.054068137	-2.030000E-01	  0.054068137	-1.624530E+02	  0.054068137	6.010000E-01	  0.054068137	-7.715000E+00
172	  0.054268539	-2.090000E-01	  0.054268539	-1.628890E+02	  0.054268539	6.160000E-01	  0.054268539	-7.520000E+00
173	  0.054468941	-2.120000E-01	  0.054468941	-1.633330E+02	  0.054468941	6.250000E-01	  0.054468941	-7.322000E+00
174	  0.054669339	-2.150000E-01	  0.054669339	-1.638060E+02	  0.054669339	6.320000E-01	  0.054669339	-7.112000E+00
175	  0.054869737	-2.170000E-01	  0.054869737	-1.642700E+02	  0.054869737	6.370000E-01	  0.054869737	-6.905000E+00
176	  0.055070139	-2.160000E-01	  0.055070139	-1.647020E+02	  0.055070139	6.340000E-01	  0.055070139	-6.713000E+00
177	  0.055270538	-2.170000E-01	  0.055270538	-1.651580E+02	  0.055270538	6.350000E-01	  0.055270538	-6.511000E+00
178	  0.055470940	-2.210000E-01	  0.055470940	-1.656110E+02	  0.055470940	6.460000E-01	  0.055470940	-6.310000E+00
179	  0.055671342	-2.230000E-01	  0.055671342	-1.660670E+02	  0.055671342	6.540000E-01	  0.055671342	-6.108000E+00
180	  0.055871744	-2.250000E-01	  0.055871744	-1.665470E+02	  0.055871744	6.580000E-01	  0.055871744	-5.895000E+00
181	  0.056072142	-2.270000E-01	  0.056072142	-1.670280E+02	  0.056072142	6.640000E-01	  0.056072142	-5.683000E+00
182	  0.056272544	-2.260000E-01	  0.056272544	-1.674990E+02	  0.056272544	6.600000E-01	  0.056272544	-5.475000E+00
183	  0.056472946	-2.250000E-01	  0.056472946	-1.679730E+02	  0.056472946	6.560000E-01	  0.056472946	-5.265000E+00
184	  0.056673344	-2.260000E-01	  0.056673344	-1.684380E+02	  0.056673344	6.590000E-01	  0.056673344	-5.061000E+00
185	  0.056873746	-2.290000E-01	  0.056873746	-1.689020E+02	  0.056873746	6.670000E-01	  0.056873746	-4.856000E+00
186	  0.057074148	-2.300000E-01	  0.057074148	-1.693620E+02	  0.057074148	6.680000E-01	  0.057074148	-4.653000E+00
187	  0.057274550	-2.310000E-01	  0.057274550	-1.698150E+02	  0.057274550	6.710000E-01	  0.057274550	-4.454000E+00
188	  0.057474948	-2.320000E-01	  0.057474948	-1.702560E+02	  0.057474948	6.720000E-01	  0.057474948	-4.260000E+00
189	  0.057675350	-2.340000E-01	  0.057675350	-1.707290E+02	  0.057675350	6.780000E-01	  0.057675350	-4.053000E+00
190	  0.057875752	-2.340000E-01	  0.057875752	-1.711740E+02	  0.057875752	6.790000E-01	  0.057875752	-3.857000E+00
191	  0.058076151	-2.330000E-01	  0.058076151	-1.716210E+02	  0.058076151	6.740000E-01	  0.058076151	-3.661000E+00
192	  0.058276553	-2.300000E-01	  0.058276553	-1.720670E+02	  0.058276553	6.660000E-01	  0.058276553	-3.466000E+00
193	  0.058476955	-2.280000E-01	  0.058476955	-1.724920E+02	  0.058476955	6.600000E-01	  0.058476955	-3.279000E+00
194	  0.058677353	-2.270000E-01	  0.058677353	-1.729420E+02	  0.058677353	6.550000E-01	  0.058677353	-3.082000E+00
195	  0.058877755	-2.260000E-01	  0.058877755	-1.733700E+02	  0.058877755	6.530000E-01	  0.058877755	-2.895000E+00
196	  0.059078157	-2.270000E-01	  0.059078157	-1.738030E+02	  0.059078157	6.550000E-01	  0.059078157	-2.706000E+00
197	  0.059278559	-2.300000E-01	  0.059278559	-1.742230E+02	  0.059278559	6.650000E-01	  0.059278559	-2.522000E+00
198	  0.059478957	-2.330000E-01	  0.059478957	-1.746420E+02	  0.059478957	6.720000E-01	  0.059478957	-2.338000E+00
199	  0.059679359	-2.340000E-01	  0.059679359	-1.750810E+02	  0.059679359	6.760000E-01	  0.059679359	-2.147000E+00
200	  0.059879761	-2.360000E-01	  0.059879761	-1.755120E+02	  0.059879761	6.820000E-01	  0.059879761	-1.958000E+00
201	  0.060080159	-2.380000E-01	  0.060080159	-1.759390E+02	  0.060080159	6.880000E-01	  0.060080159	-1.771000E+00
202	  0.060280561	-2.390000E-01	  0.060280561	-1.763760E+02	  0.060280561	6.890000E-01	  0.060280561	-1.581000E+00
203	  0.060480963	-2.400000E-01	  0.060480963	-1.768100E+02	  0.060480963	6.930000E-01	  0.060480963	-1.391000E+00
204	  0.060681365	-2.440000E-01	  0.060681365	-1.772470E+02	  0.060681365	7.040000E-01	  0.060681365	-1.200000E+00
205	  0.060881764	-2.460000E-01	  0.060881764	-1.776800E+02	  0.060881764	7.080000E-01	  0.060881764	-1.012000E+00
206	  0.061082166	-2.470000E-01	  0.061082166	-1.781290E+02	  0.061082166	7.110000E-01	  0.061082166	-8.160000E-01
207	  0.061282568	-2.490000E-01	  0.061282568	-1.785920E+02	  0.061282568	7.170000E-01	  0.061282568	-6.130000E-01
208	  0.061482966	-2.500000E-01	  0.061482966	-1.790490E+02	  0.061482966	7.190000E-01	  0.061482966	-4.140000E-01
209	  0.061683368	-2.500000E-01	  0.061683368	-1.794960E+02	  0.061683368	7.200000E-01	  0.061683368	-2.190000E-01
210	  0.061883770	-2.520000E-01	  0.061883770	-1.799560E+02	  0.061883770	7.250000E-01	  0.061883770	-1.800000E-02
211	  0.062084168	-2.530000E-01	  0.062084168	1.795860E+02	  0.062084168	7.290000E-01	  0.062084168	1.800000E-01
212	  0.062284570	-2.520000E-01	  0.062284570	1.791450E+02	  0.062284570	7.260000E-01	  0.062284570	3.720000E-01
213	  0.062484972	-2.540000E-01	  0.062484972	1.787130E+02	  0.062484972	7.330000E-01	  0.062484972	5.610000E-01
214	  0.062685370	-2.530000E-01	  0.062685370	1.782780E+02	  0.062685370	7.300000E-01	  0.062685370	7.510000E-01
215	  0.062885776	-2.540000E-01	  0.062885776	1.778450E+02	  0.062885776	7.310000E-01	  0.062885776	9.390000E-01
216	  0.063086174	-2.560000E-01	  0.063086174	1.774230E+02	  0.063086174	7.380000E-01	  0.063086174	1.124000E+00
217	  0.063286573	-2.530000E-01	  0.063286573	1.769860E+02	  0.063286573	7.290000E-01	  0.063286573	1.315000E+00
218	  0.063486971	-2.510000E-01	  0.063486971	1.765510E+02	  0.063486971	7.240000E-01	  0.063486971	1.504000E+00
219	  0.063687377	-2.470000E-01	  0.063687377	1.761330E+02	  0.063687377	7.130000E-01	  0.063687377	1.687000E+00
220	  0.063887775	-2.470000E-01	  0.063887775	1.757400E+02	  0.063887775	7.120000E-01	  0.063887775	1.859000E+00
221	  0.064088173	-2.470000E-01	  0.064088173	1.753370E+02	  0.064088173	7.120000E-01	  0.064088173	2.035000E+00
222	  0.064288579	-2.490000E-01	  0.064288579	1.749390E+02	  0.064288579	7.180000E-01	  0.064288579	2.208000E+00
223	  0.064488977	-2.520000E-01	  0.064488977	1.745200E+02	  0.064488977	7.270000E-01	  0.064488977	2.392000E+00
224	  0.064689375	-2.500000E-01	  0.064689375	1.740990E+02	  0.064689375	7.220000E-01	  0.064689375	2.576000E+00
225	  0.064889781	-2.520000E-01	  0.064889781	1.736980E+02	  0.064889781	7.270000E-01	  0.064889781	2.751000E+00
226	  0.065090179	-2.540000E-01	  0.065090179	1.732950E+02	  0.065090179	7.350000E-01	  0.065090179	2.927000E+00
227	  0.065290578	-2.570000E-01	  0.065290578	1.728900E+02	  0.065290578	7.420000E-01	  0.065290578	3.105000E+00
228	  0.065490983	-2.580000E-01	  0.065490983	1.725000E+02	  0.065490983	7.460000E-01	  0.065490983	3.276000E+00
229	  0.065691382	-2.600000E-01	  0.065691382	1.721160E+02	  0.065691382	7.530000E-01	  0.065691382	3.444000E+00
230	  0.065891780	-2.630000E-01	  0.065891780	1.716860E+02	  0.065891780	7.630000E-01	  0.065891780	3.632000E+00
231	  0.066092186	-2.630000E-01	  0.066092186	1.712750E+02	  0.066092186	7.620000E-01	  0.066092186	3.813000E+00
232	  0.066292584	-2.640000E-01	  0.066292584	1.708380E+02	  0.066292584	7.650000E-01	  0.066292584	4.004000E+00
233	  0.066492982	-2.680000E-01	  0.066492982	1.704230E+02	  0.066492982	7.770000E-01	  0.066492982	4.187000E+00
234	  0.066693388	-2.660000E-01	  0.066693388	1.699980E+02	  0.066693388	7.730000E-01	  0.066693388	4.373000E+00
235	  0.066893786	-2.690000E-01	  0.066893786	1.695540E+02	  0.066893786	7.820000E-01	  0.066893786	4.569000E+00
236	  0.067094192	-2.720000E-01	  0.067094192	1.691120E+02	  0.067094192	7.910000E-01	  0.067094192	4.763000E+00
237	  0.067294590	-2.710000E-01	  0.067294590	1.686840E+02	  0.067294590	7.900000E-01	  0.067294590	4.952000E+00
238	  0.067494988	-2.770000E-01	  0.067494988	1.682560E+02	  0.067494988	8.070000E-01	  0.067494988	5.140000E+00
239	  0.067695394	-2.790000E-01	  0.067695394	1.678360E+02	  0.067695394	8.130000E-01	  0.067695394	5.325000E+00
240	  0.067895792	-2.760000E-01	  0.067895792	1.673800E+02	  0.067895792	8.050000E-01	  0.067895792	5.527000E+00
241	  0.068096191	-2.750000E-01	  0.068096191	1.669610E+02	  0.068096191	8.010000E-01	  0.068096191	5.712000E+00
242	  0.068296596	-2.770000E-01	  0.068296596	1.665460E+02	  0.068296596	8.110000E-01	  0.068296596	5.895000E+00
243	  0.068496995	-2.770000E-01	  0.068496995	1.661120E+02	  0.068496995	8.090000E-01	  0.068496995	6.087000E+00
244	  0.068697393	-2.730000E-01	  0.068697393	1.656850E+02	  0.068697393	8.000000E-01	  0.068697393	6.276000E+00
245	  0.068897791	-2.730000E-01	  0.068897791	1.653020E+02	  0.068897791	7.990000E-01	  0.068897791	6.446000E+00
246	  0.069098189	-2.720000E-01	  0.069098189	1.648970E+02	  0.069098189	7.990000E-01	  0.069098189	6.626000E+00
247	  0.069298595	-2.700000E-01	  0.069298595	1.645140E+02	  0.069298595	7.920000E-01	  0.069298595	6.796000E+00
248	  0.069498993	-2.750000E-01	  0.069498993	1.641070E+02	  0.069498993	8.070000E-01	  0.069498993	6.977000E+00
249	  0.069699399	-2.760000E-01	  0.069699399	1.636680E+02	  0.069699399	8.110000E-01	  0.069699399	7.172000E+00
250	  0.069899797	-2.730000E-01	  0.069899797	1.632570E+02	  0.069899797	8.050000E-01	  0.069899797	7.355000E+00
251	  0.070100196	-2.780000E-01	  0.070100196	1.628710E+02	  0.070100196	8.190000E-01	  0.070100196	7.527000E+00
252	  0.070300601	-2.810000E-01	  0.070300601	1.625140E+02	  0.070300601	8.280000E-01	  0.070300601	7.687000E+00
253	  0.070501000	-2.770000E-01	  0.070501000	1.620930E+02	  0.070501000	8.190000E-01	  0.070501000	7.875000E+00
254	  0.070701398	-2.790000E-01	  0.070701398	1.617120E+02	  0.070701398	8.250000E-01	  0.070701398	8.045000E+00
255	  0.070901804	-2.790000E-01	  0.070901804	1.613430E+02	  0.070901804	8.260000E-01	  0.070901804	8.210000E+00
256	  0.071102202	-2.780000E-01	  0.071102202	1.609260E+02	  0.071102202	8.240000E-01	  0.071102202	8.398000E+00
257	  0.071302600	-2.800000E-01	  0.071302600	1.605210E+02	  0.071302600	8.290000E-01	  0.071302600	8.579000E+00
258	  0.071503006	-2.780000E-01	  0.071503006	1.601490E+02	  0.071503006	8.270000E-01	  0.071503006	8.746000E+00
259	  0.071703404	-2.820000E-01	  0.071703404	1.597410E+02	  0.071703404	8.380000E-01	  0.071703404	8.930000E+00
260	  0.071903802	-2.810000E-01	  0.071903802	1.593510E+02	  0.071903802	8.360000E-01	  0.071903802	9.106000E+00
261	  0.072104208	-2.830000E-01	  0.072104208	1.589420E+02	  0.072104208	8.440000E-01	  0.072104208	9.290000E+00
262	  0.072304606	-2.850000E-01	  0.072304606	1.585200E+02	  0.072304606	8.510000E-01	  0.072304606	9.480000E+00
263	  0.072505005	-2.870000E-01	  0.072505005	1.581450E+02	  0.072505005	8.580000E-01	  0.072505005	9.650000E+00
264	  0.072705410	-2.870000E-01	  0.072705410	1.577510E+02	  0.072705410	8.600000E-01	  0.072705410	9.828000E+00
265	  0.072905809	-2.920000E-01	  0.072905809	1.573530E+02	  0.072905809	8.750000E-01	  0.072905809	1.000900E+01
266	  0.073106214	-2.920000E-01	  0.073106214	1.569560E+02	  0.073106214	8.750000E-01	  0.073106214	1.018900E+01
267	  0.073306613	-2.920000E-01	  0.073306613	1.565410E+02	  0.073306613	8.760000E-01	  0.073306613	1.037800E+01
268	  0.073507011	-2.930000E-01	  0.073507011	1.561080E+02	  0.073507011	8.820000E-01	  0.073507011	1.057500E+01
269	  0.073707417	-2.910000E-01	  0.073707417	1.556860E+02	  0.073707417	8.780000E-01	  0.073707417	1.076700E+01
270	  0.073907815	-2.890000E-01	  0.073907815	1.553190E+02	  0.073907815	8.720000E-01	  0.073907815	1.093500E+01
271	  0.074108213	-2.850000E-01	  0.074108213	1.549430E+02	  0.074108213	8.630000E-01	  0.074108213	1.110700E+01
272	  0.074308619	-2.900000E-01	  0.074308619	1.545610E+02	  0.074308619	8.770000E-01	  0.074308619	1.128200E+01
273	  0.074509017	-2.900000E-01	  0.074509017	1.541710E+02	  0.074509017	8.800000E-01	  0.074509017	1.146100E+01
274	  0.074709415	-2.910000E-01	  0.074709415	1.537810E+02	  0.074709415	8.830000E-01	  0.074709415	1.164000E+01
275	  0.074909821	-2.930000E-01	  0.074909821	1.533540E+02	  0.074909821	8.930000E-01	  0.074909821	1.183700E+01
276	  0.075110219	-2.960000E-01	  0.075110219	1.529610E+02	  0.075110219	9.030000E-01	  0.075110219	1.201800E+01
277	  0.075310618	-2.980000E-01	  0.075310618	1.525670E+02	  0.075310618	9.080000E-01	  0.075310618	1.219900E+01
278	  0.075511023	-2.970000E-01	  0.075511023	1.521840E+02	  0.075511023	9.090000E-01	  0.075511023	1.237600E+01
279	  0.075711422	-3.000000E-01	  0.075711422	1.518150E+02	  0.075711422	9.170000E-01	  0.075711422	1.254800E+01
280	  0.075911827	-3.010000E-01	  0.075911827	1.514280E+02	  0.075911827	9.230000E-01	  0.075911827	1.272700E+01
281	  0.076112226	-3.000000E-01	  0.076112226	1.510420E+02	  0.076112226	9.210000E-01	  0.076112226	1.290700E+01
282	  0.076312624	-2.980000E-01	  0.076312624	1.506480E+02	  0.076312624	9.180000E-01	  0.076312624	1.309000E+01
283	  0.076513030	-2.970000E-01	  0.076513030	1.502620E+02	  0.076513030	9.160000E-01	  0.076513030	1.327000E+01
284	  0.076713428	-2.960000E-01	  0.076713428	1.498750E+02	  0.076713428	9.150000E-01	  0.076713428	1.345100E+01
285	  0.076913826	-2.960000E-01	  0.076913826	1.495010E+02	  0.076913826	9.180000E-01	  0.076913826	1.362600E+01
286	  0.077114232	-2.930000E-01	  0.077114232	1.491320E+02	  0.077114232	9.090000E-01	  0.077114232	1.379900E+01
287	  0.077314630	-2.920000E-01	  0.077314630	1.487360E+02	  0.077314630	9.060000E-01	  0.077314630	1.398500E+01
288	  0.077515028	-2.930000E-01	  0.077515028	1.483780E+02	  0.077515028	9.110000E-01	  0.077515028	1.415400E+01
289	  0.077715434	-2.950000E-01	  0.077715434	1.480250E+02	  0.077715434	9.190000E-01	  0.077715434	1.432000E+01
290	  0.077915832	-2.970000E-01	  0.077915832	1.476550E+02	  0.077915832	9.270000E-01	  0.077915832	1.449500E+01
291	  0.078116231	-2.980000E-01	  0.078116231	1.473080E+02	  0.078116231	9.310000E-01	  0.078116231	1.465900E+01
292	  0.078316636	-3.000000E-01	  0.078316636	1.469310E+02	  0.078316636	9.400000E-01	  0.078316636	1.483800E+01
293	  0.078517035	-3.020000E-01	  0.078517035	1.465280E+02	  0.078517035	9.480000E-01	  0.078517035	1.502900E+01
294	  0.078717433	-3.020000E-01	  0.078717433	1.461520E+02	  0.078717433	9.520000E-01	  0.078717433	1.520800E+01
295	  0.078917839	-3.000000E-01	  0.078917839	1.457510E+02	  0.078917839	9.460000E-01	  0.078917839	1.540000E+01
296	  0.079118237	-3.000000E-01	  0.079118237	1.453910E+02	  0.079118237	9.480000E-01	  0.079118237	1.557200E+01
297	  0.079318643	-2.970000E-01	  0.079318643	1.450230E+02	  0.079318643	9.410000E-01	  0.079318643	1.574800E+01
298	  0.079519041	-2.980000E-01	  0.079519041	1.446680E+02	  0.079519041	9.440000E-01	  0.079519041	1.591900E+01
299	  0.079719439	-3.010000E-01	  0.079719439	1.443000E+02	  0.079719439	9.570000E-01	  0.079719439	1.609500E+01
300	  0.079919845	-3.010000E-01	  0.079919845	1.439000E+02	  0.079919845	9.600000E-01	  0.079919845	1.628800E+01
301	  0.080120243	-3.070000E-01	  0.080120243	1.435220E+02	  0.080120243	9.820000E-01	  0.080120243	1.647000E+01
302	  0.080320641	-3.090000E-01	  0.080320641	1.431140E+02	  0.080320641	9.890000E-01	  0.080320641	1.666800E+01
303	  0.080521047	-3.120000E-01	  0.080521047	1.427490E+02	  0.080521047	1.000000E+00	  0.080521047	1.684500E+01
304	  0.080721445	-3.160000E-01	  0.080721445	1.423500E+02	  0.080721445	1.015000E+00	  0.080721445	1.703900E+01
305	  0.080921844	-3.170000E-01	  0.080921844	1.419610E+02	  0.080921844	1.022000E+00	  0.080921844	1.722800E+01
306	  0.081122249	-3.190000E-01	  0.081122249	1.415810E+02	  0.081122249	1.029000E+00	  0.081122249	1.741400E+01
307	  0.081322648	-3.160000E-01	  0.081322648	1.411850E+02	  0.081322648	1.023000E+00	  0.081322648	1.760800E+01
308	  0.081523046	-3.150000E-01	  0.081523046	1.408120E+02	  0.081523046	1.021000E+00	  0.081523046	1.779100E+01
309	  0.081723452	-3.140000E-01	  0.081723452	1.404210E+02	  0.081723452	1.022000E+00	  0.081723452	1.798400E+01
310	  0.081923850	-3.110000E-01	  0.081923850	1.400410E+02	  0.081923850	1.016000E+00	  0.081923850	1.817100E+01
311	  0.082124248	-3.130000E-01	  0.082124248	1.396620E+02	  0.082124248	1.023000E+00	  0.082124248	1.835800E+01
312	  0.082324654	-3.100000E-01	  0.082324654	1.392830E+02	  0.082324654	1.018000E+00	  0.082324654	1.854600E+01
313	  0.082525052	-3.030000E-01	  0.082525052	1.389210E+02	  0.082525052	9.970000E-01	  0.082525052	1.872600E+01
314	  0.082725458	-3.040000E-01	  0.082725458	1.385380E+02	  0.082725458	1.002000E+00	  0.082725458	1.891700E+01
315	  0.082925856	-3.050000E-01	  0.082925856	1.382240E+02	  0.082925856	1.007000E+00	  0.082925856	1.907400E+01
316	  0.083126254	-3.060000E-01	  0.083126254	1.378680E+02	  0.083126254	1.011000E+00	  0.083126254	1.925200E+01
317	  0.083326660	-3.070000E-01	  0.083326660	1.375500E+02	  0.083326660	1.019000E+00	  0.083326660	1.941100E+01
318	  0.083527058	-3.090000E-01	  0.083527058	1.371990E+02	  0.083527058	1.028000E+00	  0.083527058	1.958800E+01
319	  0.083727457	-3.140000E-01	  0.083727457	1.368380E+02	  0.083727457	1.045000E+00	  0.083727457	1.976900E+01
320	  0.083927862	-3.120000E-01	  0.083927862	1.364310E+02	  0.083927862	1.041000E+00	  0.083927862	1.997500E+01
321	  0.084128261	-3.130000E-01	  0.084128261	1.360800E+02	  0.084128261	1.049000E+00	  0.084128261	2.015200E+01
322	  0.084328659	-3.110000E-01	  0.084328659	1.357220E+02	  0.084328659	1.045000E+00	  0.084328659	2.033400E+01
323	  0.084529065	-3.090000E-01	  0.084529065	1.353910E+02	  0.084529065	1.040000E+00	  0.084529065	2.050300E+01
324	  0.084729463	-3.110000E-01	  0.084729463	1.350330E+02	  0.084729463	1.049000E+00	  0.084729463	2.068500E+01
325	  0.084929861	-3.120000E-01	  0.084929861	1.346760E+02	  0.084929861	1.056000E+00	  0.084929861	2.086800E+01
326	  0.085130267	-3.150000E-01	  0.085130267	1.343210E+02	  0.085130267	1.069000E+00	  0.085130267	2.105000E+01
327	  0.085330658	-3.170000E-01	  0.085330658	1.339710E+02	  0.085330658	1.077000E+00	  0.085330658	2.123000E+01
328	  0.085531056	-3.210000E-01	  0.085531056	1.335950E+02	  0.085531056	1.095000E+00	  0.085531056	2.142300E+01
329	  0.085731462	-3.250000E-01	  0.085731462	1.332320E+02	  0.085731462	1.110000E+00	  0.085731462	2.161100E+01
330	  0.085931860	-3.280000E-01	  0.085931860	1.328700E+02	  0.085931860	1.125000E+00	  0.085931860	2.179800E+01
331	  0.086132258	-3.300000E-01	  0.086132258	1.325060E+02	  0.086132258	1.135000E+00	  0.086132258	2.198700E+01
332	  0.086332664	-3.320000E-01	  0.086332664	1.321190E+02	  0.086332664	1.146000E+00	  0.086332664	2.218900E+01
333	  0.086533062	-3.280000E-01	  0.086533062	1.317520E+02	  0.086533062	1.134000E+00	  0.086533062	2.238100E+01
334	  0.086733460	-3.270000E-01	  0.086733460	1.313610E+02	  0.086733460	1.133000E+00	  0.086733460	2.258600E+01
335	  0.086933866	-3.260000E-01	  0.086933866	1.309860E+02	  0.086933866	1.134000E+00	  0.086933866	2.278300E+01
336	  0.087134264	-3.260000E-01	  0.087134264	1.306310E+02	  0.087134264	1.138000E+00	  0.087134264	2.297000E+01
337	  0.087334670	-3.240000E-01	  0.087334670	1.302370E+02	  0.087334670	1.136000E+00	  0.087334670	2.317900E+01
338	  0.087535068	-3.230000E-01	  0.087535068	1.298860E+02	  0.087535068	1.133000E+00	  0.087535068	2.336600E+01
339	  0.087735467	-3.140000E-01	  0.087735467	1.295470E+02	  0.087735467	1.106000E+00	  0.087735467	2.354600E+01
340	  0.087935872	-3.110000E-01	  0.087935872	1.292130E+02	  0.087935872	1.097000E+00	  0.087935872	2.372400E+01
341	  0.088136271	-3.070000E-01	  0.088136271	1.288690E+02	  0.088136271	1.085000E+00	  0.088136271	2.390900E+01
342	  0.088336669	-3.070000E-01	  0.088336669	1.285610E+02	  0.088336669	1.091000E+00	  0.088336669	2.407500E+01
343	  0.088537075	-3.090000E-01	  0.088537075	1.282390E+02	  0.088537075	1.098000E+00	  0.088537075	2.424800E+01
344	  0.088737473	-3.090000E-01	  0.088737473	1.278980E+02	  0.088737473	1.104000E+00	  0.088737473	2.443100E+01
345	  0.088937871	-3.130000E-01	  0.088937871	1.275800E+02	  0.088937871	1.119000E+00	  0.088937871	2.460300E+01
346	  0.089138277	-3.100000E-01	  0.089138277	1.272230E+02	  0.089138277	1.113000E+00	  0.089138277	2.479700E+01
347	  0.089338675	-3.140000E-01	  0.089338675	1.268790E+02	  0.089338675	1.131000E+00	  0.089338675	2.498400E+01
348	  0.089539073	-3.110000E-01	  0.089539073	1.265100E+02	  0.089539073	1.124000E+00	  0.089539073	2.518600E+01
349	  0.089739479	-3.140000E-01	  0.089739479	1.261630E+02	  0.089739479	1.139000E+00	  0.089739479	2.537600E+01
350	  0.089939877	-3.160000E-01	  0.089939877	1.258250E+02	  0.089939877	1.147000E+00	  0.089939877	2.556100E+01
351	  0.090140276	-3.130000E-01	  0.090140276	1.254650E+02	  0.090140276	1.143000E+00	  0.090140276	2.575900E+01
352	  0.090340681	-3.210000E-01	  0.090340681	1.251190E+02	  0.090340681	1.174000E+00	  0.090340681	2.595000E+01
353	  0.090541080	-3.130000E-01	  0.090541080	1.247590E+02	  0.090541080	1.150000E+00	  0.090541080	2.615100E+01
354	  0.090741485	-3.200000E-01	  0.090741485	1.243970E+02	  0.090741485	1.179000E+00	  0.090741485	2.635100E+01
355	  0.090941884	-3.220000E-01	  0.090941884	1.240460E+02	  0.090941884	1.191000E+00	  0.090941884	2.654700E+01
356	  0.091142282	-3.310000E-01	  0.091142282	1.236780E+02	  0.091142282	1.227000E+00	  0.091142282	2.675300E+01
357	  0.091342688	-3.340000E-01	  0.091342688	1.233000E+02	  0.091342688	1.241000E+00	  0.091342688	2.696500E+01
358	  0.091543086	-3.360000E-01	  0.091543086	1.229430E+02	  0.091543086	1.254000E+00	  0.091543086	2.716600E+01
359	  0.091743484	-3.350000E-01	  0.091743484	1.225380E+02	  0.091743484	1.253000E+00	  0.091743484	2.739500E+01
360	  0.091943890	-3.320000E-01	  0.091943890	1.221670E+02	  0.091943890	1.246000E+00	  0.091943890	2.760600E+01
361	  0.092144288	-3.330000E-01	  0.092144288	1.217680E+02	  0.092144288	1.257000E+00	  0.092144288	2.783300E+01
362	  0.092344686	-3.310000E-01	  0.092344686	1.213760E+02	  0.092344686	1.255000E+00	  0.092344686	2.805800E+01
363	  0.092545092	-3.340000E-01	  0.092545092	1.210320E+02	  0.092545092	1.269000E+00	  0.092545092	2.825600E+01
364	  0.092745490	-3.240000E-01	  0.092745490	1.206550E+02	  0.092745490	1.236000E+00	  0.092745490	2.847400E+01
365	  0.092945889	-3.260000E-01	  0.092945889	1.203060E+02	  0.092945889	1.247000E+00	  0.092945889	2.867600E+01
366	  0.093146294	-3.180000E-01	  0.093146294	1.199580E+02	  0.093146294	1.221000E+00	  0.093146294	2.887800E+01
367	  0.093346693	-3.180000E-01	  0.093346693	1.196330E+02	  0.093346693	1.228000E+00	  0.093346693	2.906800E+01
368	  0.093547091	-3.120000E-01	  0.093547091	1.193400E+02	  0.093547091	1.206000E+00	  0.093547091	2.923900E+01
369	  0.093747497	-3.170000E-01	  0.093747497	1.190080E+02	  0.093747497	1.229000E+00	  0.093747497	2.943400E+01
370	  0.093947895	-3.130000E-01	  0.093947895	1.186900E+02	  0.093947895	1.219000E+00	  0.093947895	2.962100E+01
371	  0.094148301	-3.170000E-01	  0.094148301	1.183510E+02	  0.094148301	1.239000E+00	  0.094148301	2.982100E+01
372	  0.094348699	-3.160000E-01	  0.094348699	1.180260E+02	  0.094348699	1.239000E+00	  0.094348699	3.001300E+01
373	  0.094549097	-3.170000E-01	  0.094549097	1.177010E+02	  0.094549097	1.247000E+00	  0.094549097	3.020600E+01
374	  0.094749503	-3.180000E-01	  0.094749503	1.173800E+02	  0.094749503	1.254000E+00	  0.094749503	3.039800E+01
375	  0.094949901	-3.180000E-01	  0.094949901	1.170610E+02	  0.094949901	1.259000E+00	  0.094949901	3.058900E+01
376	  0.095150299	-3.200000E-01	  0.095150299	1.167200E+02	  0.095150299	1.272000E+00	  0.095150299	3.079300E+01
377	  0.095350705	-3.210000E-01	  0.095350705	1.163790E+02	  0.095350705	1.279000E+00	  0.095350705	3.099900E+01
378	  0.095551103	-3.190000E-01	  0.095551103	1.160100E+02	  0.095551103	1.280000E+00	  0.095551103	3.122200E+01
379	  0.095751502	-3.200000E-01	  0.095751502	1.157010E+02	  0.095751502	1.286000E+00	  0.095751502	3.140900E+01
380	  0.095951907	-3.220000E-01	  0.095951907	1.153580E+02	  0.095951907	1.300000E+00	  0.095951907	3.161800E+01
381	  0.096152306	-3.280000E-01	  0.096152306	1.150200E+02	  0.096152306	1.328000E+00	  0.096152306	3.182400E+01
382	  0.096352704	-3.270000E-01	  0.096352704	1.146390E+02	  0.096352704	1.330000E+00	  0.096352704	3.205900E+01
383	  0.096553110	-3.360000E-01	  0.096553110	1.143070E+02	  0.096553110	1.371000E+00	  0.096553110	3.226300E+01
384	  0.096753508	-3.360000E-01	  0.096753508	1.139420E+02	  0.096753508	1.377000E+00	  0.096753508	3.248800E+01
385	  0.096953906	-3.380000E-01	  0.096953906	1.135590E+02	  0.096953906	1.390000E+00	  0.096953906	3.272600E+01
386	  0.097154312	-3.380000E-01	  0.097154312	1.131820E+02	  0.097154312	1.399000E+00	  0.097154312	3.296100E+01
387	  0.097354710	-3.410000E-01	  0.097354710	1.128010E+02	  0.097354710	1.415000E+00	  0.097354710	3.320000E+01
388	  0.097555116	-3.410000E-01	  0.097555116	1.124220E+02	  0.097555116	1.423000E+00	  0.097555116	3.343800E+01
389	  0.097755514	-3.370000E-01	  0.097755514	1.120400E+02	  0.097755514	1.412000E+00	  0.097755514	3.368100E+01
390	  0.097955912	-3.370000E-01	  0.097955912	1.116700E+02	  0.097955912	1.416000E+00	  0.097955912	3.391600E+01
391	  0.098156318	-3.310000E-01	  0.098156318	1.113480E+02	  0.098156318	1.397000E+00	  0.098156318	3.412200E+01
392	  0.098356716	-3.310000E-01	  0.098356716	1.109990E+02	  0.098356716	1.402000E+00	  0.098356716	3.434500E+01
393	  0.098557115	-3.260000E-01	  0.098557115	1.106510E+02	  0.098557115	1.388000E+00	  0.098557115	3.457000E+01
394	  0.098757520	-3.240000E-01	  0.098757520	1.103320E+02	  0.098757520	1.386000E+00	  0.098757520	3.477600E+01
395	  0.098957919	-3.240000E-01	  0.098957919	1.100190E+02	  0.098957919	1.392000E+00	  0.098957919	3.497900E+01
396	  0.099158317	-3.240000E-01	  0.099158317	1.097160E+02	  0.099158317	1.397000E+00	  0.099158317	3.517600E+01
397	  0.099358723	-3.220000E-01	  0.099358723	1.094060E+02	  0.099358723	1.395000E+00	  0.099358723	3.537900E+01
398	  0.099559121	-3.220000E-01	  0.099559121	1.090850E+02	  0.099559121	1.398000E+00	  0.099559121	3.559000E+01
399	  0.099759519	-3.210000E-01	  0.099759519	1.087570E+02	  0.099759519	1.398000E+00	  0.099759519	3.580500E+01
400	  0.099959925	-3.170000E-01	  0.099959925	1.084600E+02	  0.099959925	1.387000E+00	  0.099959925	3.600200E+01
401	  0.100160323	-3.240000E-01	  0.100160323	1.081470E+02	  0.100160323	1.425000E+00	  0.100160323	3.620900E+01
402	  0.100360721	-3.260000E-01	  0.100360721	1.078070E+02	  0.100360721	1.437000E+00	  0.100360721	3.643500E+01
403	  0.100561127	-3.270000E-01	  0.100561127	1.074870E+02	  0.100561127	1.447000E+00	  0.100561127	3.665000E+01
404	  0.100761525	-3.250000E-01	  0.100761525	1.071920E+02	  0.100761525	1.446000E+00	  0.100761525	3.684800E+01
405	  0.100961931	-3.200000E-01	  0.100961931	1.068270E+02	  0.100961931	1.429000E+00	  0.100961931	3.709500E+01
406	  0.101162329	-3.250000E-01	  0.101162329	1.065240E+02	  0.101162329	1.459000E+00	  0.101162329	3.729900E+01
407	  0.101362728	-3.260000E-01	  0.101362728	1.061910E+02	  0.101362728	1.466000E+00	  0.101362728	3.752600E+01
408	  0.101563133	-3.300000E-01	  0.101563133	1.058450E+02	  0.101563133	1.495000E+00	  0.101563133	3.776100E+01
409	  0.101763532	-3.330000E-01	  0.101763532	1.055210E+02	  0.101763532	1.513000E+00	  0.101763532	3.798300E+01
410	  0.101963930	-3.280000E-01	  0.101963930	1.051930E+02	  0.101963930	1.497000E+00	  0.101963930	3.821000E+01
411	  0.102164336	-3.340000E-01	  0.102164336	1.048220E+02	  0.102164336	1.531000E+00	  0.102164336	3.846700E+01
412	  0.102364734	-3.400000E-01	  0.102364734	1.044760E+02	  0.102364734	1.568000E+00	  0.102364734	3.870600E+01
413	  0.102565132	-3.360000E-01	  0.102565132	1.041460E+02	  0.102565132	1.558000E+00	  0.102565132	3.893700E+01
414	  0.102765530	-3.420000E-01	  0.102765530	1.037710E+02	  0.102765530	1.592000E+00	  0.102765530	3.920000E+01
415	  0.102965929	-3.380000E-01	  0.102965929	1.034340E+02	  0.102965929	1.580000E+00	  0.102965929	3.943800E+01
416	  0.103166327	-3.400000E-01	  0.103166327	1.030770E+02	  0.103166327	1.597000E+00	  0.103166327	3.969100E+01
417	  0.103366733	-3.430000E-01	  0.103366733	1.027530E+02	  0.103366733	1.621000E+00	  0.103366733	3.992200E+01
418	  0.103567131	-3.330000E-01	  0.103567131	1.023720E+02	  0.103567131	1.579000E+00	  0.103567131	4.019600E+01
419	  0.103767529	-3.310000E-01	  0.103767529	1.020940E+02	  0.103767529	1.578000E+00	  0.103767529	4.039600E+01
420	  0.103967935	-3.330000E-01	  0.103967935	1.017580E+02	  0.103967935	1.593000E+00	  0.103967935	4.063800E+01
421	  0.104168333	-3.320000E-01	  0.104168333	1.014730E+02	  0.104168333	1.598000E+00	  0.104168333	4.084500E+01
422	  0.104368731	-3.400000E-01	  0.104368731	1.011250E+02	  0.104368731	1.642000E+00	  0.104368731	4.109800E+01
423	  0.104569137	-3.290000E-01	  0.104569137	1.008540E+02	  0.104569137	1.596000E+00	  0.104569137	4.129800E+01
424	  0.104769535	-3.360000E-01	  0.104769535	1.005490E+02	  0.104769535	1.636000E+00	  0.104769535	4.152100E+01
425	  0.104969934	-3.330000E-01	  0.104969934	1.002670E+02	  0.104969934	1.627000E+00	  0.104969934	4.173000E+01
426	  0.105170339	-3.420000E-01	  0.105170339	9.995900E+01	  0.105170339	1.679000E+00	  0.105170339	4.195700E+01
427	  0.105370738	-3.350000E-01	  0.105370738	9.966000E+01	  0.105370738	1.654000E+00	  0.105370738	4.218000E+01
428	  0.105571143	-3.460000E-01	  0.105571143	9.937600E+01	  0.105571143	1.712000E+00	  0.105571143	4.239100E+01
429	  0.105771542	-3.390000E-01	  0.105771542	9.903200E+01	  0.105771542	1.686000E+00	  0.105771542	4.265100E+01
430	  0.105971940	-3.440000E-01	  0.105971940	9.870300E+01	  0.105971940	1.719000E+00	  0.105971940	4.289900E+01
431	  0.106172346	-3.340000E-01	  0.106172346	9.838300E+01	  0.106172346	1.680000E+00	  0.106172346	4.314300E+01
432	  0.106372744	-3.450000E-01	  0.106372744	9.808000E+01	  0.106372744	1.744000E+00	  0.106372744	4.337200E+01
433	  0.106573142	-3.450000E-01	  0.106573142	9.773200E+01	  0.106573142	1.754000E+00	  0.106573142	4.363900E+01
434	  0.106773548	-3.440000E-01	  0.106773548	9.741500E+01	  0.106773548	1.753000E+00	  0.106773548	4.388300E+01
435	  0.106973946	-3.490000E-01	  0.106973946	9.709000E+01	  0.106973946	1.787000E+00	  0.106973946	4.413300E+01
436	  0.107174344	-3.400000E-01	  0.107174344	9.674000E+01	  0.107174344	1.754000E+00	  0.107174344	4.440700E+01
437	  0.107374750	-3.420000E-01	  0.107374750	9.643700E+01	  0.107374750	1.770000E+00	  0.107374750	4.464400E+01
438	  0.107575148	-3.410000E-01	  0.107575148	9.610600E+01	  0.107575148	1.773000E+00	  0.107575148	4.490400E+01
439	  0.107775547	-3.400000E-01	  0.107775547	9.577600E+01	  0.107775547	1.780000E+00	  0.107775547	4.516500E+01
440	  0.107975952	-3.350000E-01	  0.107975952	9.542500E+01	  0.107975952	1.766000E+00	  0.107975952	4.544500E+01
441	  0.108176351	-3.340000E-01	  0.108176351	9.510300E+01	  0.108176351	1.767000E+00	  0.108176351	4.570200E+01
442	  0.108376749	-3.300000E-01	  0.108376749	9.479300E+01	  0.108376749	1.757000E+00	  0.108376749	4.595100E+01
443	  0.108577155	-3.330000E-01	  0.108577155	9.445300E+01	  0.108577155	1.781000E+00	  0.108577155	4.622500E+01
444	  0.108777553	-3.260000E-01	  0.108777553	9.415600E+01	  0.108777553	1.751000E+00	  0.108777553	4.646700E+01
445	  0.108977959	-3.210000E-01	  0.108977959	9.379900E+01	  0.108977959	1.735000E+00	  0.108977959	4.675900E+01
446	  0.109178357	-3.220000E-01	  0.109178357	9.352000E+01	  0.109178357	1.745000E+00	  0.109178357	4.698700E+01
447	  0.109378755	-3.270000E-01	  0.109378755	9.322000E+01	  0.109378755	1.784000E+00	  0.109378755	4.723400E+01
448	  0.109579161	-3.190000E-01	  0.109579161	9.292300E+01	  0.109579161	1.750000E+00	  0.109579161	4.748000E+01
449	  0.109779559	-3.210000E-01	  0.109779559	9.259900E+01	  0.109779559	1.770000E+00	  0.109779559	4.775000E+01
450	  0.109979957	-3.160000E-01	  0.109979957	9.236400E+01	  0.109979957	1.747000E+00	  0.109979957	4.794700E+01
451	  0.110180363	-3.120000E-01	  0.110180363	9.204700E+01	  0.110180363	1.738000E+00	  0.110180363	4.821400E+01
452	  0.110380761	-3.180000E-01	  0.110380761	9.177500E+01	  0.110380761	1.778000E+00	  0.110380761	4.844200E+01
453	  0.110581160	-3.190000E-01	  0.110581160	9.149200E+01	  0.110581160	1.789000E+00	  0.110581160	4.868200E+01
454	  0.110781565	-3.280000E-01	  0.110781565	9.117000E+01	  0.110781565	1.852000E+00	  0.110781565	4.895400E+01
455	  0.110981964	-3.280000E-01	  0.110981964	9.087000E+01	  0.110981964	1.864000E+00	  0.110981964	4.921100E+01
456	  0.111182362	-3.320000E-01	  0.111182362	9.056100E+01	  0.111182362	1.895000E+00	  0.111182362	4.947600E+01
457	  0.111382768	-3.330000E-01	  0.111382768	9.025200E+01	  0.111382768	1.912000E+00	  0.111382768	4.974300E+01
458	  0.111583166	-3.290000E-01	  0.111583166	8.991400E+01	  0.111583166	1.900000E+00	  0.111583166	5.003800E+01
459	  0.111783572	-3.320000E-01	  0.111783572	8.961600E+01	  0.111783572	1.928000E+00	  0.111783572	5.029800E+01
460	  0.111983970	-3.360000E-01	  0.111983970	8.926700E+01	  0.111983970	1.959000E+00	  0.111983970	5.060500E+01
461	  0.112184368	-3.410000E-01	  0.112184368	8.893300E+01	  0.112184368	2.001000E+00	  0.112184368	5.089900E+01
462	  0.112384774	-3.370000E-01	  0.112384774	8.863300E+01	  0.112384774	1.987000E+00	  0.112384774	5.116700E+01
463	  0.112585172	-3.350000E-01	  0.112585172	8.829800E+01	  0.112585172	1.990000E+00	  0.112585172	5.146700E+01
464	  0.112785570	-3.370000E-01	  0.112785570	8.797800E+01	  0.112785570	2.015000E+00	  0.112785570	5.175500E+01
465	  0.112985976	-3.360000E-01	  0.112985976	8.762700E+01	  0.112985976	2.020000E+00	  0.112985976	5.207300E+01
466	  0.113186374	-3.350000E-01	  0.113186374	8.727200E+01	  0.113186374	2.029000E+00	  0.113186374	5.239700E+01
467	  0.113386773	-3.310000E-01	  0.113386773	8.696800E+01	  0.113386773	2.015000E+00	  0.113386773	5.267700E+01
468	  0.113587178	-3.310000E-01	  0.113587178	8.660500E+01	  0.113587178	2.030000E+00	  0.113587178	5.301200E+01
469	  0.113787577	-3.290000E-01	  0.113787577	8.627800E+01	  0.113787577	2.029000E+00	  0.113787577	5.331600E+01
470	  0.113987975	-3.260000E-01	  0.113987975	8.596200E+01	  0.113987975	2.018000E+00	  0.113987975	5.361200E+01
471	  0.114188381	-3.240000E-01	  0.114188381	8.565900E+01	  0.114188381	2.022000E+00	  0.114188381	5.389800E+01
472	  0.114388779	-3.210000E-01	  0.114388779	8.531500E+01	  0.114388779	2.011000E+00	  0.114388779	5.422400E+01
473	  0.114589177	-3.200000E-01	  0.114589177	8.498000E+01	  0.114589177	2.020000E+00	  0.114589177	5.454300E+01
474	  0.114789583	-3.200000E-01	  0.114789583	8.468700E+01	  0.114789583	2.031000E+00	  0.114789583	5.482400E+01
475	  0.114989981	-3.140000E-01	  0.114989981	8.438500E+01	  0.114989981	2.007000E+00	  0.114989981	5.511600E+01
476	  0.115190387	-3.140000E-01	  0.115190387	8.407900E+01	  0.115190387	2.016000E+00	  0.115190387	5.541300E+01
477	  0.115390785	-3.100000E-01	  0.115390785	8.379300E+01	  0.115390785	2.004000E+00	  0.115390785	5.569100E+01
478	  0.115591183	-3.130000E-01	  0.115591183	8.350100E+01	  0.115591183	2.036000E+00	  0.115591183	5.597700E+01
479	  0.115791589	-3.060000E-01	  0.115791589	8.319400E+01	  0.115791589	1.998000E+00	  0.115791589	5.628100E+01
480	  0.115991987	-3.130000E-01	  0.115991987	8.291300E+01	  0.115991987	2.054000E+00	  0.115991987	5.655800E+01
481	  0.116192386	-3.130000E-01	  0.116192386	8.260800E+01	  0.116192386	2.073000E+00	  0.116192386	5.686200E+01
482	  0.116392791	-3.150000E-01	  0.116392791	8.233300E+01	  0.116392791	2.097000E+00	  0.116392791	5.713700E+01
483	  0.116593190	-3.150000E-01	  0.116593190	8.200200E+01	  0.116593190	2.108000E+00	  0.116593190	5.747200E+01
484	  0.116793588	-3.180000E-01	  0.116793588	8.175200E+01	  0.116793588	2.140000E+00	  0.116793588	5.772400E+01
485	  0.116993994	-3.200000E-01	  0.116993994	8.138600E+01	  0.116993994	2.168000E+00	  0.116993994	5.809700E+01
486	  0.117194392	-3.260000E-01	  0.117194392	8.107800E+01	  0.117194392	2.221000E+00	  0.117194392	5.841200E+01
487	  0.117394790	-3.290000E-01	  0.117394790	8.078000E+01	  0.117394790	2.260000E+00	  0.117394790	5.871900E+01
488	  0.117595196	-3.260000E-01	  0.117595196	8.048900E+01	  0.117595196	2.251000E+00	  0.117595196	5.902300E+01
489	  0.117795594	-3.270000E-01	  0.117795594	8.015300E+01	  0.117795594	2.271000E+00	  0.117795594	5.937500E+01
490	  0.117995992	-3.270000E-01	  0.117995992	7.983000E+01	  0.117995992	2.286000E+00	  0.117995992	5.971500E+01
491	  0.118196398	-3.270000E-01	  0.118196398	7.951900E+01	  0.118196398	2.305000E+00	  0.118196398	6.004500E+01
492	  0.118396796	-3.290000E-01	  0.118396796	7.921300E+01	  0.118396796	2.330000E+00	  0.118396796	6.037100E+01
493	  0.118597202	-3.270000E-01	  0.118597202	7.891200E+01	  0.118597202	2.330000E+00	  0.118597202	6.069500E+01
494	  0.118797600	-3.270000E-01	  0.118797600	7.860300E+01	  0.118797600	2.349000E+00	  0.118797600	6.102900E+01
495	  0.118997999	-3.240000E-01	  0.118997999	7.827800E+01	  0.118997999	2.342000E+00	  0.118997999	6.138500E+01
496	  0.119198404	-3.290000E-01	  0.119198404	7.798000E+01	  0.119198404	2.391000E+00	  0.119198404	6.171000E+01
497	  0.119398803	-3.260000E-01	  0.119398803	7.767000E+01	  0.119398803	2.390000E+00	  0.119398803	6.205300E+01
498	  0.119599201	-3.250000E-01	  0.119599201	7.734700E+01	  0.119599201	2.396000E+00	  0.119599201	6.241200E+01
499	  0.119799607	-3.240000E-01	  0.119799607	7.707400E+01	  0.119799607	2.401000E+00	  0.119799607	6.271800E+01
500	  0.120000005	-3.170000E-01	  0.120000005	7.676400E+01	  0.120000005	2.370000E+00	  0.120000005	6.306900E+01
