! Anritsu VNA Master:             	Model: MS2036C/10/77
! SN:             	1601066
! /bd0/18may26.balun/4a.me2.txt
! Existing Calibration Information:
! TYPE:             	Current Settings	Active Cal Settings
! TIME:             	05/26/2018 03:12:36 PM	05/26/2018 02:51:55 PM
! INTERNAL TEMP:    	59.5 C	59.5 C
! # POINTS:         	500	500
! START FREQ:       	20.000 MHz	20.000 MHz
! STOP FREQ:        	120.000 MHz	120.000 MHz
! SOURCE POWER:     	High	High
! IFBW:             	50 Hz	50 Hz
! AVG FACTOR:       	  1 	  1 
! REF PLANE 1:      	0 mm	0 mm
! REF PLANE 2:      	0 mm	0 mm
! CAL TYPE:         	Full S11	Full S11
! CAL METHOD:       	SOLT	SOLT
! CAL LINE TYPE:    	Coax	Coax
! DUT PORT 1:       	K-Conn(M)	K-Conn(M)
! DUT PORT 2:       	K-Conn(M)	K-Conn(M)
! CAL STATUS:       	OK: Accuracy High	--
! PROP-V:       	0.700
! CABLE LOSS:       	0.000 dB/m
! REF IMPEDANCE:       	50.0
! Trace Specific Parameters:	TR1	TR2	TR3	TR4
! TRACE.#.Y (GRAPH TYPE)	LOG MAG	PHASE	REAL IMPEDANCE	IMAGINARY IMPEDANCE
! TRACE.#.X 	FREQ.GHZ	FREQ.GHZ	FREQ.GHZ	FREQ.GHZ
! S-PARAMETER	S11	S11	S11	S11
! SMOOTH/APERTURE %	0	0	0	0
! WINDOW	NSL	NSL	NSL	NSL
! GATING	OFF	OFF	OFF	OFF
! FGTD	OFF	OFF	OFF	OFF
Marker Information per Trace:	TR1	TR2	TR3	TR4
!MK1	--	--	--	--
!MK2	--	--	--	--
!MK3	--	--	--	--
!MK4	--	--	--	--
!MK5	--	--	--	--
!MK6	--	--	--	--
!MK7	--	--	--	--
!MK8	--	--	--	--
PNT	TR1.FREQ.GHZ	TR1.LOG MAG.dB	TR2.FREQ.GHZ	TR2.PHASE.deg	TR3.FREQ.GHZ	TR3.REAL IMPEDANCE.ohm	TR4.FREQ.GHZ	TR4.IMAGINARY IMPEDANCE.ohm
1	  0.020000000	-6.560000E-01	  0.020000000	-1.264000E+02	  0.020000000	2.371000E+00	  0.020000000	-2.521100E+01
2	  0.020200402	-6.540000E-01	  0.020200402	-1.279120E+02	  0.020200402	2.332000E+00	  0.020200402	-2.439000E+01
3	  0.020400802	-6.510000E-01	  0.020400802	-1.293830E+02	  0.020400802	2.292000E+00	  0.020400802	-2.360200E+01
4	  0.020601204	-6.520000E-01	  0.020601204	-1.308420E+02	  0.020601204	2.268000E+00	  0.020601204	-2.283000E+01
5	  0.020801604	-6.560000E-01	  0.020801604	-1.323320E+02	  0.020801604	2.255000E+00	  0.020801604	-2.205000E+01
6	  0.021002004	-6.630000E-01	  0.021002004	-1.338670E+02	  0.021002004	2.253000E+00	  0.021002004	-2.125500E+01
7	  0.021202406	-6.690000E-01	  0.021202406	-1.353970E+02	  0.021202406	2.250000E+00	  0.021202406	-2.047200E+01
8	  0.021402806	-6.740000E-01	  0.021402806	-1.369500E+02	  0.021402806	2.241000E+00	  0.021402806	-1.968600E+01
9	  0.021603208	-6.790000E-01	  0.021603208	-1.385010E+02	  0.021603208	2.235000E+00	  0.021603208	-1.890900E+01
10	  0.021803608	-6.860000E-01	  0.021803608	-1.400600E+02	  0.021803608	2.234000E+00	  0.021803608	-1.813600E+01
11	  0.022004008	-6.920000E-01	  0.022004008	-1.416180E+02	  0.022004008	2.233000E+00	  0.022004008	-1.737100E+01
12	  0.022204408	-6.930000E-01	  0.022204408	-1.432300E+02	  0.022204408	2.213000E+00	  0.022204408	-1.658800E+01
13	  0.022404809	-6.940000E-01	  0.022404809	-1.448390E+02	  0.022404809	2.198000E+00	  0.022404809	-1.581400E+01
14	  0.022605211	-6.970000E-01	  0.022605211	-1.464320E+02	  0.022605211	2.188000E+00	  0.022605211	-1.505300E+01
15	  0.022805611	-7.000000E-01	  0.022805611	-1.480080E+02	  0.022805611	2.180000E+00	  0.022805611	-1.430800E+01
16	  0.023006011	-6.990000E-01	  0.023006011	-1.495800E+02	  0.023006011	2.161000E+00	  0.023006011	-1.357000E+01
17	  0.023206413	-7.070000E-01	  0.023206413	-1.511860E+02	  0.023206413	2.168000E+00	  0.023206413	-1.282100E+01
18	  0.023406813	-7.130000E-01	  0.023406813	-1.528120E+02	  0.023406813	2.172000E+00	  0.023406813	-1.206900E+01
19	  0.023607215	-7.210000E-01	  0.023607215	-1.544450E+02	  0.023607215	2.181000E+00	  0.023607215	-1.131800E+01
20	  0.023807615	-7.280000E-01	  0.023807615	-1.560800E+02	  0.023807615	2.189000E+00	  0.023807615	-1.057100E+01
21	  0.024008015	-7.370000E-01	  0.024008015	-1.576950E+02	  0.024008015	2.204000E+00	  0.024008015	-9.838000E+00
22	  0.024208417	-7.480000E-01	  0.024208417	-1.593370E+02	  0.024208417	2.223000E+00	  0.024208417	-9.097000E+00
23	  0.024408817	-7.580000E-01	  0.024408817	-1.609630E+02	  0.024408817	2.244000E+00	  0.024408817	-8.366000E+00
24	  0.024609219	-7.700000E-01	  0.024609219	-1.626390E+02	  0.024609219	2.268000E+00	  0.024609219	-7.618000E+00
25	  0.024809619	-7.770000E-01	  0.024809619	-1.643320E+02	  0.024809619	2.279000E+00	  0.024809619	-6.865000E+00
26	  0.025010020	-7.830000E-01	  0.025010020	-1.660150E+02	  0.025010020	2.288000E+00	  0.025010020	-6.119000E+00
27	  0.025210422	-7.930000E-01	  0.025210422	-1.677050E+02	  0.025210422	2.309000E+00	  0.025210422	-5.373000E+00
28	  0.025410822	-8.030000E-01	  0.025410822	-1.693920E+02	  0.025410822	2.330000E+00	  0.025410822	-4.631000E+00
29	  0.025611224	-8.120000E-01	  0.025611224	-1.710960E+02	  0.025611224	2.349000E+00	  0.025611224	-3.884000E+00
30	  0.025811624	-8.230000E-01	  0.025811624	-1.727940E+02	  0.025811624	2.379000E+00	  0.025811624	-3.140000E+00
31	  0.026012026	-8.360000E-01	  0.026012026	-1.745320E+02	  0.026012026	2.411000E+00	  0.026012026	-2.382000E+00
32	  0.026212426	-8.500000E-01	  0.026212426	-1.762700E+02	  0.026212426	2.448000E+00	  0.026212426	-1.623000E+00
33	  0.026412826	-8.660000E-01	  0.026412826	-1.780120E+02	  0.026412826	2.492000E+00	  0.026412826	-8.650000E-01
34	  0.026613226	-8.840000E-01	  0.026613226	-1.797870E+02	  0.026613226	2.542000E+00	  0.026613226	-9.200000E-02
35	  0.026813626	-9.000000E-01	  0.026813626	1.784340E+02	  0.026813626	2.589000E+00	  0.026813626	6.810000E-01
36	  0.027014028	-9.140000E-01	  0.027014028	1.766710E+02	  0.027014028	2.630000E+00	  0.027014028	1.448000E+00
37	  0.027214428	-9.290000E-01	  0.027214428	1.748970E+02	  0.027214428	2.678000E+00	  0.027214428	2.221000E+00
38	  0.027414829	-9.420000E-01	  0.027414829	1.731170E+02	  0.027414829	2.720000E+00	  0.027414829	2.997000E+00
39	  0.027615231	-9.590000E-01	  0.027615231	1.713320E+02	  0.027615231	2.776000E+00	  0.027615231	3.777000E+00
40	  0.027815631	-9.790000E-01	  0.027815631	1.695150E+02	  0.027815631	2.839000E+00	  0.027815631	4.573000E+00
41	  0.028016033	-9.980000E-01	  0.028016033	1.676840E+02	  0.028016033	2.902000E+00	  0.028016033	5.376000E+00
42	  0.028216433	-1.017000E+00	  0.028216433	1.658310E+02	  0.028216433	2.969000E+00	  0.028216433	6.192000E+00
43	  0.028416833	-1.037000E+00	  0.028416833	1.639840E+02	  0.028416833	3.041000E+00	  0.028416833	7.008000E+00
44	  0.028617235	-1.059000E+00	  0.028617235	1.621420E+02	  0.028617235	3.120000E+00	  0.028617235	7.825000E+00
45	  0.028817635	-1.082000E+00	  0.028817635	1.602710E+02	  0.028817635	3.206000E+00	  0.028817635	8.659000E+00
46	  0.029018037	-1.106000E+00	  0.029018037	1.583890E+02	  0.029018037	3.294000E+00	  0.029018037	9.502000E+00
47	  0.029218437	-1.129000E+00	  0.029218437	1.564770E+02	  0.029218437	3.387000E+00	  0.029218437	1.036400E+01
48	  0.029418837	-1.152000E+00	  0.029418837	1.545690E+02	  0.029418837	3.478000E+00	  0.029418837	1.123000E+01
49	  0.029619239	-1.172000E+00	  0.029619239	1.526920E+02	  0.029619239	3.567000E+00	  0.029619239	1.208700E+01
50	  0.029819639	-1.194000E+00	  0.029819639	1.508070E+02	  0.029819639	3.665000E+00	  0.029819639	1.295400E+01
51	  0.030020041	-1.218000E+00	  0.030020041	1.489140E+02	  0.030020041	3.771000E+00	  0.030020041	1.383300E+01
52	  0.030220442	-1.244000E+00	  0.030220442	1.470250E+02	  0.030220442	3.888000E+00	  0.030220442	1.471600E+01
53	  0.030420844	-1.276000E+00	  0.030420844	1.451380E+02	  0.030420844	4.027000E+00	  0.030420844	1.560500E+01
54	  0.030621244	-1.314000E+00	  0.030621244	1.432000E+02	  0.030621244	4.192000E+00	  0.030621244	1.652700E+01
55	  0.030821644	-1.349000E+00	  0.030821644	1.412190E+02	  0.030821644	4.352000E+00	  0.030821644	1.747900E+01
56	  0.031022044	-1.382000E+00	  0.031022044	1.392090E+02	  0.031022044	4.515000E+00	  0.031022044	1.845600E+01
57	  0.031222444	-1.409000E+00	  0.031222444	1.371690E+02	  0.031222444	4.666000E+00	  0.031222444	1.946200E+01
58	  0.031422846	-1.437000E+00	  0.031422846	1.351310E+02	  0.031422846	4.824000E+00	  0.031422846	2.047900E+01
59	  0.031623244	-1.463000E+00	  0.031623244	1.331090E+02	  0.031623244	4.986000E+00	  0.031623244	2.150200E+01
60	  0.031823646	-1.485000E+00	  0.031823646	1.311090E+02	  0.031823646	5.137000E+00	  0.031823646	2.252900E+01
61	  0.032024048	-1.507000E+00	  0.032024048	1.290940E+02	  0.032024048	5.297000E+00	  0.032024048	2.358000E+01
62	  0.032224450	-1.531000E+00	  0.032224450	1.271130E+02	  0.032224450	5.472000E+00	  0.032224450	2.462800E+01
63	  0.032424849	-1.558000E+00	  0.032424849	1.251610E+02	  0.032424849	5.666000E+00	  0.032424849	2.567500E+01
64	  0.032625251	-1.592000E+00	  0.032625251	1.231750E+02	  0.032625251	5.895000E+00	  0.032625251	2.675700E+01
65	  0.032825653	-1.629000E+00	  0.032825653	1.212030E+02	  0.032825653	6.145000E+00	  0.032825653	2.784700E+01
66	  0.033026051	-1.670000E+00	  0.033026051	1.192350E+02	  0.033026051	6.421000E+00	  0.033026051	2.895300E+01
67	  0.033226453	-1.713000E+00	  0.033226453	1.172290E+02	  0.033226453	6.720000E+00	  0.033226453	3.009900E+01
68	  0.033426855	-1.759000E+00	  0.033426855	1.152100E+02	  0.033426855	7.051000E+00	  0.033426855	3.127300E+01
69	  0.033627257	-1.803000E+00	  0.033627257	1.131740E+02	  0.033627257	7.389000E+00	  0.033627257	3.248000E+01
70	  0.033827655	-1.847000E+00	  0.033827655	1.110750E+02	  0.033827655	7.750000E+00	  0.033827655	3.375200E+01
71	  0.034028057	-1.889000E+00	  0.034028057	1.090110E+02	  0.034028057	8.124000E+00	  0.034028057	3.502900E+01
72	  0.034228459	-1.934000E+00	  0.034228459	1.069060E+02	  0.034228459	8.532000E+00	  0.034228459	3.636000E+01
73	  0.034428857	-1.978000E+00	  0.034428857	1.048360E+02	  0.034428857	8.958000E+00	  0.034428857	3.769800E+01
74	  0.034629259	-2.017000E+00	  0.034629259	1.027550E+02	  0.034629259	9.392000E+00	  0.034629259	3.907800E+01
75	  0.034829661	-2.054000E+00	  0.034829661	1.006920E+02	  0.034829661	9.837000E+00	  0.034829661	4.048200E+01
76	  0.035030060	-2.087000E+00	  0.035030060	9.867000E+01	  0.035030060	1.028300E+01	  0.035030060	4.189600E+01
77	  0.035230462	-2.131000E+00	  0.035230462	9.667600E+01	  0.035230462	1.080800E+01	  0.035230462	4.331400E+01
78	  0.035430863	-2.175000E+00	  0.035430863	9.466000E+01	  0.035430863	1.137200E+01	  0.035430863	4.478400E+01
79	  0.035631265	-2.230000E+00	  0.035631265	9.263800E+01	  0.035631265	1.203000E+01	  0.035631265	4.628100E+01
80	  0.035831664	-2.290000E+00	  0.035831664	9.057500E+01	  0.035831664	1.276100E+01	  0.035831664	4.784300E+01
81	  0.036032066	-2.346000E+00	  0.036032066	8.847900E+01	  0.036032066	1.353400E+01	  0.036032066	4.947900E+01
82	  0.036232468	-2.402000E+00	  0.036232468	8.630800E+01	  0.036232468	1.438000E+01	  0.036232468	5.122100E+01
83	  0.036432866	-2.457000E+00	  0.036432866	8.415000E+01	  0.036432866	1.527900E+01	  0.036432866	5.300400E+01
84	  0.036633268	-2.506000E+00	  0.036633268	8.195000E+01	  0.036633268	1.622400E+01	  0.036633268	5.489100E+01
85	  0.036833670	-2.554000E+00	  0.036833670	7.975200E+01	  0.036833670	1.723500E+01	  0.036833670	5.683700E+01
86	  0.037034072	-2.595000E+00	  0.037034072	7.758600E+01	  0.037034072	1.827200E+01	  0.037034072	5.883000E+01
87	  0.037234470	-2.635000E+00	  0.037234470	7.544000E+01	  0.037234470	1.937800E+01	  0.037234470	6.087200E+01
88	  0.037434869	-2.674000E+00	  0.037434869	7.330000E+01	  0.037434869	2.056400E+01	  0.037434869	6.298000E+01
89	  0.037635271	-2.713000E+00	  0.037635271	7.119700E+01	  0.037635271	2.183700E+01	  0.037635271	6.511600E+01
90	  0.037835669	-2.760000E+00	  0.037835669	6.904400E+01	  0.037835669	2.330900E+01	  0.037835669	6.734900E+01
91	  0.038036071	-2.814000E+00	  0.038036071	6.695000E+01	  0.038036071	2.492700E+01	  0.038036071	6.955600E+01
92	  0.038236473	-2.870000E+00	  0.038236473	6.492900E+01	  0.038236473	2.665300E+01	  0.038236473	7.172900E+01
93	  0.038436871	-2.926000E+00	  0.038436871	6.286800E+01	  0.038436871	2.855300E+01	  0.038436871	7.400500E+01
94	  0.038637273	-2.987000E+00	  0.038637273	6.083500E+01	  0.038637273	3.063600E+01	  0.038637273	7.627600E+01
95	  0.038837675	-3.046000E+00	  0.038837675	5.875200E+01	  0.038837675	3.293600E+01	  0.038837675	7.866600E+01
96	  0.039038073	-3.106000E+00	  0.039038073	5.663500E+01	  0.039038073	3.548500E+01	  0.039038073	8.113900E+01
97	  0.039238475	-3.158000E+00	  0.039238475	5.449400E+01	  0.039238475	3.823200E+01	  0.039238475	8.374300E+01
98	  0.039438877	-3.202000E+00	  0.039438877	5.235700E+01	  0.039438877	4.117000E+01	  0.039438877	8.644100E+01
99	  0.039639279	-3.244000E+00	  0.039639279	5.029400E+01	  0.039639279	4.427600E+01	  0.039639279	8.909500E+01
100	  0.039839678	-3.285000E+00	  0.039839678	4.827000E+01	  0.039839678	4.761200E+01	  0.039839678	9.173000E+01
101	  0.040040080	-3.326000E+00	  0.040040080	4.624400E+01	  0.040040080	5.127200E+01	  0.040040080	9.438300E+01
102	  0.040240481	-3.376000E+00	  0.040240481	4.426700E+01	  0.040240481	5.529500E+01	  0.040240481	9.683000E+01
103	  0.040440880	-3.429000E+00	  0.040440880	4.227400E+01	  0.040440880	5.975700E+01	  0.040440880	9.920000E+01
104	  0.040641282	-3.486000E+00	  0.040641282	4.025500E+01	  0.040641282	6.472200E+01	  0.040641282	1.014520E+02
105	  0.040841684	-3.544000E+00	  0.040841684	3.821800E+01	  0.040841684	7.020800E+01	  0.040841684	1.035300E+02
106	  0.041042086	-3.601000E+00	  0.041042086	3.617800E+01	  0.041042086	7.618000E+01	  0.041042086	1.053970E+02
107	  0.041242484	-3.657000E+00	  0.041242484	3.411300E+01	  0.041242484	8.273800E+01	  0.041242484	1.070170E+02
108	  0.041442886	-3.711000E+00	  0.041442886	3.205200E+01	  0.041442886	8.983800E+01	  0.041442886	1.082370E+02
109	  0.041643288	-3.763000E+00	  0.041643288	2.996500E+01	  0.041643288	9.758400E+01	  0.041643288	1.090380E+02
110	  0.041843686	-3.816000E+00	  0.041843686	2.787700E+01	  0.041843686	1.059270E+02	  0.041843686	1.091610E+02
111	  0.042044088	-3.863000E+00	  0.042044088	2.578600E+01	  0.042044088	1.148200E+02	  0.042044088	1.086800E+02
112	  0.042244490	-3.909000E+00	  0.042244490	2.371600E+01	  0.042244490	1.241420E+02	  0.042244490	1.072690E+02
113	  0.042444889	-3.953000E+00	  0.042444889	2.167800E+01	  0.042444889	1.337300E+02	  0.042444889	1.048710E+02
114	  0.042645290	-3.996000E+00	  0.042645290	1.963200E+01	  0.042645290	1.436410E+02	  0.042645290	1.012710E+02
115	  0.042845692	-4.041000E+00	  0.042845692	1.759100E+01	  0.042845692	1.536080E+02	  0.042845692	9.627200E+01
116	  0.043046094	-4.081000E+00	  0.043046094	1.555900E+01	  0.043046094	1.634500E+02	  0.043046094	8.996500E+01
117	  0.043246493	-4.121000E+00	  0.043246493	1.353200E+01	  0.043246493	1.728360E+02	  0.043246493	8.210700E+01
118	  0.043446895	-4.161000E+00	  0.043446895	1.153800E+01	  0.043446895	1.813640E+02	  0.043446895	7.289700E+01
119	  0.043647297	-4.201000E+00	  0.043647297	9.544000E+00	  0.043647297	1.888280E+02	  0.043647297	6.226900E+01
120	  0.043847695	-4.241000E+00	  0.043847695	7.564000E+00	  0.043847695	1.948900E+02	  0.043847695	5.050500E+01
121	  0.044048097	-4.279000E+00	  0.044048097	5.631000E+00	  0.044048097	1.992810E+02	  0.044048097	3.812500E+01
122	  0.044248499	-4.316000E+00	  0.044248499	3.688000E+00	  0.044248499	2.020310E+02	  0.044248499	2.510900E+01
123	  0.044448901	-4.351000E+00	  0.044448901	1.750000E+00	  0.044448901	2.030320E+02	  0.044448901	1.187500E+01
124	  0.044649299	-4.382000E+00	  0.044649299	-1.580000E-01	  0.044649299	2.023960E+02	  0.044649299	-1.060000E+00
125	  0.044849701	-4.420000E+00	  0.044849701	-2.024000E+00	  0.044849701	1.997780E+02	  0.044849701	-1.328600E+01
126	  0.045050103	-4.458000E+00	  0.045050103	-3.861000E+00	  0.045050103	1.957640E+02	  0.045050103	-2.458700E+01
127	  0.045250501	-4.498000E+00	  0.045250501	-5.698000E+00	  0.045250501	1.905140E+02	  0.045250501	-3.494300E+01
128	  0.045450903	-4.535000E+00	  0.045450903	-7.539000E+00	  0.045450903	1.843910E+02	  0.045450903	-4.428900E+01
129	  0.045651305	-4.570000E+00	  0.045651305	-9.402000E+00	  0.045651305	1.775710E+02	  0.045651305	-5.266900E+01
130	  0.045851704	-4.607000E+00	  0.045851704	-1.124400E+01	  0.045851704	1.702250E+02	  0.045851704	-5.973100E+01
131	  0.046052106	-4.642000E+00	  0.046052106	-1.308500E+01	  0.046052106	1.626520E+02	  0.046052106	-6.572600E+01
132	  0.046252504	-4.676000E+00	  0.046252504	-1.493600E+01	  0.046252504	1.549360E+02	  0.046252504	-7.070400E+01
133	  0.046452906	-4.714000E+00	  0.046452906	-1.677700E+01	  0.046452906	1.472320E+02	  0.046452906	-7.459000E+01
134	  0.046653304	-4.749000E+00	  0.046653304	-1.859400E+01	  0.046653304	1.398000E+02	  0.046653304	-7.759600E+01
135	  0.046853706	-4.786000E+00	  0.046853706	-2.041800E+01	  0.046853706	1.325540E+02	  0.046853706	-7.982000E+01
136	  0.047054108	-4.823000E+00	  0.047054108	-2.227200E+01	  0.047054108	1.254980E+02	  0.047054108	-8.141100E+01
137	  0.047254506	-4.861000E+00	  0.047254506	-2.411700E+01	  0.047254506	1.188040E+02	  0.047254506	-8.236800E+01
138	  0.047454908	-4.890000E+00	  0.047454908	-2.594400E+01	  0.047454908	1.125660E+02	  0.047454908	-8.301800E+01
139	  0.047655310	-4.925000E+00	  0.047655310	-2.778300E+01	  0.047655310	1.066180E+02	  0.047655310	-8.312100E+01
140	  0.047855709	-4.952000E+00	  0.047855709	-2.961000E+01	  0.047855709	1.010700E+02	  0.047855709	-8.301100E+01
141	  0.048056111	-4.980000E+00	  0.048056111	-3.145300E+01	  0.048056111	9.581600E+01	  0.048056111	-8.259800E+01
142	  0.048256513	-5.007000E+00	  0.048256513	-3.327200E+01	  0.048256513	9.095500E+01	  0.048256513	-8.193900E+01
143	  0.048456915	-5.028000E+00	  0.048456915	-3.508600E+01	  0.048456915	8.640800E+01	  0.048456915	-8.117900E+01
144	  0.048657313	-5.045000E+00	  0.048657313	-3.689900E+01	  0.048657313	8.214100E+01	  0.048657313	-8.030000E+01
145	  0.048857715	-5.062000E+00	  0.048857715	-3.867900E+01	  0.048857715	7.821000E+01	  0.048857715	-7.930100E+01
146	  0.049058117	-5.077000E+00	  0.049058117	-4.040900E+01	  0.049058117	7.462800E+01	  0.049058117	-7.821900E+01
147	  0.049258515	-5.091000E+00	  0.049258515	-4.208900E+01	  0.049258515	7.135400E+01	  0.049258515	-7.710100E+01
148	  0.049458917	-5.107000E+00	  0.049458917	-4.373500E+01	  0.049458917	6.834900E+01	  0.049458917	-7.590500E+01
149	  0.049659319	-5.123000E+00	  0.049659319	-4.539700E+01	  0.049659319	6.549300E+01	  0.049659319	-7.465200E+01
150	  0.049859721	-5.145000E+00	  0.049859721	-4.705000E+01	  0.049859721	6.285200E+01	  0.049859721	-7.329800E+01
151	  0.050060119	-5.164000E+00	  0.050060119	-4.869000E+01	  0.050060119	6.037600E+01	  0.050060119	-7.196600E+01
152	  0.050260521	-5.185000E+00	  0.050260521	-5.031900E+01	  0.050260521	5.807500E+01	  0.050260521	-7.060000E+01
153	  0.050460923	-5.205000E+00	  0.050460923	-5.194800E+01	  0.050460923	5.590400E+01	  0.050460923	-6.924100E+01
154	  0.050661322	-5.221000E+00	  0.050661322	-5.357100E+01	  0.050661322	5.384900E+01	  0.050661322	-6.791500E+01
155	  0.050861724	-5.237000E+00	  0.050861724	-5.523000E+01	  0.050861724	5.187400E+01	  0.050861724	-6.655400E+01
156	  0.051062126	-5.252000E+00	  0.051062126	-5.683300E+01	  0.051062126	5.006600E+01	  0.051062126	-6.525200E+01
157	  0.051262524	-5.267000E+00	  0.051262524	-5.843500E+01	  0.051262524	4.836300E+01	  0.051262524	-6.395100E+01
158	  0.051462926	-5.282000E+00	  0.051462926	-6.002700E+01	  0.051462926	4.676000E+01	  0.051462926	-6.267300E+01
159	  0.051663328	-5.295000E+00	  0.051663328	-6.158500E+01	  0.051663328	4.527100E+01	  0.051663328	-6.143600E+01
160	  0.051863730	-5.314000E+00	  0.051863730	-6.311200E+01	  0.051863730	4.392000E+01	  0.051863730	-6.019100E+01
161	  0.052064128	-5.334000E+00	  0.052064128	-6.468800E+01	  0.052064128	4.259900E+01	  0.052064128	-5.892500E+01
162	  0.052264530	-5.352000E+00	  0.052264530	-6.622300E+01	  0.052264530	4.137300E+01	  0.052264530	-5.771200E+01
163	  0.052464932	-5.369000E+00	  0.052464932	-6.778800E+01	  0.052464932	4.018100E+01	  0.052464932	-5.650300E+01
164	  0.052665330	-5.387000E+00	  0.052665330	-6.936700E+01	  0.052665330	3.904100E+01	  0.052665330	-5.529700E+01
165	  0.052865732	-5.402000E+00	  0.052865732	-7.092600E+01	  0.052865732	3.796600E+01	  0.052865732	-5.413100E+01
166	  0.053066134	-5.419000E+00	  0.053066134	-7.249800E+01	  0.053066134	3.694400E+01	  0.053066134	-5.296300E+01
167	  0.053266536	-5.435000E+00	  0.053266536	-7.406900E+01	  0.053266536	3.596700E+01	  0.053266536	-5.182100E+01
168	  0.053466935	-5.441000E+00	  0.053466935	-7.562400E+01	  0.053466935	3.500700E+01	  0.053466935	-5.074500E+01
169	  0.053667337	-5.448000E+00	  0.053667337	-7.717200E+01	  0.053667337	3.410100E+01	  0.053667337	-4.968200E+01
170	  0.053867739	-5.452000E+00	  0.053867739	-7.872900E+01	  0.053867739	3.321900E+01	  0.053867739	-4.863900E+01
171	  0.054068137	-5.454000E+00	  0.054068137	-8.023600E+01	  0.054068137	3.239800E+01	  0.054068137	-4.764600E+01
172	  0.054268539	-5.463000E+00	  0.054268539	-8.167300E+01	  0.054268539	3.167500E+01	  0.054268539	-4.669000E+01
173	  0.054468941	-5.464000E+00	  0.054468941	-8.312800E+01	  0.054468941	3.094600E+01	  0.054468941	-4.575700E+01
174	  0.054669339	-5.470000E+00	  0.054669339	-8.454600E+01	  0.054669339	3.028600E+01	  0.054669339	-4.484200E+01
175	  0.054869737	-5.478000E+00	  0.054869737	-8.595100E+01	  0.054869737	2.966500E+01	  0.054869737	-4.394300E+01
176	  0.055070139	-5.486000E+00	  0.055070139	-8.735600E+01	  0.055070139	2.907000E+01	  0.055070139	-4.305400E+01
177	  0.055270538	-5.499000E+00	  0.055270538	-8.877900E+01	  0.055270538	2.851300E+01	  0.055270538	-4.215100E+01
178	  0.055470940	-5.509000E+00	  0.055470940	-9.019400E+01	  0.055470940	2.797200E+01	  0.055470940	-4.127300E+01
179	  0.055671342	-5.516000E+00	  0.055671342	-9.161500E+01	  0.055671342	2.743900E+01	  0.055671342	-4.041100E+01
180	  0.055871744	-5.527000E+00	  0.055871744	-9.303000E+01	  0.055871744	2.694100E+01	  0.055871744	-3.955600E+01
181	  0.056072142	-5.537000E+00	  0.056072142	-9.443100E+01	  0.056072142	2.647000E+01	  0.056072142	-3.871900E+01
182	  0.056272544	-5.539000E+00	  0.056272544	-9.583600E+01	  0.056272544	2.598500E+01	  0.056272544	-3.791000E+01
183	  0.056472946	-5.539000E+00	  0.056472946	-9.723500E+01	  0.056472946	2.551400E+01	  0.056472946	-3.711800E+01
184	  0.056673344	-5.548000E+00	  0.056673344	-9.858900E+01	  0.056673344	2.510800E+01	  0.056673344	-3.634000E+01
185	  0.056873746	-5.551000E+00	  0.056873746	-9.997600E+01	  0.056873746	2.468600E+01	  0.056873746	-3.556600E+01
186	  0.057074148	-5.560000E+00	  0.057074148	-1.012790E+02	  0.057074148	2.432500E+01	  0.057074148	-3.483500E+01
187	  0.057274550	-5.568000E+00	  0.057274550	-1.026050E+02	  0.057274550	2.397000E+01	  0.057274550	-3.410000E+01
188	  0.057474948	-5.577000E+00	  0.057474948	-1.039490E+02	  0.057474948	2.362200E+01	  0.057474948	-3.336500E+01
189	  0.057675350	-5.581000E+00	  0.057675350	-1.052990E+02	  0.057675350	2.327400E+01	  0.057675350	-3.264000E+01
190	  0.057875752	-5.591000E+00	  0.057875752	-1.066250E+02	  0.057875752	2.296200E+01	  0.057875752	-3.192700E+01
191	  0.058076151	-5.598000E+00	  0.058076151	-1.079870E+02	  0.058076151	2.264400E+01	  0.058076151	-3.120800E+01
192	  0.058276553	-5.604000E+00	  0.058276553	-1.093050E+02	  0.058276553	2.234400E+01	  0.058276553	-3.052100E+01
193	  0.058476955	-5.608000E+00	  0.058476955	-1.106570E+02	  0.058476955	2.204100E+01	  0.058476955	-2.982600E+01
194	  0.058677353	-5.606000E+00	  0.058677353	-1.119910E+02	  0.058677353	2.173500E+01	  0.058677353	-2.915600E+01
195	  0.058877755	-5.607000E+00	  0.058877755	-1.132890E+02	  0.058877755	2.145700E+01	  0.058877755	-2.850500E+01
196	  0.059078157	-5.604000E+00	  0.059078157	-1.146080E+02	  0.059078157	2.117100E+01	  0.059078157	-2.785500E+01
197	  0.059278559	-5.602000E+00	  0.059278559	-1.158840E+02	  0.059278559	2.090500E+01	  0.059278559	-2.723100E+01
198	  0.059478957	-5.601000E+00	  0.059478957	-1.171200E+02	  0.059478957	2.066000E+01	  0.059478957	-2.663000E+01
199	  0.059679359	-5.605000E+00	  0.059679359	-1.183200E+02	  0.059679359	2.044600E+01	  0.059679359	-2.604500E+01
200	  0.059879761	-5.606000E+00	  0.059879761	-1.195520E+02	  0.059879761	2.022300E+01	  0.059879761	-2.545300E+01
201	  0.060080159	-5.610000E+00	  0.060080159	-1.207550E+02	  0.060080159	2.002400E+01	  0.060080159	-2.487400E+01
202	  0.060280561	-5.612000E+00	  0.060280561	-1.219600E+02	  0.060280561	1.982300E+01	  0.060280561	-2.430400E+01
203	  0.060480963	-5.617000E+00	  0.060480963	-1.231860E+02	  0.060480963	1.963800E+01	  0.060480963	-2.372200E+01
204	  0.060681365	-5.624000E+00	  0.060681365	-1.243750E+02	  0.060681365	1.946800E+01	  0.060681365	-2.316200E+01
205	  0.060881764	-5.630000E+00	  0.060881764	-1.255830E+02	  0.060881764	1.930100E+01	  0.060881764	-2.259700E+01
206	  0.061082166	-5.636000E+00	  0.061082166	-1.267890E+02	  0.061082166	1.913800E+01	  0.061082166	-2.203800E+01
207	  0.061282568	-5.639000E+00	  0.061282568	-1.279870E+02	  0.061282568	1.897400E+01	  0.061282568	-2.148900E+01
208	  0.061482966	-5.644000E+00	  0.061482966	-1.291910E+02	  0.061482966	1.881900E+01	  0.061482966	-2.094000E+01
209	  0.061683368	-5.647000E+00	  0.061683368	-1.303970E+02	  0.061683368	1.866400E+01	  0.061683368	-2.039500E+01
210	  0.061883770	-5.651000E+00	  0.061883770	-1.315720E+02	  0.061883770	1.852400E+01	  0.061883770	-1.986600E+01
211	  0.062084168	-5.653000E+00	  0.062084168	-1.327540E+02	  0.062084168	1.838000E+01	  0.062084168	-1.934000E+01
212	  0.062284570	-5.656000E+00	  0.062284570	-1.339340E+02	  0.062284570	1.824500E+01	  0.062284570	-1.881700E+01
213	  0.062484972	-5.653000E+00	  0.062484972	-1.350470E+02	  0.062484972	1.810500E+01	  0.062484972	-1.833000E+01
214	  0.062685370	-5.661000E+00	  0.062685370	-1.361750E+02	  0.062685370	1.800000E+01	  0.062685370	-1.783200E+01
215	  0.062885776	-5.665000E+00	  0.062885776	-1.373660E+02	  0.062885776	1.788100E+01	  0.062885776	-1.731200E+01
216	  0.063086174	-5.671000E+00	  0.063086174	-1.384720E+02	  0.063086174	1.777900E+01	  0.063086174	-1.683100E+01
217	  0.063286573	-5.675000E+00	  0.063286573	-1.396770E+02	  0.063286573	1.766600E+01	  0.063286573	-1.631100E+01
218	  0.063486971	-5.677000E+00	  0.063486971	-1.408460E+02	  0.063486971	1.755900E+01	  0.063486971	-1.581000E+01
219	  0.063687377	-5.677000E+00	  0.063687377	-1.420080E+02	  0.063687377	1.744700E+01	  0.063687377	-1.531600E+01
220	  0.063887775	-5.681000E+00	  0.063887775	-1.431480E+02	  0.063887775	1.735500E+01	  0.063887775	-1.483100E+01
221	  0.064088173	-5.678000E+00	  0.064088173	-1.442800E+02	  0.064088173	1.724600E+01	  0.064088173	-1.435600E+01
222	  0.064288579	-5.680000E+00	  0.064288579	-1.454060E+02	  0.064288579	1.715700E+01	  0.064288579	-1.388200E+01
223	  0.064488977	-5.682000E+00	  0.064488977	-1.464980E+02	  0.064488977	1.707300E+01	  0.064488977	-1.342500E+01
224	  0.064689375	-5.683000E+00	  0.064689375	-1.475710E+02	  0.064689375	1.699100E+01	  0.064689375	-1.297800E+01
225	  0.064889781	-5.683000E+00	  0.064889781	-1.486660E+02	  0.064889781	1.690800E+01	  0.064889781	-1.252400E+01
226	  0.065090179	-5.684000E+00	  0.065090179	-1.497500E+02	  0.065090179	1.683300E+01	  0.065090179	-1.207600E+01
227	  0.065290578	-5.693000E+00	  0.065290578	-1.508770E+02	  0.065290578	1.677900E+01	  0.065290578	-1.160800E+01
228	  0.065490983	-5.698000E+00	  0.065490983	-1.519530E+02	  0.065490983	1.671900E+01	  0.065490983	-1.116500E+01
229	  0.065691382	-5.701000E+00	  0.065691382	-1.529870E+02	  0.065691382	1.666200E+01	  0.065691382	-1.074100E+01
230	  0.065891780	-5.710000E+00	  0.065891780	-1.540750E+02	  0.065891780	1.662000E+01	  0.065891780	-1.029400E+01
231	  0.066092186	-5.711000E+00	  0.066092186	-1.551480E+02	  0.066092186	1.656100E+01	  0.066092186	-9.858000E+00
232	  0.066292584	-5.716000E+00	  0.066292584	-1.562210E+02	  0.066292584	1.651500E+01	  0.066292584	-9.422000E+00
233	  0.066492982	-5.723000E+00	  0.066492982	-1.573130E+02	  0.066492982	1.647500E+01	  0.066492982	-8.978000E+00
234	  0.066693388	-5.727000E+00	  0.066693388	-1.583740E+02	  0.066693388	1.643200E+01	  0.066693388	-8.550000E+00
235	  0.066893786	-5.733000E+00	  0.066893786	-1.594550E+02	  0.066893786	1.639600E+01	  0.066893786	-8.114000E+00
236	  0.067094192	-5.738000E+00	  0.067094192	-1.605370E+02	  0.067094192	1.636100E+01	  0.067094192	-7.679000E+00
237	  0.067294590	-5.742000E+00	  0.067294590	-1.615820E+02	  0.067294590	1.632800E+01	  0.067294590	-7.261000E+00
238	  0.067494988	-5.746000E+00	  0.067494988	-1.626160E+02	  0.067494988	1.629400E+01	  0.067494988	-6.848000E+00
239	  0.067695394	-5.754000E+00	  0.067695394	-1.636770E+02	  0.067695394	1.627600E+01	  0.067695394	-6.424000E+00
240	  0.067895792	-5.746000E+00	  0.067895792	-1.647180E+02	  0.067895792	1.621800E+01	  0.067895792	-6.012000E+00
241	  0.068096191	-5.752000E+00	  0.068096191	-1.657490E+02	  0.068096191	1.619900E+01	  0.068096191	-5.603000E+00
242	  0.068296596	-5.763000E+00	  0.068296596	-1.667450E+02	  0.068296596	1.619900E+01	  0.068296596	-5.206000E+00
243	  0.068496995	-5.764000E+00	  0.068496995	-1.677600E+02	  0.068496995	1.617200E+01	  0.068496995	-4.805000E+00
244	  0.068697393	-5.764000E+00	  0.068697393	-1.688090E+02	  0.068697393	1.614600E+01	  0.068697393	-4.391000E+00
245	  0.068897791	-5.764000E+00	  0.068897791	-1.698060E+02	  0.068897791	1.612200E+01	  0.068897791	-3.999000E+00
246	  0.069098189	-5.763000E+00	  0.069098189	-1.707980E+02	  0.069098189	1.609800E+01	  0.069098189	-3.608000E+00
247	  0.069298595	-5.766000E+00	  0.069298595	-1.717740E+02	  0.069298595	1.608600E+01	  0.069298595	-3.224000E+00
248	  0.069498993	-5.767000E+00	  0.069498993	-1.727800E+02	  0.069498993	1.607300E+01	  0.069498993	-2.829000E+00
249	  0.069699399	-5.770000E+00	  0.069699399	-1.737350E+02	  0.069699399	1.606700E+01	  0.069699399	-2.454000E+00
250	  0.069899797	-5.766000E+00	  0.069899797	-1.746860E+02	  0.069899797	1.604300E+01	  0.069899797	-2.081000E+00
251	  0.070100196	-5.777000E+00	  0.070100196	-1.756570E+02	  0.070100196	1.606200E+01	  0.070100196	-1.700000E+00
252	  0.070300601	-5.778000E+00	  0.070300601	-1.765810E+02	  0.070300601	1.605600E+01	  0.070300601	-1.338000E+00
253	  0.070501000	-5.780000E+00	  0.070501000	-1.775840E+02	  0.070501000	1.605700E+01	  0.070501000	-9.450000E-01
254	  0.070701398	-5.786000E+00	  0.070701398	-1.785780E+02	  0.070701398	1.606600E+01	  0.070701398	-5.560000E-01
255	  0.070901804	-5.790000E+00	  0.070901804	-1.795100E+02	  0.070901804	1.607500E+01	  0.070901804	-1.910000E-01
256	  0.071102202	-5.796000E+00	  0.071102202	1.795240E+02	  0.071102202	1.609000E+01	  0.071102202	1.850000E-01
257	  0.071302600	-5.803000E+00	  0.071302600	1.785380E+02	  0.071302600	1.611100E+01	  0.071302600	5.710000E-01
258	  0.071503006	-5.803000E+00	  0.071503006	1.775810E+02	  0.071503006	1.611400E+01	  0.071503006	9.450000E-01
259	  0.071703404	-5.811000E+00	  0.071703404	1.765940E+02	  0.071703404	1.614300E+01	  0.071703404	1.331000E+00
260	  0.071903802	-5.815000E+00	  0.071903802	1.755980E+02	  0.071903802	1.616100E+01	  0.071903802	1.720000E+00
261	  0.072104208	-5.824000E+00	  0.072104208	1.746080E+02	  0.072104208	1.619400E+01	  0.072104208	2.107000E+00
262	  0.072304606	-5.833000E+00	  0.072304606	1.736300E+02	  0.072304606	1.623000E+01	  0.072304606	2.489000E+00
263	  0.072505005	-5.833000E+00	  0.072505005	1.727020E+02	  0.072505005	1.624400E+01	  0.072505005	2.853000E+00
264	  0.072705410	-5.836000E+00	  0.072705410	1.717070E+02	  0.072705410	1.626900E+01	  0.072705410	3.242000E+00
265	  0.072905809	-5.838000E+00	  0.072905809	1.707460E+02	  0.072905809	1.629400E+01	  0.072905809	3.619000E+00
266	  0.073106214	-5.838000E+00	  0.073106214	1.697580E+02	  0.073106214	1.631600E+01	  0.073106214	4.006000E+00
267	  0.073306613	-5.847000E+00	  0.073306613	1.687820E+02	  0.073306613	1.636300E+01	  0.073306613	4.388000E+00
268	  0.073507011	-5.851000E+00	  0.073507011	1.678090E+02	  0.073507011	1.639800E+01	  0.073507011	4.770000E+00
269	  0.073707417	-5.848000E+00	  0.073707417	1.668550E+02	  0.073707417	1.641600E+01	  0.073707417	5.146000E+00
270	  0.073907815	-5.843000E+00	  0.073907815	1.659610E+02	  0.073907815	1.643200E+01	  0.073907815	5.500000E+00
271	  0.074108213	-5.847000E+00	  0.074108213	1.650330E+02	  0.074108213	1.647200E+01	  0.074108213	5.865000E+00
272	  0.074308619	-5.848000E+00	  0.074308619	1.641100E+02	  0.074308619	1.650600E+01	  0.074308619	6.230000E+00
273	  0.074509017	-5.847000E+00	  0.074509017	1.632000E+02	  0.074509017	1.653700E+01	  0.074509017	6.590000E+00
274	  0.074709415	-5.853000E+00	  0.074709415	1.623010E+02	  0.074709415	1.658700E+01	  0.074709415	6.945000E+00
275	  0.074909821	-5.860000E+00	  0.074909821	1.613820E+02	  0.074909821	1.664500E+01	  0.074909821	7.308000E+00
276	  0.075110219	-5.865000E+00	  0.075110219	1.605170E+02	  0.075110219	1.669400E+01	  0.075110219	7.651000E+00
277	  0.075310618	-5.873000E+00	  0.075310618	1.596440E+02	  0.075310618	1.675600E+01	  0.075310618	7.996000E+00
278	  0.075511023	-5.879000E+00	  0.075511023	1.587540E+02	  0.075511023	1.681400E+01	  0.075511023	8.349000E+00
279	  0.075711422	-5.887000E+00	  0.075711422	1.578560E+02	  0.075711422	1.688100E+01	  0.075711422	8.705000E+00
280	  0.075911827	-5.898000E+00	  0.075911827	1.569820E+02	  0.075911827	1.695700E+01	  0.075911827	9.051000E+00
281	  0.076112226	-5.908000E+00	  0.076112226	1.561330E+02	  0.076112226	1.702800E+01	  0.076112226	9.388000E+00
282	  0.076312624	-5.918000E+00	  0.076312624	1.552060E+02	  0.076312624	1.710900E+01	  0.076312624	9.756000E+00
283	  0.076513030	-5.931000E+00	  0.076513030	1.543210E+02	  0.076513030	1.719500E+01	  0.076513030	1.010700E+01
284	  0.076713428	-5.944000E+00	  0.076713428	1.534730E+02	  0.076713428	1.728300E+01	  0.076713428	1.044300E+01
285	  0.076913826	-5.954000E+00	  0.076913826	1.525380E+02	  0.076913826	1.736800E+01	  0.076913826	1.081600E+01
286	  0.077114232	-5.963000E+00	  0.077114232	1.516560E+02	  0.077114232	1.745100E+01	  0.077114232	1.116900E+01
287	  0.077314630	-5.978000E+00	  0.077314630	1.507400E+02	  0.077314630	1.755500E+01	  0.077314630	1.153300E+01
288	  0.077515028	-5.990000E+00	  0.077515028	1.498660E+02	  0.077515028	1.765100E+01	  0.077515028	1.188300E+01
289	  0.077715434	-6.007000E+00	  0.077715434	1.489750E+02	  0.077715434	1.776200E+01	  0.077715434	1.223700E+01
290	  0.077915832	-6.018000E+00	  0.077915832	1.480760E+02	  0.077915832	1.786100E+01	  0.077915832	1.259800E+01
291	  0.078116231	-6.025000E+00	  0.078116231	1.471770E+02	  0.078116231	1.795200E+01	  0.078116231	1.296200E+01
292	  0.078316636	-6.036000E+00	  0.078316636	1.462510E+02	  0.078316636	1.805700E+01	  0.078316636	1.333600E+01
293	  0.078517035	-6.049000E+00	  0.078517035	1.453490E+02	  0.078517035	1.817200E+01	  0.078517035	1.369900E+01
294	  0.078717433	-6.057000E+00	  0.078717433	1.444430E+02	  0.078717433	1.827300E+01	  0.078717433	1.406800E+01
295	  0.078917839	-6.062000E+00	  0.078917839	1.435430E+02	  0.078917839	1.836800E+01	  0.078917839	1.443700E+01
296	  0.079118237	-6.068000E+00	  0.079118237	1.426910E+02	  0.079118237	1.846400E+01	  0.079118237	1.478600E+01
297	  0.079318643	-6.072000E+00	  0.079318643	1.418400E+02	  0.079318643	1.855700E+01	  0.079318643	1.513700E+01
298	  0.079519041	-6.079000E+00	  0.079519041	1.409470E+02	  0.079519041	1.866700E+01	  0.079519041	1.550500E+01
299	  0.079719439	-6.088000E+00	  0.079719439	1.401340E+02	  0.079719439	1.877300E+01	  0.079719439	1.583900E+01
300	  0.079919845	-6.092000E+00	  0.079919845	1.392410E+02	  0.079919845	1.887900E+01	  0.079919845	1.621000E+01
301	  0.080120243	-6.105000E+00	  0.080120243	1.384450E+02	  0.080120243	1.900100E+01	  0.080120243	1.653600E+01
302	  0.080320641	-6.120000E+00	  0.080320641	1.376310E+02	  0.080320641	1.913500E+01	  0.080320641	1.686800E+01
303	  0.080521047	-6.126000E+00	  0.080521047	1.368020E+02	  0.080521047	1.924600E+01	  0.080521047	1.721400E+01
304	  0.080721445	-6.143000E+00	  0.080721445	1.359730E+02	  0.080721445	1.938800E+01	  0.080721445	1.755200E+01
305	  0.080921844	-6.156000E+00	  0.080921844	1.351480E+02	  0.080921844	1.952600E+01	  0.080921844	1.789200E+01
306	  0.081122249	-6.169000E+00	  0.081122249	1.343270E+02	  0.081122249	1.966400E+01	  0.081122249	1.823200E+01
307	  0.081322648	-6.182000E+00	  0.081322648	1.334930E+02	  0.081322648	1.980600E+01	  0.081322648	1.857700E+01
308	  0.081523046	-6.193000E+00	  0.081523046	1.327070E+02	  0.081523046	1.994100E+01	  0.081523046	1.890500E+01
309	  0.081723452	-6.212000E+00	  0.081723452	1.319070E+02	  0.081723452	2.010100E+01	  0.081723452	1.923200E+01
310	  0.081923850	-6.221000E+00	  0.081923850	1.310350E+02	  0.081923850	2.024600E+01	  0.081923850	1.960000E+01
311	  0.082124248	-6.239000E+00	  0.082124248	1.302700E+02	  0.082124248	2.040200E+01	  0.082124248	1.991400E+01
312	  0.082324654	-6.256000E+00	  0.082324654	1.294670E+02	  0.082324654	2.056600E+01	  0.082324654	2.024600E+01
313	  0.082525052	-6.269000E+00	  0.082525052	1.286370E+02	  0.082525052	2.072600E+01	  0.082525052	2.059400E+01
314	  0.082725458	-6.293000E+00	  0.082725458	1.277960E+02	  0.082725458	2.092200E+01	  0.082725458	2.093700E+01
315	  0.082925856	-6.311000E+00	  0.082925856	1.270070E+02	  0.082925856	2.109600E+01	  0.082925856	2.126400E+01
316	  0.083126254	-6.327000E+00	  0.083126254	1.262010E+02	  0.083126254	2.127200E+01	  0.083126254	2.159900E+01
317	  0.083326660	-6.349000E+00	  0.083326660	1.253940E+02	  0.083326660	2.146600E+01	  0.083326660	2.193000E+01
318	  0.083527058	-6.365000E+00	  0.083527058	1.245570E+02	  0.083527058	2.165000E+01	  0.083527058	2.228200E+01
319	  0.083727457	-6.388000E+00	  0.083727457	1.237180E+02	  0.083727457	2.186100E+01	  0.083727457	2.262600E+01
320	  0.083927862	-6.402000E+00	  0.083927862	1.228560E+02	  0.083927862	2.205400E+01	  0.083927862	2.299200E+01
321	  0.084128261	-6.422000E+00	  0.084128261	1.220320E+02	  0.084128261	2.226000E+01	  0.084128261	2.333400E+01
322	  0.084328659	-6.435000E+00	  0.084328659	1.211990E+02	  0.084328659	2.245100E+01	  0.084328659	2.369000E+01
323	  0.084529065	-6.450000E+00	  0.084529065	1.204030E+02	  0.084529065	2.264400E+01	  0.084529065	2.402700E+01
324	  0.084729463	-6.466000E+00	  0.084729463	1.195700E+02	  0.084729463	2.285000E+01	  0.084729463	2.438100E+01
325	  0.084929861	-6.481000E+00	  0.084929861	1.187670E+02	  0.084929861	2.305500E+01	  0.084929861	2.472100E+01
326	  0.085130267	-6.499000E+00	  0.085130267	1.179750E+02	  0.085130267	2.326600E+01	  0.085130267	2.505500E+01
327	  0.085330658	-6.516000E+00	  0.085330658	1.171870E+02	  0.085330658	2.348000E+01	  0.085330658	2.538800E+01
328	  0.085531056	-6.539000E+00	  0.085531056	1.164030E+02	  0.085531056	2.371200E+01	  0.085531056	2.571200E+01
329	  0.085731462	-6.560000E+00	  0.085731462	1.156230E+02	  0.085731462	2.394400E+01	  0.085731462	2.603600E+01
330	  0.085931860	-6.583000E+00	  0.085931860	1.148350E+02	  0.085931860	2.418700E+01	  0.085931860	2.636100E+01
331	  0.086132258	-6.599000E+00	  0.086132258	1.140520E+02	  0.086132258	2.441000E+01	  0.086132258	2.669400E+01
332	  0.086332664	-6.623000E+00	  0.086332664	1.132630E+02	  0.086332664	2.466400E+01	  0.086332664	2.701900E+01
333	  0.086533062	-6.641000E+00	  0.086533062	1.124740E+02	  0.086533062	2.490500E+01	  0.086533062	2.735200E+01
334	  0.086733460	-6.665000E+00	  0.086733460	1.116590E+02	  0.086733460	2.517400E+01	  0.086733460	2.768800E+01
335	  0.086933866	-6.685000E+00	  0.086933866	1.108680E+02	  0.086933866	2.542900E+01	  0.086933866	2.802000E+01
336	  0.087134264	-6.704000E+00	  0.087134264	1.101340E+02	  0.087134264	2.567000E+01	  0.087134264	2.832700E+01
337	  0.087334670	-6.728000E+00	  0.087334670	1.093330E+02	  0.087334670	2.595000E+01	  0.087334670	2.865600E+01
338	  0.087535068	-6.747000E+00	  0.087535068	1.086070E+02	  0.087535068	2.619700E+01	  0.087535068	2.895900E+01
339	  0.087735467	-6.765000E+00	  0.087735467	1.078570E+02	  0.087735467	2.645400E+01	  0.087735467	2.927400E+01
340	  0.087935872	-6.794000E+00	  0.087935872	1.071060E+02	  0.087935872	2.674800E+01	  0.087935872	2.957100E+01
341	  0.088136271	-6.818000E+00	  0.088136271	1.063700E+02	  0.088136271	2.702700E+01	  0.088136271	2.986800E+01
342	  0.088336669	-6.851000E+00	  0.088336669	1.056370E+02	  0.088336669	2.733700E+01	  0.088336669	3.014600E+01
343	  0.088537075	-6.880000E+00	  0.088537075	1.048770E+02	  0.088537075	2.764700E+01	  0.088537075	3.044400E+01
344	  0.088737473	-6.912000E+00	  0.088737473	1.040920E+02	  0.088737473	2.797800E+01	  0.088737473	3.074600E+01
345	  0.088937871	-6.943000E+00	  0.088937871	1.033540E+02	  0.088937871	2.829700E+01	  0.088937871	3.102600E+01
346	  0.089138277	-6.970000E+00	  0.089138277	1.025800E+02	  0.089138277	2.861900E+01	  0.089138277	3.133200E+01
347	  0.089338675	-7.009000E+00	  0.089338675	1.017940E+02	  0.089338675	2.898500E+01	  0.089338675	3.161700E+01
348	  0.089539073	-7.039000E+00	  0.089539073	1.009890E+02	  0.089539073	2.933700E+01	  0.089539073	3.192600E+01
349	  0.089739479	-7.067000E+00	  0.089739479	1.002080E+02	  0.089739479	2.968200E+01	  0.089739479	3.222700E+01
350	  0.089939877	-7.105000E+00	  0.089939877	9.946700E+01	  0.089939877	3.004800E+01	  0.089939877	3.248600E+01
351	  0.090140276	-7.128000E+00	  0.090140276	9.869400E+01	  0.090140276	3.038600E+01	  0.090140276	3.279000E+01
352	  0.090340681	-7.169000E+00	  0.090340681	9.796200E+01	  0.090340681	3.076800E+01	  0.090340681	3.303400E+01
353	  0.090541080	-7.196000E+00	  0.090541080	9.719800E+01	  0.090541080	3.112300E+01	  0.090541080	3.332200E+01
354	  0.090741485	-7.235000E+00	  0.090741485	9.646300E+01	  0.090741485	3.150900E+01	  0.090741485	3.356800E+01
355	  0.090941884	-7.276000E+00	  0.090941884	9.571400E+01	  0.090941884	3.191300E+01	  0.090941884	3.381100E+01
356	  0.091142282	-7.314000E+00	  0.091142282	9.498500E+01	  0.091142282	3.230700E+01	  0.091142282	3.404700E+01
357	  0.091342688	-7.346000E+00	  0.091342688	9.424500E+01	  0.091342688	3.268900E+01	  0.091342688	3.430400E+01
358	  0.091543086	-7.384000E+00	  0.091543086	9.352600E+01	  0.091543086	3.308800E+01	  0.091543086	3.453000E+01
359	  0.091743484	-7.416000E+00	  0.091743484	9.274300E+01	  0.091743484	3.349700E+01	  0.091743484	3.480100E+01
360	  0.091943890	-7.450000E+00	  0.091943890	9.202600E+01	  0.091943890	3.389300E+01	  0.091943890	3.503200E+01
361	  0.092144288	-7.484000E+00	  0.092144288	9.130000E+01	  0.092144288	3.429900E+01	  0.092144288	3.526300E+01
362	  0.092344686	-7.520000E+00	  0.092344686	9.061900E+01	  0.092344686	3.469400E+01	  0.092344686	3.546700E+01
363	  0.092545092	-7.553000E+00	  0.092545092	8.997700E+01	  0.092545092	3.506700E+01	  0.092545092	3.566000E+01
364	  0.092745490	-7.582000E+00	  0.092745490	8.929100E+01	  0.092745490	3.545600E+01	  0.092745490	3.587700E+01
365	  0.092945889	-7.620000E+00	  0.092945889	8.866600E+01	  0.092945889	3.584400E+01	  0.092945889	3.604200E+01
366	  0.093146294	-7.656000E+00	  0.093146294	8.801700E+01	  0.093146294	3.624500E+01	  0.093146294	3.621700E+01
367	  0.093346693	-7.697000E+00	  0.093346693	8.740900E+01	  0.093346693	3.664300E+01	  0.093346693	3.635600E+01
368	  0.093547091	-7.734000E+00	  0.093547091	8.681400E+01	  0.093547091	3.702800E+01	  0.093547091	3.649700E+01
369	  0.093747497	-7.782000E+00	  0.093747497	8.618600E+01	  0.093747497	3.746100E+01	  0.093747497	3.661500E+01
370	  0.093947895	-7.816000E+00	  0.093947895	8.560700E+01	  0.093947895	3.783300E+01	  0.093947895	3.675400E+01
371	  0.094148301	-7.862000E+00	  0.094148301	8.496000E+01	  0.094148301	3.827900E+01	  0.094148301	3.687600E+01
372	  0.094348699	-7.910000E+00	  0.094348699	8.435900E+01	  0.094348699	3.870700E+01	  0.094348699	3.697000E+01
373	  0.094549097	-7.956000E+00	  0.094549097	8.375700E+01	  0.094549097	3.913600E+01	  0.094549097	3.706400E+01
374	  0.094749503	-8.002000E+00	  0.094749503	8.316800E+01	  0.094749503	3.955900E+01	  0.094749503	3.714900E+01
375	  0.094949901	-8.043000E+00	  0.094949901	8.257500E+01	  0.094949901	3.997400E+01	  0.094949901	3.724800E+01
376	  0.095150299	-8.087000E+00	  0.095150299	8.201500E+01	  0.095150299	4.038300E+01	  0.095150299	3.731700E+01
377	  0.095350705	-8.131000E+00	  0.095350705	8.139800E+01	  0.095350705	4.082200E+01	  0.095350705	3.740800E+01
378	  0.095551103	-8.176000E+00	  0.095551103	8.079000E+01	  0.095551103	4.126300E+01	  0.095551103	3.748300E+01
379	  0.095751502	-8.227000E+00	  0.095751502	8.024800E+01	  0.095751502	4.168700E+01	  0.095751502	3.750600E+01
380	  0.095951907	-8.276000E+00	  0.095951907	7.971700E+01	  0.095951907	4.209800E+01	  0.095951907	3.753000E+01
381	  0.096152306	-8.330000E+00	  0.096152306	7.914600E+01	  0.096152306	4.254800E+01	  0.096152306	3.754100E+01
382	  0.096352704	-8.370000E+00	  0.096352704	7.856100E+01	  0.096352704	4.297100E+01	  0.096352704	3.760800E+01
383	  0.096553110	-8.420000E+00	  0.096553110	7.799300E+01	  0.096553110	4.341100E+01	  0.096553110	3.762500E+01
384	  0.096753508	-8.469000E+00	  0.096753508	7.742800E+01	  0.096753508	4.384800E+01	  0.096753508	3.763800E+01
385	  0.096953906	-8.511000E+00	  0.096953906	7.685200E+01	  0.096953906	4.427700E+01	  0.096953906	3.767600E+01
386	  0.097154312	-8.561000E+00	  0.097154312	7.628200E+01	  0.097154312	4.472300E+01	  0.097154312	3.767600E+01
387	  0.097354710	-8.604000E+00	  0.097354710	7.574900E+01	  0.097354710	4.513300E+01	  0.097354710	3.768400E+01
388	  0.097555116	-8.645000E+00	  0.097555116	7.524200E+01	  0.097555116	4.552300E+01	  0.097555116	3.768900E+01
389	  0.097755514	-8.676000E+00	  0.097755514	7.467900E+01	  0.097755514	4.592700E+01	  0.097755514	3.774500E+01
390	  0.097955912	-8.718000E+00	  0.097955912	7.417400E+01	  0.097955912	4.632000E+01	  0.097955912	3.773600E+01
391	  0.098156318	-8.758000E+00	  0.098156318	7.374500E+01	  0.098156318	4.666400E+01	  0.098156318	3.770700E+01
392	  0.098356716	-8.799000E+00	  0.098356716	7.326900E+01	  0.098356716	4.703900E+01	  0.098356716	3.768300E+01
393	  0.098557115	-8.834000E+00	  0.098557115	7.280200E+01	  0.098557115	4.739700E+01	  0.098557115	3.767600E+01
394	  0.098757520	-8.876000E+00	  0.098757520	7.237500E+01	  0.098757520	4.774500E+01	  0.098757520	3.762500E+01
395	  0.098957919	-8.920000E+00	  0.098957919	7.197600E+01	  0.098957919	4.807600E+01	  0.098957919	3.755800E+01
396	  0.099158317	-8.957000E+00	  0.099158317	7.155300E+01	  0.099158317	4.841200E+01	  0.099158317	3.751800E+01
397	  0.099358723	-8.999000E+00	  0.099358723	7.116400E+01	  0.099358723	4.873400E+01	  0.099358723	3.744800E+01
398	  0.099559121	-9.039000E+00	  0.099559121	7.073800E+01	  0.099559121	4.907500E+01	  0.099559121	3.739200E+01
399	  0.099759519	-9.078000E+00	  0.099759519	7.034500E+01	  0.099759519	4.939400E+01	  0.099759519	3.732900E+01
400	  0.099959925	-9.106000E+00	  0.099959925	6.999700E+01	  0.099959925	4.966600E+01	  0.099959925	3.729300E+01
401	  0.100160323	-9.156000E+00	  0.100160323	6.965700E+01	  0.100160323	4.996500E+01	  0.100160323	3.716700E+01
402	  0.100360721	-9.198000E+00	  0.100360721	6.921700E+01	  0.100360721	5.031900E+01	  0.100360721	3.708800E+01
403	  0.100561127	-9.230000E+00	  0.100561127	6.881100E+01	  0.100561127	5.063300E+01	  0.100561127	3.704500E+01
404	  0.100761525	-9.271000E+00	  0.100761525	6.851600E+01	  0.100761525	5.088600E+01	  0.100761525	3.693700E+01
405	  0.100961931	-9.309000E+00	  0.100961931	6.807000E+01	  0.100961931	5.123500E+01	  0.100961931	3.686800E+01
406	  0.101162329	-9.355000E+00	  0.101162329	6.776000E+01	  0.101162329	5.150400E+01	  0.101162329	3.673200E+01
407	  0.101362728	-9.395000E+00	  0.101362728	6.746900E+01	  0.101362728	5.175000E+01	  0.101362728	3.661800E+01
408	  0.101563133	-9.433000E+00	  0.101563133	6.700200E+01	  0.101563133	5.210900E+01	  0.101563133	3.654600E+01
409	  0.101763532	-9.466000E+00	  0.101763532	6.668300E+01	  0.101763532	5.236400E+01	  0.101763532	3.646300E+01
410	  0.101963930	-9.480000E+00	  0.101963930	6.628700E+01	  0.101963930	5.264600E+01	  0.101963930	3.647500E+01
411	  0.102164336	-9.530000E+00	  0.102164336	6.590600E+01	  0.102164336	5.296100E+01	  0.102164336	3.632300E+01
412	  0.102364734	-9.566000E+00	  0.102364734	6.554300E+01	  0.102364734	5.324700E+01	  0.102364734	3.622400E+01
413	  0.102565132	-9.589000E+00	  0.102565132	6.528200E+01	  0.102565132	5.344800E+01	  0.102565132	3.616900E+01
414	  0.102765530	-9.618000E+00	  0.102765530	6.484800E+01	  0.102765530	5.377200E+01	  0.102765530	3.610900E+01
415	  0.102965929	-9.638000E+00	  0.102965929	6.457900E+01	  0.102965929	5.397600E+01	  0.102965929	3.606200E+01
416	  0.103166327	-9.663000E+00	  0.103166327	6.416400E+01	  0.103166327	5.428400E+01	  0.103166327	3.601300E+01
417	  0.103366733	-9.682000E+00	  0.103366733	6.386800E+01	  0.103366733	5.450400E+01	  0.103366733	3.596800E+01
418	  0.103567131	-9.685000E+00	  0.103567131	6.353200E+01	  0.103567131	5.473700E+01	  0.103567131	3.600600E+01
419	  0.103767529	-9.699000E+00	  0.103767529	6.332400E+01	  0.103767529	5.489400E+01	  0.103767529	3.597000E+01
420	  0.103967935	-9.731000E+00	  0.103967935	6.303900E+01	  0.103967935	5.511800E+01	  0.103967935	3.585900E+01
421	  0.104168333	-9.732000E+00	  0.104168333	6.270100E+01	  0.104168333	5.535300E+01	  0.104168333	3.590000E+01
422	  0.104368731	-9.752000E+00	  0.104368731	6.234600E+01	  0.104368731	5.561600E+01	  0.104368731	3.585200E+01
423	  0.104569137	-9.757000E+00	  0.104569137	6.217600E+01	  0.104569137	5.573900E+01	  0.104569137	3.584900E+01
424	  0.104769535	-9.777000E+00	  0.104769535	6.194500E+01	  0.104769535	5.591500E+01	  0.104769535	3.578400E+01
425	  0.104969934	-9.773000E+00	  0.104969934	6.165900E+01	  0.104969934	5.611200E+01	  0.104969934	3.583600E+01
426	  0.105170339	-9.800000E+00	  0.105170339	6.139200E+01	  0.105170339	5.631900E+01	  0.105170339	3.573800E+01
427	  0.105370738	-9.789000E+00	  0.105370738	6.112800E+01	  0.105370738	5.649700E+01	  0.105370738	3.581900E+01
428	  0.105571143	-9.808000E+00	  0.105571143	6.084300E+01	  0.105571143	5.671100E+01	  0.105571143	3.575900E+01
429	  0.105771542	-9.805000E+00	  0.105771542	6.048000E+01	  0.105771542	5.696700E+01	  0.105771542	3.580800E+01
430	  0.105971940	-9.823000E+00	  0.105971940	6.017800E+01	  0.105971940	5.719400E+01	  0.105971940	3.574800E+01
431	  0.106172346	-9.809000E+00	  0.106172346	5.991300E+01	  0.106172346	5.737500E+01	  0.106172346	3.584100E+01
432	  0.106372744	-9.835000E+00	  0.106372744	5.959700E+01	  0.106372744	5.761600E+01	  0.106372744	3.574400E+01
433	  0.106573142	-9.835000E+00	  0.106573142	5.928900E+01	  0.106573142	5.783800E+01	  0.106573142	3.576700E+01
434	  0.106773548	-9.832000E+00	  0.106773548	5.892600E+01	  0.106773548	5.810000E+01	  0.106773548	3.580600E+01
435	  0.106973946	-9.836000E+00	  0.106973946	5.855900E+01	  0.106973946	5.836800E+01	  0.106973946	3.581400E+01
436	  0.107174344	-9.814000E+00	  0.107174344	5.813600E+01	  0.107174344	5.866900E+01	  0.107174344	3.594400E+01
437	  0.107374750	-9.821000E+00	  0.107374750	5.785400E+01	  0.107374750	5.888000E+01	  0.107374750	3.592600E+01
438	  0.107575148	-9.814000E+00	  0.107575148	5.743100E+01	  0.107575148	5.919100E+01	  0.107575148	3.598700E+01
439	  0.107775547	-9.813000E+00	  0.107775547	5.700800E+01	  0.107775547	5.950600E+01	  0.107775547	3.600900E+01
440	  0.107975952	-9.789000E+00	  0.107975952	5.663900E+01	  0.107975952	5.977600E+01	  0.107975952	3.614300E+01
441	  0.108176351	-9.786000E+00	  0.108176351	5.621400E+01	  0.108176351	6.009700E+01	  0.108176351	3.617600E+01
442	  0.108376749	-9.769000E+00	  0.108376749	5.578800E+01	  0.108376749	6.041800E+01	  0.108376749	3.627400E+01
443	  0.108577155	-9.764000E+00	  0.108577155	5.534400E+01	  0.108577155	6.075900E+01	  0.108577155	3.630900E+01
444	  0.108777553	-9.734000E+00	  0.108777553	5.499500E+01	  0.108777553	6.102400E+01	  0.108777553	3.647200E+01
445	  0.108977959	-9.708000E+00	  0.108977959	5.455100E+01	  0.108977959	6.136800E+01	  0.108977959	3.661400E+01
446	  0.109178357	-9.697000E+00	  0.109178357	5.408600E+01	  0.109178357	6.173400E+01	  0.109178357	3.667600E+01
447	  0.109378755	-9.681000E+00	  0.109378755	5.363200E+01	  0.109378755	6.209300E+01	  0.109378755	3.675700E+01
448	  0.109579161	-9.660000E+00	  0.109579161	5.323700E+01	  0.109579161	6.241000E+01	  0.109579161	3.687100E+01
449	  0.109779559	-9.640000E+00	  0.109779559	5.276300E+01	  0.109779559	6.279400E+01	  0.109779559	3.697200E+01
450	  0.109979957	-9.614000E+00	  0.109979957	5.234500E+01	  0.109979957	6.313700E+01	  0.109979957	3.710200E+01
451	  0.110180363	-9.595000E+00	  0.110180363	5.192200E+01	  0.110180363	6.348700E+01	  0.110180363	3.719400E+01
452	  0.110380761	-9.579000E+00	  0.110380761	5.149400E+01	  0.110380761	6.384400E+01	  0.110380761	3.727100E+01
453	  0.110581160	-9.562000E+00	  0.110581160	5.095500E+01	  0.110581160	6.429800E+01	  0.110581160	3.734200E+01
454	  0.110781565	-9.549000E+00	  0.110781565	5.041500E+01	  0.110781565	6.475600E+01	  0.110781565	3.738900E+01
455	  0.110981964	-9.529000E+00	  0.110981964	4.993800E+01	  0.110981964	6.516800E+01	  0.110981964	3.747700E+01
456	  0.111182362	-9.509000E+00	  0.111182362	4.943600E+01	  0.111182362	6.560700E+01	  0.111182362	3.756000E+01
457	  0.111382768	-9.491000E+00	  0.111382768	4.890300E+01	  0.111382768	6.607700E+01	  0.111382768	3.762100E+01
458	  0.111583166	-9.480000E+00	  0.111583166	4.832900E+01	  0.111583166	6.658300E+01	  0.111583166	3.763700E+01
459	  0.111783572	-9.474000E+00	  0.111783572	4.781000E+01	  0.111783572	6.704300E+01	  0.111783572	3.762400E+01
460	  0.111983970	-9.457000E+00	  0.111983970	4.714100E+01	  0.111983970	6.764700E+01	  0.111983970	3.765000E+01
461	  0.112184368	-9.442000E+00	  0.112184368	4.650400E+01	  0.112184368	6.822600E+01	  0.112184368	3.765800E+01
462	  0.112384774	-9.423000E+00	  0.112384774	4.591300E+01	  0.112384774	6.877600E+01	  0.112384774	3.769200E+01
463	  0.112585172	-9.411000E+00	  0.112585172	4.526600E+01	  0.112585172	6.937500E+01	  0.112585172	3.766600E+01
464	  0.112785570	-9.405000E+00	  0.112785570	4.458700E+01	  0.112785570	7.000400E+01	  0.112785570	3.759400E+01
465	  0.112985976	-9.396000E+00	  0.112985976	4.384800E+01	  0.112985976	7.069600E+01	  0.112985976	3.751300E+01
466	  0.113186374	-9.375000E+00	  0.113186374	4.309900E+01	  0.113186374	7.142000E+01	  0.113186374	3.749300E+01
467	  0.113386773	-9.359000E+00	  0.113386773	4.240400E+01	  0.113386773	7.209500E+01	  0.113386773	3.744000E+01
468	  0.113587178	-9.345000E+00	  0.113587178	4.163000E+01	  0.113587178	7.285000E+01	  0.113587178	3.734800E+01
469	  0.113787577	-9.340000E+00	  0.113787577	4.088900E+01	  0.113787577	7.356500E+01	  0.113787577	3.718900E+01
470	  0.113987975	-9.322000E+00	  0.113987975	4.012400E+01	  0.113987975	7.433100E+01	  0.113987975	3.709200E+01
471	  0.114188381	-9.319000E+00	  0.114188381	3.938500E+01	  0.114188381	7.504900E+01	  0.114188381	3.688700E+01
472	  0.114388779	-9.296000E+00	  0.114388779	3.854600E+01	  0.114388779	7.591100E+01	  0.114388779	3.676300E+01
473	  0.114589177	-9.283000E+00	  0.114589177	3.768900E+01	  0.114589177	7.677900E+01	  0.114589177	3.655200E+01
474	  0.114789583	-9.272000E+00	  0.114789583	3.686400E+01	  0.114789583	7.761600E+01	  0.114789583	3.631600E+01
475	  0.114989981	-9.256000E+00	  0.114989981	3.609900E+01	  0.114989981	7.841200E+01	  0.114989981	3.611700E+01
476	  0.115190387	-9.252000E+00	  0.115190387	3.522100E+01	  0.115190387	7.929200E+01	  0.115190387	3.577200E+01
477	  0.115390785	-9.237000E+00	  0.115390785	3.438700E+01	  0.115390785	8.016400E+01	  0.115390785	3.549400E+01
478	  0.115591183	-9.242000E+00	  0.115591183	3.350300E+01	  0.115591183	8.102500E+01	  0.115591183	3.503500E+01
479	  0.115791589	-9.228000E+00	  0.115791589	3.265100E+01	  0.115791589	8.191800E+01	  0.115791589	3.469500E+01
480	  0.115991987	-9.225000E+00	  0.115991987	3.171700E+01	  0.115991987	8.285300E+01	  0.115991987	3.420600E+01
481	  0.116192386	-9.230000E+00	  0.116192386	3.083500E+01	  0.116192386	8.370300E+01	  0.116192386	3.366700E+01
482	  0.116392791	-9.227000E+00	  0.116392791	2.994500E+01	  0.116392791	8.459000E+01	  0.116392791	3.315100E+01
483	  0.116593190	-9.225000E+00	  0.116593190	2.900400E+01	  0.116593190	8.551500E+01	  0.116593190	3.256100E+01
484	  0.116793588	-9.247000E+00	  0.116793588	2.809700E+01	  0.116793588	8.629300E+01	  0.116793588	3.181300E+01
485	  0.116993994	-9.247000E+00	  0.116993994	2.708500E+01	  0.116993994	8.726000E+01	  0.116993994	3.110200E+01
486	  0.117194392	-9.253000E+00	  0.117194392	2.606300E+01	  0.117194392	8.818900E+01	  0.117194392	3.030300E+01
487	  0.117394790	-9.275000E+00	  0.117394790	2.508300E+01	  0.117394790	8.898400E+01	  0.117394790	2.940900E+01
488	  0.117595196	-9.289000E+00	  0.117595196	2.413900E+01	  0.117595196	8.976000E+01	  0.117595196	2.855900E+01
489	  0.117795594	-9.312000E+00	  0.117795594	2.305300E+01	  0.117795594	9.059300E+01	  0.117795594	2.750800E+01
490	  0.117995992	-9.332000E+00	  0.117995992	2.193700E+01	  0.117995992	9.143200E+01	  0.117995992	2.641000E+01
491	  0.118196398	-9.357000E+00	  0.118196398	2.091500E+01	  0.118196398	9.212800E+01	  0.118196398	2.533500E+01
492	  0.118396796	-9.385000E+00	  0.118396796	1.980400E+01	  0.118396796	9.283800E+01	  0.118396796	2.413200E+01
493	  0.118597202	-9.407000E+00	  0.118597202	1.868700E+01	  0.118597202	9.355300E+01	  0.118597202	2.292500E+01
494	  0.118797600	-9.443000E+00	  0.118797600	1.750200E+01	  0.118797600	9.417200E+01	  0.118797600	2.154600E+01
495	  0.118997999	-9.480000E+00	  0.118997999	1.640200E+01	  0.118997999	9.467400E+01	  0.118997999	2.023000E+01
496	  0.119198404	-9.518000E+00	  0.119198404	1.510500E+01	  0.119198404	9.524100E+01	  0.119198404	1.867700E+01
497	  0.119398803	-9.559000E+00	  0.119398803	1.386900E+01	  0.119398803	9.568700E+01	  0.119398803	1.716100E+01
498	  0.119599201	-9.600000E+00	  0.119599201	1.264000E+01	  0.119599201	9.605900E+01	  0.119599201	1.563500E+01
499	  0.119799607	-9.648000E+00	  0.119799607	1.133400E+01	  0.119799607	9.634600E+01	  0.119799607	1.398800E+01
500	  0.120000005	-9.698000E+00	  0.120000005	1.005700E+01	  0.120000005	9.652700E+01	  0.120000005	1.236200E+01
