! Anritsu VNA Master:             	Model: MS2036C/10/77
! SN:             	1601066
! /bd0/18may26.balun/4a.r200.2.txt
! Existing Calibration Information:
! TYPE:             	Current Settings	Active Cal Settings
! TIME:             	05/26/2018 03:27:07 PM	05/26/2018 02:51:55 PM
! INTERNAL TEMP:    	59.8 C	59.5 C
! # POINTS:         	500	500
! START FREQ:       	20.000 MHz	20.000 MHz
! STOP FREQ:        	120.000 MHz	120.000 MHz
! SOURCE POWER:     	High	High
! IFBW:             	50 Hz	50 Hz
! AVG FACTOR:       	  1 	  1 
! REF PLANE 1:      	0 mm	0 mm
! REF PLANE 2:      	0 mm	0 mm
! CAL TYPE:         	Full S11	Full S11
! CAL METHOD:       	SOLT	SOLT
! CAL LINE TYPE:    	Coax	Coax
! DUT PORT 1:       	K-Conn(M)	K-Conn(M)
! DUT PORT 2:       	K-Conn(M)	K-Conn(M)
! CAL STATUS:       	OK: Accuracy High	--
! PROP-V:       	0.700
! CABLE LOSS:       	0.000 dB/m
! REF IMPEDANCE:       	50.0
! Trace Specific Parameters:	TR1	TR2	TR3	TR4
! TRACE.#.Y (GRAPH TYPE)	LOG MAG	PHASE	REAL IMPEDANCE	IMAGINARY IMPEDANCE
! TRACE.#.X 	FREQ.GHZ	FREQ.GHZ	FREQ.GHZ	FREQ.GHZ
! S-PARAMETER	S11	S11	S11	S11
! SMOOTH/APERTURE %	0	0	0	0
! WINDOW	NSL	NSL	NSL	NSL
! GATING	OFF	OFF	OFF	OFF
! FGTD	OFF	OFF	OFF	OFF
Marker Information per Trace:	TR1	TR2	TR3	TR4
!MK1	--	--	--	--
!MK2	--	--	--	--
!MK3	--	--	--	--
!MK4	--	--	--	--
!MK5	--	--	--	--
!MK6	--	--	--	--
!MK7	--	--	--	--
!MK8	--	--	--	--
PNT	TR1.FREQ.GHZ	TR1.LOG MAG.dB	TR2.FREQ.GHZ	TR2.PHASE.deg	TR3.FREQ.GHZ	TR3.REAL IMPEDANCE.ohm	TR4.FREQ.GHZ	TR4.IMAGINARY IMPEDANCE.ohm
1	  0.020000000	-4.566000E+00	  0.020000000	-2.217800E+01	  0.020000000	1.277350E+02	  0.020000000	-8.761300E+01
2	  0.020200402	-4.563000E+00	  0.020200402	-2.238900E+01	  0.020200402	1.269330E+02	  0.020200402	-8.791400E+01
3	  0.020400802	-4.561000E+00	  0.020400802	-2.260500E+01	  0.020400802	1.261040E+02	  0.020400802	-8.818200E+01
4	  0.020601204	-4.559000E+00	  0.020601204	-2.279200E+01	  0.020601204	1.253960E+02	  0.020601204	-8.842800E+01
5	  0.020801604	-4.559000E+00	  0.020801604	-2.300400E+01	  0.020801604	1.245780E+02	  0.020801604	-8.861500E+01
6	  0.021002004	-4.558000E+00	  0.021002004	-2.322200E+01	  0.021002004	1.237470E+02	  0.021002004	-8.884400E+01
7	  0.021202406	-4.559000E+00	  0.021202406	-2.343800E+01	  0.021202406	1.229110E+02	  0.021202406	-8.899500E+01
8	  0.021402806	-4.559000E+00	  0.021402806	-2.366500E+01	  0.021402806	1.220460E+02	  0.021402806	-8.916900E+01
9	  0.021603208	-4.561000E+00	  0.021603208	-2.388200E+01	  0.021603208	1.212160E+02	  0.021603208	-8.928900E+01
10	  0.021803608	-4.565000E+00	  0.021803608	-2.408400E+01	  0.021803608	1.204370E+02	  0.021803608	-8.934400E+01
11	  0.022004008	-4.567000E+00	  0.022004008	-2.429600E+01	  0.022004008	1.196340E+02	  0.022004008	-8.943700E+01
12	  0.022204408	-4.568000E+00	  0.022204408	-2.452300E+01	  0.022204408	1.187820E+02	  0.022204408	-8.954700E+01
13	  0.022404809	-4.566000E+00	  0.022404809	-2.474300E+01	  0.022404809	1.179780E+02	  0.022404809	-8.973500E+01
14	  0.022605211	-4.571000E+00	  0.022605211	-2.497100E+01	  0.022605211	1.171160E+02	  0.022605211	-8.974000E+01
15	  0.022805611	-4.577000E+00	  0.022805611	-2.519400E+01	  0.022805611	1.162810E+02	  0.022805611	-8.971400E+01
16	  0.023006011	-4.578000E+00	  0.023006011	-2.544400E+01	  0.023006011	1.153730E+02	  0.023006011	-8.982000E+01
17	  0.023206413	-4.574000E+00	  0.023206413	-2.568500E+01	  0.023206413	1.145110E+02	  0.023206413	-9.001600E+01
18	  0.023406813	-4.567000E+00	  0.023406813	-2.592800E+01	  0.023406813	1.136610E+02	  0.023406813	-9.028400E+01
19	  0.023607215	-4.565000E+00	  0.023607215	-2.616500E+01	  0.023607215	1.128190E+02	  0.023607215	-9.042000E+01
20	  0.023807615	-4.564000E+00	  0.023807615	-2.640400E+01	  0.023807615	1.119740E+02	  0.023807615	-9.054100E+01
21	  0.024008015	-4.565000E+00	  0.024008015	-2.662500E+01	  0.024008015	1.111910E+02	  0.024008015	-9.057500E+01
22	  0.024208417	-4.564000E+00	  0.024208417	-2.684300E+01	  0.024208417	1.104290E+02	  0.024208417	-9.065400E+01
23	  0.024408817	-4.563000E+00	  0.024408817	-2.701300E+01	  0.024408817	1.098370E+02	  0.024408817	-9.071800E+01
24	  0.024609219	-4.565000E+00	  0.024609219	-2.720200E+01	  0.024609219	1.091780E+02	  0.024609219	-9.071000E+01
25	  0.024809619	-4.566000E+00	  0.024809619	-2.739500E+01	  0.024809619	1.085130E+02	  0.024809619	-9.073300E+01
26	  0.025010020	-4.569000E+00	  0.025010020	-2.759000E+01	  0.025010020	1.078420E+02	  0.025010020	-9.069600E+01
27	  0.025210422	-4.574000E+00	  0.025210422	-2.780200E+01	  0.025210422	1.071160E+02	  0.025210422	-9.061400E+01
28	  0.025410822	-4.575000E+00	  0.025410822	-2.802600E+01	  0.025410822	1.063580E+02	  0.025410822	-9.061800E+01
29	  0.025611224	-4.574000E+00	  0.025611224	-2.825800E+01	  0.025611224	1.055800E+02	  0.025611224	-9.066200E+01
30	  0.025811624	-4.577000E+00	  0.025811624	-2.848800E+01	  0.025811624	1.048140E+02	  0.025811624	-9.061200E+01
31	  0.026012026	-4.581000E+00	  0.026012026	-2.870600E+01	  0.026012026	1.040950E+02	  0.026012026	-9.053800E+01
32	  0.026212426	-4.585000E+00	  0.026212426	-2.895700E+01	  0.026212426	1.032710E+02	  0.026212426	-9.045900E+01
33	  0.026412826	-4.583000E+00	  0.026412826	-2.920800E+01	  0.026412826	1.024550E+02	  0.026412826	-9.047700E+01
34	  0.026613226	-4.587000E+00	  0.026613226	-2.947300E+01	  0.026613226	1.016030E+02	  0.026613226	-9.039000E+01
35	  0.026813626	-4.585000E+00	  0.026813626	-2.968500E+01	  0.026813626	1.009260E+02	  0.026813626	-9.040900E+01
36	  0.027014028	-4.586000E+00	  0.027014028	-2.988900E+01	  0.027014028	1.002780E+02	  0.027014028	-9.037400E+01
37	  0.027214428	-4.590000E+00	  0.027214428	-3.009200E+01	  0.027214428	9.964200E+01	  0.027214428	-9.027900E+01
38	  0.027414829	-4.594000E+00	  0.027414829	-3.029700E+01	  0.027414829	9.900300E+01	  0.027414829	-9.015100E+01
39	  0.027615231	-4.597000E+00	  0.027615231	-3.052700E+01	  0.027615231	9.829100E+01	  0.027615231	-9.006600E+01
40	  0.027815631	-4.602000E+00	  0.027815631	-3.077100E+01	  0.027815631	9.754900E+01	  0.027815631	-8.991100E+01
41	  0.028016033	-4.610000E+00	  0.028016033	-3.104000E+01	  0.028016033	9.673800E+01	  0.028016033	-8.970600E+01
42	  0.028216433	-4.612000E+00	  0.028216433	-3.132400E+01	  0.028216433	9.588500E+01	  0.028216433	-8.960600E+01
43	  0.028416833	-4.610000E+00	  0.028416833	-3.161000E+01	  0.028416833	9.503000E+01	  0.028416833	-8.957900E+01
44	  0.028617235	-4.603000E+00	  0.028617235	-3.188900E+01	  0.028617235	9.419000E+01	  0.028617235	-8.963200E+01
45	  0.028817635	-4.599000E+00	  0.028817635	-3.217200E+01	  0.028817635	9.335300E+01	  0.028817635	-8.961400E+01
46	  0.029018037	-4.595000E+00	  0.029018037	-3.242600E+01	  0.029018037	9.260400E+01	  0.029018037	-8.960900E+01
47	  0.029218437	-4.586000E+00	  0.029218437	-3.267100E+01	  0.029218437	9.187700E+01	  0.029218437	-8.969800E+01
48	  0.029418837	-4.580000E+00	  0.029418837	-3.287200E+01	  0.029418837	9.128400E+01	  0.029418837	-8.974600E+01
49	  0.029619239	-4.574000E+00	  0.029619239	-3.307700E+01	  0.029619239	9.068800E+01	  0.029619239	-8.976000E+01
50	  0.029819639	-4.567000E+00	  0.029819639	-3.321600E+01	  0.029819639	9.027100E+01	  0.029819639	-8.984700E+01
51	  0.030020041	-4.560000E+00	  0.030020041	-3.337500E+01	  0.030020041	8.980200E+01	  0.030020041	-8.990200E+01
52	  0.030220442	-4.559000E+00	  0.030220442	-3.353700E+01	  0.030220442	8.934600E+01	  0.030220442	-8.984700E+01
53	  0.030420844	-4.562000E+00	  0.030420844	-3.374300E+01	  0.030420844	8.877800E+01	  0.030420844	-8.969600E+01
54	  0.030621244	-4.567000E+00	  0.030621244	-3.393600E+01	  0.030621244	8.826000E+01	  0.030621244	-8.952000E+01
55	  0.030821644	-4.569000E+00	  0.030821644	-3.413800E+01	  0.030821644	8.770800E+01	  0.030821644	-8.939300E+01
56	  0.031022044	-4.575000E+00	  0.031022044	-3.434400E+01	  0.031022044	8.717000E+01	  0.031022044	-8.917500E+01
57	  0.031222444	-4.569000E+00	  0.031222444	-3.450500E+01	  0.031222444	8.671300E+01	  0.031222444	-8.920100E+01
58	  0.031422846	-4.579000E+00	  0.031422846	-3.472600E+01	  0.031422846	8.615300E+01	  0.031422846	-8.891400E+01
59	  0.031623244	-4.584000E+00	  0.031623244	-3.496100E+01	  0.031623244	8.554600E+01	  0.031623244	-8.869400E+01
60	  0.031823646	-4.591000E+00	  0.031823646	-3.522700E+01	  0.031823646	8.487100E+01	  0.031823646	-8.842600E+01
61	  0.032024048	-4.595000E+00	  0.032024048	-3.544700E+01	  0.032024048	8.430800E+01	  0.032024048	-8.824800E+01
62	  0.032224450	-4.598000E+00	  0.032224450	-3.568100E+01	  0.032224450	8.371700E+01	  0.032224450	-8.806700E+01
63	  0.032424849	-4.600000E+00	  0.032424849	-3.594500E+01	  0.032424849	8.304600E+01	  0.032424849	-8.788400E+01
64	  0.032625251	-4.596000E+00	  0.032625251	-3.621200E+01	  0.032625251	8.235700E+01	  0.032625251	-8.777800E+01
65	  0.032825653	-4.595000E+00	  0.032825653	-3.642100E+01	  0.032825653	8.182400E+01	  0.032825653	-8.768300E+01
66	  0.033026051	-4.600000E+00	  0.033026051	-3.665300E+01	  0.033026051	8.126800E+01	  0.033026051	-8.745200E+01
67	  0.033226453	-4.598000E+00	  0.033226453	-3.685500E+01	  0.033226453	8.075900E+01	  0.033226453	-8.736500E+01
68	  0.033426855	-4.608000E+00	  0.033426855	-3.708600E+01	  0.033426855	8.023400E+01	  0.033426855	-8.705600E+01
69	  0.033627257	-4.610000E+00	  0.033627257	-3.735500E+01	  0.033627257	7.959300E+01	  0.033627257	-8.684600E+01
70	  0.033827655	-4.611000E+00	  0.033827655	-3.763800E+01	  0.033827655	7.892000E+01	  0.033827655	-8.663900E+01
71	  0.034028057	-4.614000E+00	  0.034028057	-3.792800E+01	  0.034028057	7.824500E+01	  0.034028057	-8.640200E+01
72	  0.034228459	-4.616000E+00	  0.034228459	-3.821100E+01	  0.034228459	7.758500E+01	  0.034228459	-8.618800E+01
73	  0.034428857	-4.610000E+00	  0.034428857	-3.848100E+01	  0.034428857	7.693300E+01	  0.034428857	-8.608700E+01
74	  0.034629259	-4.604000E+00	  0.034629259	-3.872900E+01	  0.034629259	7.633300E+01	  0.034629259	-8.600800E+01
75	  0.034829661	-4.593000E+00	  0.034829661	-3.899000E+01	  0.034829661	7.568700E+01	  0.034829661	-8.598400E+01
76	  0.035030060	-4.583000E+00	  0.035030060	-3.921300E+01	  0.035030060	7.513100E+01	  0.035030060	-8.597600E+01
77	  0.035230462	-4.573000E+00	  0.035230462	-3.941700E+01	  0.035230462	7.462300E+01	  0.035230462	-8.597100E+01
78	  0.035430863	-4.565000E+00	  0.035430863	-3.957900E+01	  0.035430863	7.422200E+01	  0.035430863	-8.596400E+01
79	  0.035631265	-4.563000E+00	  0.035631265	-3.972400E+01	  0.035631265	7.389200E+01	  0.035631265	-8.587900E+01
80	  0.035831664	-4.561000E+00	  0.035831664	-3.986600E+01	  0.035831664	7.356900E+01	  0.035831664	-8.579100E+01
81	  0.036032066	-4.563000E+00	  0.036032066	-4.004500E+01	  0.036032066	7.318500E+01	  0.036032066	-8.562800E+01
82	  0.036232468	-4.569000E+00	  0.036232468	-4.020700E+01	  0.036232468	7.286000E+01	  0.036232468	-8.542200E+01
83	  0.036432866	-4.574000E+00	  0.036432866	-4.041300E+01	  0.036432866	7.244200E+01	  0.036432866	-8.519000E+01
84	  0.036633268	-4.582000E+00	  0.036633268	-4.063000E+01	  0.036633268	7.201800E+01	  0.036633268	-8.490300E+01
85	  0.036833670	-4.588000E+00	  0.036833670	-4.084800E+01	  0.036833670	7.158500E+01	  0.036833670	-8.464700E+01
86	  0.037034072	-4.597000E+00	  0.037034072	-4.104900E+01	  0.037034072	7.121100E+01	  0.037034072	-8.435900E+01
87	  0.037234470	-4.604000E+00	  0.037234470	-4.125800E+01	  0.037234470	7.081400E+01	  0.037234470	-8.408900E+01
88	  0.037434869	-4.607000E+00	  0.037434869	-4.148000E+01	  0.037434869	7.036700E+01	  0.037434869	-8.388100E+01
89	  0.037635271	-4.612000E+00	  0.037635271	-4.171900E+01	  0.037635271	6.990300E+01	  0.037635271	-8.362100E+01
90	  0.037835669	-4.612000E+00	  0.037835669	-4.197900E+01	  0.037835669	6.937600E+01	  0.037835669	-8.340700E+01
91	  0.038036071	-4.612000E+00	  0.038036071	-4.223600E+01	  0.038036071	6.886100E+01	  0.038036071	-8.319700E+01
92	  0.038236473	-4.610000E+00	  0.038236473	-4.248600E+01	  0.038236473	6.835500E+01	  0.038236473	-8.301400E+01
93	  0.038436871	-4.608000E+00	  0.038436871	-4.269000E+01	  0.038436871	6.793600E+01	  0.038436871	-8.288200E+01
94	  0.038637273	-4.614000E+00	  0.038637273	-4.288900E+01	  0.038637273	6.758100E+01	  0.038637273	-8.263400E+01
95	  0.038837675	-4.619000E+00	  0.038837675	-4.309500E+01	  0.038837675	6.720800E+01	  0.038837675	-8.240300E+01
96	  0.039038073	-4.628000E+00	  0.039038073	-4.336000E+01	  0.039038073	6.674600E+01	  0.039038073	-8.206900E+01
97	  0.039238475	-4.635000E+00	  0.039238475	-4.363900E+01	  0.039238475	6.625600E+01	  0.039238475	-8.174700E+01
98	  0.039438877	-4.638000E+00	  0.039438877	-4.392300E+01	  0.039438877	6.574200E+01	  0.039438877	-8.146200E+01
99	  0.039639279	-4.643000E+00	  0.039639279	-4.420000E+01	  0.039639279	6.525400E+01	  0.039639279	-8.116900E+01
100	  0.039839678	-4.642000E+00	  0.039839678	-4.449900E+01	  0.039839678	6.469800E+01	  0.039839678	-8.093200E+01
101	  0.040040080	-4.635000E+00	  0.040040080	-4.478100E+01	  0.040040080	6.414600E+01	  0.040040080	-8.077400E+01
102	  0.040240481	-4.628000E+00	  0.040240481	-4.504300E+01	  0.040240481	6.363400E+01	  0.040240481	-8.063300E+01
103	  0.040440880	-4.616000E+00	  0.040440880	-4.531200E+01	  0.040440880	6.308800E+01	  0.040440880	-8.053500E+01
104	  0.040641282	-4.607000E+00	  0.040641282	-4.552700E+01	  0.040641282	6.265700E+01	  0.040641282	-8.045200E+01
105	  0.040841684	-4.595000E+00	  0.040841684	-4.571900E+01	  0.040841684	6.224600E+01	  0.040841684	-8.042800E+01
106	  0.041042086	-4.591000E+00	  0.041042086	-4.589300E+01	  0.041042086	6.192400E+01	  0.041042086	-8.031100E+01
107	  0.041242484	-4.590000E+00	  0.041242484	-4.605900E+01	  0.041242484	6.163000E+01	  0.041242484	-8.017400E+01
108	  0.041442886	-4.592000E+00	  0.041442886	-4.623300E+01	  0.041442886	6.134000E+01	  0.041442886	-8.000100E+01
109	  0.041643288	-4.597000E+00	  0.041643288	-4.640600E+01	  0.041643288	6.107700E+01	  0.041643288	-7.978500E+01
110	  0.041843686	-4.601000E+00	  0.041843686	-4.660700E+01	  0.041843686	6.075500E+01	  0.041843686	-7.957000E+01
111	  0.042044088	-4.607000E+00	  0.042044088	-4.681400E+01	  0.042044088	6.044600E+01	  0.042044088	-7.931100E+01
112	  0.042244490	-4.610000E+00	  0.042244490	-4.702100E+01	  0.042244490	6.011500E+01	  0.042244490	-7.910000E+01
113	  0.042444889	-4.615000E+00	  0.042444889	-4.721500E+01	  0.042444889	5.982900E+01	  0.042444889	-7.886200E+01
114	  0.042645290	-4.619000E+00	  0.042645290	-4.744000E+01	  0.042645290	5.948100E+01	  0.042645290	-7.862200E+01
115	  0.042845692	-4.624000E+00	  0.042845692	-4.763700E+01	  0.042845692	5.918800E+01	  0.042845692	-7.839400E+01
116	  0.043046094	-4.626000E+00	  0.043046094	-4.788200E+01	  0.043046094	5.880500E+01	  0.043046094	-7.815400E+01
117	  0.043246493	-4.624000E+00	  0.043246493	-4.812900E+01	  0.043246493	5.840200E+01	  0.043246493	-7.794600E+01
118	  0.043446895	-4.622000E+00	  0.043446895	-4.840300E+01	  0.043446895	5.795300E+01	  0.043446895	-7.772600E+01
119	  0.043647297	-4.620000E+00	  0.043647297	-4.858900E+01	  0.043647297	5.765400E+01	  0.043647297	-7.757100E+01
120	  0.043847695	-4.621000E+00	  0.043847695	-4.881100E+01	  0.043847695	5.731500E+01	  0.043847695	-7.736000E+01
121	  0.044048097	-4.621000E+00	  0.044048097	-4.900500E+01	  0.044048097	5.701600E+01	  0.044048097	-7.718400E+01
122	  0.044248499	-4.628000E+00	  0.044248499	-4.922400E+01	  0.044248499	5.672000E+01	  0.044248499	-7.691800E+01
123	  0.044448901	-4.633000E+00	  0.044448901	-4.946300E+01	  0.044448901	5.639100E+01	  0.044448901	-7.664500E+01
124	  0.044649299	-4.638000E+00	  0.044649299	-4.972700E+01	  0.044649299	5.602600E+01	  0.044649299	-7.635600E+01
125	  0.044849701	-4.643000E+00	  0.044849701	-4.996000E+01	  0.044849701	5.570800E+01	  0.044849701	-7.609700E+01
126	  0.045050103	-4.649000E+00	  0.045050103	-5.024000E+01	  0.045050103	5.532800E+01	  0.045050103	-7.579100E+01
127	  0.045250501	-4.648000E+00	  0.045250501	-5.048300E+01	  0.045250501	5.497200E+01	  0.045250501	-7.557400E+01
128	  0.045450903	-4.644000E+00	  0.045450903	-5.074500E+01	  0.045450903	5.456700E+01	  0.045450903	-7.538000E+01
129	  0.045651305	-4.634000E+00	  0.045651305	-5.100400E+01	  0.045651305	5.413400E+01	  0.045651305	-7.524100E+01
130	  0.045851704	-4.626000E+00	  0.045851704	-5.124000E+01	  0.045851704	5.375500E+01	  0.045851704	-7.509500E+01
131	  0.046052106	-4.616000E+00	  0.046052106	-5.146100E+01	  0.046052106	5.338500E+01	  0.046052106	-7.498500E+01
132	  0.046252504	-4.607000E+00	  0.046252504	-5.166300E+01	  0.046252504	5.305000E+01	  0.046252504	-7.488100E+01
133	  0.046452906	-4.607000E+00	  0.046452906	-5.184500E+01	  0.046452906	5.279900E+01	  0.046452906	-7.471300E+01
134	  0.046653304	-4.608000E+00	  0.046653304	-5.201900E+01	  0.046653304	5.256400E+01	  0.046653304	-7.454400E+01
135	  0.046853706	-4.614000E+00	  0.046853706	-5.220300E+01	  0.046853706	5.235000E+01	  0.046853706	-7.432100E+01
136	  0.047054108	-4.617000E+00	  0.047054108	-5.241600E+01	  0.047054108	5.208200E+01	  0.047054108	-7.409500E+01
137	  0.047254506	-4.624000E+00	  0.047254506	-5.262700E+01	  0.047254506	5.184400E+01	  0.047254506	-7.383700E+01
138	  0.047454908	-4.624000E+00	  0.047454908	-5.281500E+01	  0.047454908	5.158700E+01	  0.047454908	-7.367100E+01
139	  0.047655310	-4.635000E+00	  0.047655310	-5.302800E+01	  0.047655310	5.137200E+01	  0.047655310	-7.338000E+01
140	  0.047855709	-4.640000E+00	  0.047855709	-5.322300E+01	  0.047855709	5.115000E+01	  0.047855709	-7.315400E+01
141	  0.048056111	-4.643000E+00	  0.048056111	-5.345500E+01	  0.048056111	5.086700E+01	  0.048056111	-7.291600E+01
142	  0.048256513	-4.647000E+00	  0.048256513	-5.371500E+01	  0.048256513	5.055300E+01	  0.048256513	-7.264800E+01
143	  0.048456915	-4.646000E+00	  0.048456915	-5.396500E+01	  0.048456915	5.022800E+01	  0.048456915	-7.242900E+01
144	  0.048657313	-4.643000E+00	  0.048657313	-5.421300E+01	  0.048657313	4.989600E+01	  0.048657313	-7.222800E+01
145	  0.048857715	-4.644000E+00	  0.048857715	-5.446600E+01	  0.048857715	4.958600E+01	  0.048857715	-7.198900E+01
146	  0.049058117	-4.646000E+00	  0.049058117	-5.469400E+01	  0.049058117	4.931800E+01	  0.049058117	-7.176100E+01
147	  0.049258515	-4.648000E+00	  0.049258515	-5.490300E+01	  0.049258515	4.907100E+01	  0.049258515	-7.155800E+01
148	  0.049458917	-4.650000E+00	  0.049458917	-5.511300E+01	  0.049458917	4.882800E+01	  0.049458917	-7.135000E+01
149	  0.049659319	-4.655000E+00	  0.049659319	-5.535000E+01	  0.049659319	4.856800E+01	  0.049659319	-7.109700E+01
150	  0.049859721	-4.660000E+00	  0.049859721	-5.559100E+01	  0.049859721	4.831100E+01	  0.049859721	-7.083600E+01
151	  0.050060119	-4.664000E+00	  0.050060119	-5.582900E+01	  0.050060119	4.805000E+01	  0.050060119	-7.059300E+01
152	  0.050260521	-4.668000E+00	  0.050260521	-5.610100E+01	  0.050260521	4.775400E+01	  0.050260521	-7.031400E+01
153	  0.050460923	-4.669000E+00	  0.050460923	-5.636900E+01	  0.050460923	4.744800E+01	  0.050460923	-7.006600E+01
154	  0.050661322	-4.665000E+00	  0.050661322	-5.663900E+01	  0.050661322	4.711100E+01	  0.050661322	-6.985500E+01
155	  0.050861724	-4.661000E+00	  0.050861724	-5.694000E+01	  0.050861724	4.674400E+01	  0.050861724	-6.961200E+01
156	  0.051062126	-4.655000E+00	  0.051062126	-5.719100E+01	  0.051062126	4.642300E+01	  0.051062126	-6.943200E+01
157	  0.051262524	-4.646000E+00	  0.051262524	-5.743400E+01	  0.051262524	4.610100E+01	  0.051262524	-6.927500E+01
158	  0.051462926	-4.641000E+00	  0.051462926	-5.764600E+01	  0.051462926	4.583200E+01	  0.051462926	-6.912500E+01
159	  0.051663328	-4.636000E+00	  0.051663328	-5.786400E+01	  0.051663328	4.556600E+01	  0.051663328	-6.896000E+01
160	  0.051863730	-4.635000E+00	  0.051863730	-5.804100E+01	  0.051863730	4.536400E+01	  0.051863730	-6.880900E+01
161	  0.052064128	-4.633000E+00	  0.052064128	-5.822100E+01	  0.052064128	4.516000E+01	  0.052064128	-6.865700E+01
162	  0.052264530	-4.637000E+00	  0.052264530	-5.841300E+01	  0.052264530	4.497700E+01	  0.052264530	-6.845500E+01
163	  0.052464932	-4.637000E+00	  0.052464932	-5.860500E+01	  0.052464932	4.476800E+01	  0.052464932	-6.828600E+01
164	  0.052665330	-4.639000E+00	  0.052665330	-5.879300E+01	  0.052665330	4.458200E+01	  0.052665330	-6.810100E+01
165	  0.052865732	-4.642000E+00	  0.052865732	-5.899900E+01	  0.052865732	4.437900E+01	  0.052865732	-6.789800E+01
166	  0.053066134	-4.645000E+00	  0.053066134	-5.916900E+01	  0.053066134	4.421900E+01	  0.053066134	-6.772500E+01
167	  0.053266536	-4.649000E+00	  0.053266536	-5.938600E+01	  0.053266536	4.402100E+01	  0.053266536	-6.749800E+01
168	  0.053466935	-4.652000E+00	  0.053466935	-5.962300E+01	  0.053466935	4.379300E+01	  0.053466935	-6.726700E+01
169	  0.053667337	-4.654000E+00	  0.053667337	-5.987200E+01	  0.053667337	4.354800E+01	  0.053667337	-6.703500E+01
170	  0.053867739	-4.652000E+00	  0.053867739	-6.012200E+01	  0.053867739	4.328500E+01	  0.053867739	-6.682200E+01
171	  0.054068137	-4.654000E+00	  0.054068137	-6.036700E+01	  0.054068137	4.304600E+01	  0.054068137	-6.659700E+01
172	  0.054268539	-4.658000E+00	  0.054268539	-6.057600E+01	  0.054268539	4.286100E+01	  0.054268539	-6.638500E+01
173	  0.054468941	-4.655000E+00	  0.054468941	-6.077600E+01	  0.054468941	4.265100E+01	  0.054468941	-6.622400E+01
174	  0.054669339	-4.654000E+00	  0.054669339	-6.099200E+01	  0.054669339	4.243200E+01	  0.054669339	-6.604100E+01
175	  0.054869737	-4.659000E+00	  0.054869737	-6.121500E+01	  0.054869737	4.224500E+01	  0.054869737	-6.581000E+01
176	  0.055070139	-4.661000E+00	  0.055070139	-6.140400E+01	  0.055070139	4.206800E+01	  0.055070139	-6.563600E+01
177	  0.055270538	-4.668000E+00	  0.055270538	-6.163400E+01	  0.055270538	4.189000E+01	  0.055270538	-6.538800E+01
178	  0.055470940	-4.671000E+00	  0.055470940	-6.189100E+01	  0.055470940	4.166400E+01	  0.055470940	-6.514300E+01
179	  0.055671342	-4.673000E+00	  0.055671342	-6.212000E+01	  0.055671342	4.145800E+01	  0.055671342	-6.493100E+01
180	  0.055871744	-4.678000E+00	  0.055871744	-6.240100E+01	  0.055871744	4.122200E+01	  0.055871744	-6.465800E+01
181	  0.056072142	-4.680000E+00	  0.056072142	-6.266100E+01	  0.056072142	4.099700E+01	  0.056072142	-6.441600E+01
182	  0.056272544	-4.675000E+00	  0.056272544	-6.291600E+01	  0.056272544	4.073300E+01	  0.056272544	-6.422700E+01
183	  0.056472946	-4.669000E+00	  0.056472946	-6.318400E+01	  0.056472946	4.045600E+01	  0.056472946	-6.403000E+01
184	  0.056673344	-4.670000E+00	  0.056673344	-6.339800E+01	  0.056673344	4.026600E+01	  0.056673344	-6.384100E+01
185	  0.056873746	-4.667000E+00	  0.056873746	-6.364500E+01	  0.056873746	4.002800E+01	  0.056873746	-6.364600E+01
186	  0.057074148	-4.664000E+00	  0.057074148	-6.381800E+01	  0.057074148	3.986100E+01	  0.057074148	-6.351000E+01
187	  0.057274550	-4.664000E+00	  0.057274550	-6.402400E+01	  0.057274550	3.967600E+01	  0.057274550	-6.333700E+01
188	  0.057474948	-4.667000E+00	  0.057474948	-6.424500E+01	  0.057474948	3.950000E+01	  0.057474948	-6.313000E+01
189	  0.057675350	-4.668000E+00	  0.057675350	-6.444700E+01	  0.057675350	3.933400E+01	  0.057675350	-6.294600E+01
190	  0.057875752	-4.671000E+00	  0.057875752	-6.464900E+01	  0.057875752	3.917500E+01	  0.057875752	-6.275900E+01
191	  0.058076151	-4.676000E+00	  0.058076151	-6.487000E+01	  0.058076151	3.901600E+01	  0.058076151	-6.254000E+01
192	  0.058276553	-4.678000E+00	  0.058276553	-6.506700E+01	  0.058276553	3.885800E+01	  0.058276553	-6.236300E+01
193	  0.058476955	-4.684000E+00	  0.058476955	-6.527400E+01	  0.058476955	3.871600E+01	  0.058476955	-6.215400E+01
194	  0.058677353	-4.683000E+00	  0.058677353	-6.552700E+01	  0.058677353	3.850300E+01	  0.058677353	-6.194100E+01
195	  0.058877755	-4.686000E+00	  0.058877755	-6.577200E+01	  0.058877755	3.831300E+01	  0.058877755	-6.171900E+01
196	  0.059078157	-4.689000E+00	  0.059078157	-6.605200E+01	  0.059078157	3.810300E+01	  0.059078157	-6.146500E+01
197	  0.059278559	-4.691000E+00	  0.059278559	-6.632600E+01	  0.059278559	3.788700E+01	  0.059278559	-6.122700E+01
198	  0.059478957	-4.692000E+00	  0.059478957	-6.656800E+01	  0.059478957	3.769800E+01	  0.059478957	-6.101800E+01
199	  0.059679359	-4.689000E+00	  0.059679359	-6.678600E+01	  0.059679359	3.751000E+01	  0.059679359	-6.084900E+01
200	  0.059879761	-4.690000E+00	  0.059879761	-6.703100E+01	  0.059879761	3.732100E+01	  0.059879761	-6.064000E+01
201	  0.060080159	-4.688000E+00	  0.060080159	-6.725000E+01	  0.060080159	3.713500E+01	  0.060080159	-6.047000E+01
202	  0.060280561	-4.688000E+00	  0.060280561	-6.747300E+01	  0.060280561	3.696500E+01	  0.060280561	-6.028000E+01
203	  0.060480963	-4.691000E+00	  0.060480963	-6.770800E+01	  0.060480963	3.679700E+01	  0.060480963	-6.007100E+01
204	  0.060681365	-4.695000E+00	  0.060681365	-6.792500E+01	  0.060681365	3.665300E+01	  0.060681365	-5.987100E+01
205	  0.060881764	-4.699000E+00	  0.060881764	-6.815500E+01	  0.060881764	3.649700E+01	  0.060881764	-5.966300E+01
206	  0.061082166	-4.699000E+00	  0.061082166	-6.840600E+01	  0.061082166	3.630800E+01	  0.061082166	-5.945500E+01
207	  0.061282568	-4.699000E+00	  0.061282568	-6.868100E+01	  0.061282568	3.610000E+01	  0.061282568	-5.922900E+01
208	  0.061482966	-4.698000E+00	  0.061482966	-6.893700E+01	  0.061482966	3.590400E+01	  0.061482966	-5.902600E+01
209	  0.061683368	-4.694000E+00	  0.061683368	-6.917200E+01	  0.061683368	3.571200E+01	  0.061683368	-5.884900E+01
210	  0.061883770	-4.694000E+00	  0.061883770	-6.942600E+01	  0.061883770	3.552800E+01	  0.061883770	-5.864100E+01
211	  0.062084168	-4.691000E+00	  0.062084168	-6.965700E+01	  0.062084168	3.534100E+01	  0.062084168	-5.847100E+01
212	  0.062284570	-4.686000E+00	  0.062284570	-6.987500E+01	  0.062284570	3.515900E+01	  0.062284570	-5.831400E+01
213	  0.062484972	-4.677000E+00	  0.062484972	-7.004500E+01	  0.062484972	3.499100E+01	  0.062484972	-5.821700E+01
214	  0.062685370	-4.681000E+00	  0.062685370	-7.024100E+01	  0.062685370	3.487000E+01	  0.062685370	-5.804300E+01
215	  0.062885776	-4.682000E+00	  0.062885776	-7.043700E+01	  0.062885776	3.473700E+01	  0.062885776	-5.787900E+01
216	  0.063086174	-4.674000E+00	  0.063086174	-7.062500E+01	  0.063086174	3.456700E+01	  0.063086174	-5.776000E+01
217	  0.063286573	-4.678000E+00	  0.063286573	-7.085200E+01	  0.063286573	3.443100E+01	  0.063286573	-5.755800E+01
218	  0.063486971	-4.682000E+00	  0.063486971	-7.102200E+01	  0.063486971	3.433000E+01	  0.063486971	-5.740600E+01
219	  0.063687377	-4.681000E+00	  0.063687377	-7.123900E+01	  0.063687377	3.417700E+01	  0.063687377	-5.723600E+01
220	  0.063887775	-4.686000E+00	  0.063887775	-7.145000E+01	  0.063887775	3.406200E+01	  0.063887775	-5.704300E+01
221	  0.064088173	-4.687000E+00	  0.064088173	-7.165400E+01	  0.064088173	3.393000E+01	  0.064088173	-5.687400E+01
222	  0.064288579	-4.694000E+00	  0.064288579	-7.191700E+01	  0.064288579	3.379100E+01	  0.064288579	-5.663200E+01
223	  0.064488977	-4.693000E+00	  0.064488977	-7.213000E+01	  0.064488977	3.364100E+01	  0.064488977	-5.646900E+01
224	  0.064689375	-4.690000E+00	  0.064689375	-7.236100E+01	  0.064689375	3.347300E+01	  0.064689375	-5.629900E+01
225	  0.064889781	-4.692000E+00	  0.064889781	-7.257500E+01	  0.064889781	3.334500E+01	  0.064889781	-5.611900E+01
226	  0.065090179	-4.693000E+00	  0.065090179	-7.281800E+01	  0.065090179	3.319300E+01	  0.065090179	-5.592200E+01
227	  0.065290578	-4.693000E+00	  0.065290578	-7.302100E+01	  0.065290578	3.305800E+01	  0.065290578	-5.576500E+01
228	  0.065490983	-4.696000E+00	  0.065490983	-7.322800E+01	  0.065490983	3.294400E+01	  0.065490983	-5.558700E+01
229	  0.065691382	-4.699000E+00	  0.065691382	-7.343200E+01	  0.065691382	3.282700E+01	  0.065691382	-5.541600E+01
230	  0.065891780	-4.702000E+00	  0.065891780	-7.362000E+01	  0.065891780	3.272400E+01	  0.065891780	-5.525500E+01
231	  0.066092186	-4.703000E+00	  0.066092186	-7.387800E+01	  0.066092186	3.256700E+01	  0.066092186	-5.504900E+01
232	  0.066292584	-4.702000E+00	  0.066292584	-7.409500E+01	  0.066292584	3.242600E+01	  0.066292584	-5.488600E+01
233	  0.066492982	-4.710000E+00	  0.066492982	-7.436200E+01	  0.066492982	3.230400E+01	  0.066492982	-5.464300E+01
234	  0.066693388	-4.714000E+00	  0.066693388	-7.457300E+01	  0.066693388	3.219400E+01	  0.066693388	-5.446400E+01
235	  0.066893786	-4.719000E+00	  0.066893786	-7.485700E+01	  0.066893786	3.204900E+01	  0.066893786	-5.422400E+01
236	  0.067094192	-4.717000E+00	  0.067094192	-7.510300E+01	  0.067094192	3.188700E+01	  0.067094192	-5.404400E+01
237	  0.067294590	-4.716000E+00	  0.067294590	-7.532700E+01	  0.067294590	3.174800E+01	  0.067294590	-5.387600E+01
238	  0.067494988	-4.715000E+00	  0.067494988	-7.559600E+01	  0.067494988	3.158500E+01	  0.067494988	-5.367200E+01
239	  0.067695394	-4.723000E+00	  0.067695394	-7.582500E+01	  0.067695394	3.148700E+01	  0.067695394	-5.346800E+01
240	  0.067895792	-4.719000E+00	  0.067895792	-7.608600E+01	  0.067895792	3.131800E+01	  0.067895792	-5.328200E+01
241	  0.068096191	-4.715000E+00	  0.068096191	-7.631800E+01	  0.068096191	3.116000E+01	  0.068096191	-5.312500E+01
242	  0.068296596	-4.719000E+00	  0.068296596	-7.650800E+01	  0.068296596	3.107100E+01	  0.068296596	-5.296500E+01
243	  0.068496995	-4.715000E+00	  0.068496995	-7.673400E+01	  0.068496995	3.092500E+01	  0.068496995	-5.280700E+01
244	  0.068697393	-4.720000E+00	  0.068697393	-7.696300E+01	  0.068697393	3.081800E+01	  0.068697393	-5.261600E+01
245	  0.068897791	-4.717000E+00	  0.068897791	-7.718900E+01	  0.068897791	3.067500E+01	  0.068897791	-5.245800E+01
246	  0.069098189	-4.719000E+00	  0.069098189	-7.738700E+01	  0.069098189	3.057500E+01	  0.069098189	-5.230000E+01
247	  0.069298595	-4.722000E+00	  0.069298595	-7.761800E+01	  0.069298595	3.045900E+01	  0.069298595	-5.211800E+01
248	  0.069498993	-4.725000E+00	  0.069498993	-7.786000E+01	  0.069498993	3.034100E+01	  0.069498993	-5.192700E+01
249	  0.069699399	-4.724000E+00	  0.069699399	-7.810700E+01	  0.069699399	3.020100E+01	  0.069699399	-5.174500E+01
250	  0.069899797	-4.717000E+00	  0.069899797	-7.835900E+01	  0.069899797	3.003200E+01	  0.069899797	-5.158100E+01
251	  0.070100196	-4.724000E+00	  0.070100196	-7.855500E+01	  0.070100196	2.996200E+01	  0.070100196	-5.141100E+01
252	  0.070300601	-4.721000E+00	  0.070300601	-7.877200E+01	  0.070300601	2.983000E+01	  0.070300601	-5.126000E+01
253	  0.070501000	-4.717000E+00	  0.070501000	-7.903700E+01	  0.070501000	2.966900E+01	  0.070501000	-5.108000E+01
254	  0.070701398	-4.722000E+00	  0.070701398	-7.922400E+01	  0.070701398	2.959300E+01	  0.070701398	-5.092500E+01
255	  0.070901804	-4.718000E+00	  0.070901804	-7.941900E+01	  0.070901804	2.947000E+01	  0.070901804	-5.079600E+01
256	  0.071102202	-4.716000E+00	  0.071102202	-7.960500E+01	  0.071102202	2.936600E+01	  0.071102202	-5.066500E+01
257	  0.071302600	-4.719000E+00	  0.071302600	-7.980600E+01	  0.071302600	2.927600E+01	  0.071302600	-5.050700E+01
258	  0.071503006	-4.718000E+00	  0.071503006	-8.002600E+01	  0.071503006	2.915900E+01	  0.071503006	-5.035000E+01
259	  0.071703404	-4.722000E+00	  0.071703404	-8.023100E+01	  0.071703404	2.907500E+01	  0.071703404	-5.018600E+01
260	  0.071903802	-4.733000E+00	  0.071903802	-8.043300E+01	  0.071903802	2.902000E+01	  0.071903802	-5.000500E+01
261	  0.072104208	-4.735000E+00	  0.072104208	-8.072200E+01	  0.072104208	2.888800E+01	  0.072104208	-4.978700E+01
262	  0.072304606	-4.739000E+00	  0.072304606	-8.092100E+01	  0.072304606	2.880400E+01	  0.072304606	-4.963200E+01
263	  0.072505005	-4.742000E+00	  0.072505005	-8.117300E+01	  0.072505005	2.869700E+01	  0.072505005	-4.943800E+01
264	  0.072705410	-4.749000E+00	  0.072705410	-8.141300E+01	  0.072705410	2.861000E+01	  0.072705410	-4.924400E+01
265	  0.072905809	-4.750000E+00	  0.072905809	-8.165500E+01	  0.072905809	2.849500E+01	  0.072905809	-4.906800E+01
266	  0.073106214	-4.752000E+00	  0.073106214	-8.192500E+01	  0.073106214	2.837300E+01	  0.073106214	-4.886900E+01
267	  0.073306613	-4.756000E+00	  0.073306613	-8.215300E+01	  0.073306613	2.828300E+01	  0.073306613	-4.869300E+01
268	  0.073507011	-4.753000E+00	  0.073507011	-8.239500E+01	  0.073507011	2.815200E+01	  0.073507011	-4.853200E+01
269	  0.073707417	-4.749000E+00	  0.073707417	-8.263900E+01	  0.073707417	2.801900E+01	  0.073707417	-4.837100E+01
270	  0.073907815	-4.752000E+00	  0.073907815	-8.291000E+01	  0.073907815	2.790600E+01	  0.073907815	-4.817000E+01
271	  0.074108213	-4.751000E+00	  0.074108213	-8.311600E+01	  0.074108213	2.780400E+01	  0.074108213	-4.802700E+01
272	  0.074308619	-4.748000E+00	  0.074308619	-8.337400E+01	  0.074308619	2.767200E+01	  0.074308619	-4.785400E+01
273	  0.074509017	-4.752000E+00	  0.074509017	-8.362200E+01	  0.074509017	2.757200E+01	  0.074509017	-4.767000E+01
274	  0.074709415	-4.754000E+00	  0.074709415	-8.388200E+01	  0.074709415	2.746600E+01	  0.074709415	-4.748100E+01
275	  0.074909821	-4.758000E+00	  0.074909821	-8.413700E+01	  0.074909821	2.736500E+01	  0.074909821	-4.729400E+01
276	  0.075110219	-4.759000E+00	  0.075110219	-8.438100E+01	  0.075110219	2.726300E+01	  0.075110219	-4.711900E+01
277	  0.075310618	-4.753000E+00	  0.075310618	-8.461200E+01	  0.075310618	2.713300E+01	  0.075310618	-4.697600E+01
278	  0.075511023	-4.747000E+00	  0.075511023	-8.488100E+01	  0.075511023	2.698400E+01	  0.075511023	-4.680900E+01
279	  0.075711422	-4.748000E+00	  0.075711422	-8.508300E+01	  0.075711422	2.690100E+01	  0.075711422	-4.666500E+01
280	  0.075911827	-4.744000E+00	  0.075911827	-8.534500E+01	  0.075911827	2.676900E+01	  0.075911827	-4.649600E+01
281	  0.076112226	-4.741000E+00	  0.076112226	-8.556000E+01	  0.076112226	2.666200E+01	  0.076112226	-4.635700E+01
282	  0.076312624	-4.734000E+00	  0.076312624	-8.571400E+01	  0.076312624	2.656500E+01	  0.076312624	-4.627000E+01
283	  0.076513030	-4.739000E+00	  0.076513030	-8.590900E+01	  0.076513030	2.650100E+01	  0.076513030	-4.612400E+01
284	  0.076713428	-4.734000E+00	  0.076713428	-8.611000E+01	  0.076713428	2.639300E+01	  0.076713428	-4.600100E+01
285	  0.076913826	-4.733000E+00	  0.076913826	-8.629700E+01	  0.076913826	2.631100E+01	  0.076913826	-4.587500E+01
286	  0.077114232	-4.735000E+00	  0.077114232	-8.648100E+01	  0.077114232	2.624300E+01	  0.077114232	-4.574400E+01
287	  0.077314630	-4.740000E+00	  0.077314630	-8.664300E+01	  0.077314630	2.620000E+01	  0.077314630	-4.561900E+01
288	  0.077515028	-4.748000E+00	  0.077515028	-8.690400E+01	  0.077515028	2.612600E+01	  0.077515028	-4.542000E+01
289	  0.077715434	-4.753000E+00	  0.077715434	-8.710600E+01	  0.077715434	2.606300E+01	  0.077715434	-4.527100E+01
290	  0.077915832	-4.761000E+00	  0.077915832	-8.730700E+01	  0.077915832	2.601500E+01	  0.077915832	-4.511400E+01
291	  0.078116231	-4.769000E+00	  0.078116231	-8.756000E+01	  0.078116231	2.595000E+01	  0.078116231	-4.492100E+01
292	  0.078316636	-4.772000E+00	  0.078316636	-8.774400E+01	  0.078316636	2.588600E+01	  0.078316636	-4.479200E+01
293	  0.078517035	-4.776000E+00	  0.078517035	-8.800500E+01	  0.078517035	2.579800E+01	  0.078517035	-4.460700E+01
294	  0.078717433	-4.774000E+00	  0.078717433	-8.823100E+01	  0.078717433	2.570200E+01	  0.078717433	-4.445900E+01
295	  0.078917839	-4.774000E+00	  0.078917839	-8.846200E+01	  0.078917839	2.560800E+01	  0.078917839	-4.430700E+01
296	  0.079118237	-4.780000E+00	  0.079118237	-8.872500E+01	  0.079118237	2.553000E+01	  0.079118237	-4.411700E+01
297	  0.079318643	-4.779000E+00	  0.079318643	-8.896300E+01	  0.079318643	2.543200E+01	  0.079318643	-4.396300E+01
298	  0.079519041	-4.785000E+00	  0.079519041	-8.918200E+01	  0.079519041	2.537300E+01	  0.079519041	-4.380200E+01
299	  0.079719439	-4.786000E+00	  0.079719439	-8.945600E+01	  0.079719439	2.527100E+01	  0.079719439	-4.361900E+01
300	  0.079919845	-4.794000E+00	  0.079919845	-8.969200E+01	  0.079919845	2.521700E+01	  0.079919845	-4.344300E+01
301	  0.080120243	-4.797000E+00	  0.080120243	-8.996600E+01	  0.080120243	2.512300E+01	  0.080120243	-4.325800E+01
302	  0.080320641	-4.799000E+00	  0.080320641	-9.019600E+01	  0.080320641	2.504600E+01	  0.080320641	-4.310200E+01
303	  0.080521047	-4.801000E+00	  0.080521047	-9.050700E+01	  0.080521047	2.493800E+01	  0.080521047	-4.289600E+01
304	  0.080721445	-4.799000E+00	  0.080721445	-9.075800E+01	  0.080721445	2.483500E+01	  0.080721445	-4.273800E+01
305	  0.080921844	-4.800000E+00	  0.080921844	-9.103300E+01	  0.080921844	2.473900E+01	  0.080921844	-4.255700E+01
306	  0.081122249	-4.793000E+00	  0.081122249	-9.131900E+01	  0.081122249	2.460500E+01	  0.081122249	-4.239000E+01
307	  0.081322648	-4.790000E+00	  0.081322648	-9.156700E+01	  0.081322648	2.450500E+01	  0.081322648	-4.223600E+01
308	  0.081523046	-4.786000E+00	  0.081523046	-9.183100E+01	  0.081523046	2.439000E+01	  0.081523046	-4.207700E+01
309	  0.081723452	-4.777000E+00	  0.081723452	-9.206400E+01	  0.081723452	2.427000E+01	  0.081723452	-4.194900E+01
310	  0.081923850	-4.777000E+00	  0.081923850	-9.228000E+01	  0.081923850	2.419500E+01	  0.081923850	-4.181000E+01
311	  0.082124248	-4.774000E+00	  0.082124248	-9.251300E+01	  0.082124248	2.409700E+01	  0.082124248	-4.167000E+01
312	  0.082324654	-4.770000E+00	  0.082324654	-9.271200E+01	  0.082324654	2.401200E+01	  0.082324654	-4.155200E+01
313	  0.082525052	-4.776000E+00	  0.082525052	-9.293300E+01	  0.082525052	2.396200E+01	  0.082525052	-4.139600E+01
314	  0.082725458	-4.773000E+00	  0.082725458	-9.314300E+01	  0.082725458	2.387500E+01	  0.082725458	-4.127000E+01
315	  0.082925856	-4.777000E+00	  0.082925856	-9.336800E+01	  0.082925856	2.381300E+01	  0.082925856	-4.111900E+01
316	  0.083126254	-4.780000E+00	  0.083126254	-9.359700E+01	  0.083126254	2.375000E+01	  0.083126254	-4.096700E+01
317	  0.083326660	-4.783000E+00	  0.083326660	-9.380600E+01	  0.083326660	2.369300E+01	  0.083326660	-4.082900E+01
318	  0.083527058	-4.787000E+00	  0.083527058	-9.403500E+01	  0.083527058	2.363000E+01	  0.083527058	-4.067700E+01
319	  0.083727457	-4.784000E+00	  0.083727457	-9.427400E+01	  0.083727457	2.353900E+01	  0.083727457	-4.053300E+01
320	  0.083927862	-4.781000E+00	  0.083927862	-9.448800E+01	  0.083927862	2.345500E+01	  0.083927862	-4.040600E+01
321	  0.084128261	-4.779000E+00	  0.084128261	-9.472500E+01	  0.084128261	2.337000E+01	  0.084128261	-4.026200E+01
322	  0.084328659	-4.778000E+00	  0.084328659	-9.490100E+01	  0.084328659	2.330500E+01	  0.084328659	-4.015500E+01
323	  0.084529065	-4.780000E+00	  0.084529065	-9.511900E+01	  0.084529065	2.324400E+01	  0.084529065	-4.001400E+01
324	  0.084729463	-4.782000E+00	  0.084729463	-9.531000E+01	  0.084729463	2.318900E+01	  0.084729463	-3.989200E+01
325	  0.084929861	-4.780000E+00	  0.084929861	-9.553500E+01	  0.084929861	2.311000E+01	  0.084929861	-3.975700E+01
326	  0.085130267	-4.783000E+00	  0.085130267	-9.574500E+01	  0.085130267	2.305700E+01	  0.085130267	-3.961900E+01
327	  0.085330658	-4.786000E+00	  0.085330658	-9.593700E+01	  0.085330658	2.300500E+01	  0.085330658	-3.949700E+01
328	  0.085531056	-4.786000E+00	  0.085531056	-9.615000E+01	  0.085531056	2.294000E+01	  0.085531056	-3.936400E+01
329	  0.085731462	-4.791000E+00	  0.085731462	-9.637300E+01	  0.085731462	2.288900E+01	  0.085731462	-3.921700E+01
330	  0.085931860	-4.793000E+00	  0.085931860	-9.657700E+01	  0.085931860	2.283300E+01	  0.085931860	-3.908800E+01
331	  0.086132258	-4.800000E+00	  0.086132258	-9.683000E+01	  0.086132258	2.278400E+01	  0.086132258	-3.891900E+01
332	  0.086332664	-4.802000E+00	  0.086332664	-9.705100E+01	  0.086332664	2.272300E+01	  0.086332664	-3.878000E+01
333	  0.086533062	-4.802000E+00	  0.086533062	-9.730700E+01	  0.086533062	2.264300E+01	  0.086533062	-3.862600E+01
334	  0.086733460	-4.802000E+00	  0.086733460	-9.749900E+01	  0.086733460	2.258600E+01	  0.086733460	-3.850800E+01
335	  0.086933866	-4.800000E+00	  0.086933866	-9.774300E+01	  0.086933866	2.250600E+01	  0.086933866	-3.836400E+01
336	  0.087134264	-4.802000E+00	  0.087134264	-9.795600E+01	  0.087134264	2.244700E+01	  0.087134264	-3.823200E+01
337	  0.087334670	-4.806000E+00	  0.087334670	-9.814700E+01	  0.087334670	2.240700E+01	  0.087334670	-3.810900E+01
338	  0.087535068	-4.809000E+00	  0.087535068	-9.840600E+01	  0.087535068	2.234200E+01	  0.087535068	-3.794700E+01
339	  0.087735467	-4.813000E+00	  0.087735467	-9.863900E+01	  0.087735467	2.229000E+01	  0.087735467	-3.779900E+01
340	  0.087935872	-4.817000E+00	  0.087935872	-9.884800E+01	  0.087935872	2.224200E+01	  0.087935872	-3.766700E+01
341	  0.088136271	-4.824000E+00	  0.088136271	-9.910500E+01	  0.088136271	2.219700E+01	  0.088136271	-3.749900E+01
342	  0.088336669	-4.828000E+00	  0.088336669	-9.934300E+01	  0.088336669	2.214300E+01	  0.088336669	-3.735000E+01
343	  0.088537075	-4.835000E+00	  0.088537075	-9.955900E+01	  0.088537075	2.210900E+01	  0.088537075	-3.720900E+01
344	  0.088737473	-4.842000E+00	  0.088737473	-9.984600E+01	  0.088737473	2.205300E+01	  0.088737473	-3.702600E+01
345	  0.088937871	-4.846000E+00	  0.088937871	-1.000930E+02	  0.088937871	2.199900E+01	  0.088937871	-3.687300E+01
346	  0.089138277	-4.844000E+00	  0.089138277	-1.003970E+02	  0.089138277	2.190400E+01	  0.089138277	-3.669900E+01
347	  0.089338675	-4.847000E+00	  0.089338675	-1.006470E+02	  0.089338675	2.184900E+01	  0.089338675	-3.654500E+01
348	  0.089539073	-4.845000E+00	  0.089539073	-1.009110E+02	  0.089539073	2.176500E+01	  0.089539073	-3.639500E+01
349	  0.089739479	-4.842000E+00	  0.089739479	-1.011500E+02	  0.089739479	2.168700E+01	  0.089739479	-3.626100E+01
350	  0.089939877	-4.844000E+00	  0.089939877	-1.014070E+02	  0.089939877	2.162500E+01	  0.089939877	-3.610700E+01
351	  0.090140276	-4.836000E+00	  0.090140276	-1.016650E+02	  0.090140276	2.152600E+01	  0.090140276	-3.597100E+01
352	  0.090340681	-4.841000E+00	  0.090340681	-1.018850E+02	  0.090340681	2.148600E+01	  0.090340681	-3.583500E+01
353	  0.090541080	-4.837000E+00	  0.090541080	-1.021300E+02	  0.090541080	2.140300E+01	  0.090541080	-3.570000E+01
354	  0.090741485	-4.844000E+00	  0.090741485	-1.023510E+02	  0.090741485	2.137200E+01	  0.090741485	-3.556000E+01
355	  0.090941884	-4.839000E+00	  0.090941884	-1.025700E+02	  0.090941884	2.129400E+01	  0.090941884	-3.544300E+01
356	  0.091142282	-4.837000E+00	  0.091142282	-1.028100E+02	  0.091142282	2.122500E+01	  0.091142282	-3.530700E+01
357	  0.091342688	-4.844000E+00	  0.091342688	-1.030420E+02	  0.091342688	2.119100E+01	  0.091342688	-3.516200E+01
358	  0.091543086	-4.840000E+00	  0.091543086	-1.032870E+02	  0.091543086	2.111300E+01	  0.091543086	-3.502800E+01
359	  0.091743484	-4.843000E+00	  0.091743484	-1.035080E+02	  0.091743484	2.106500E+01	  0.091743484	-3.489800E+01
360	  0.091943890	-4.836000E+00	  0.091943890	-1.037360E+02	  0.091943890	2.098200E+01	  0.091943890	-3.477800E+01
361	  0.092144288	-4.842000E+00	  0.092144288	-1.039540E+02	  0.092144288	2.094900E+01	  0.092144288	-3.464400E+01
362	  0.092344686	-4.832000E+00	  0.092344686	-1.041380E+02	  0.092344686	2.086500E+01	  0.092344686	-3.455600E+01
363	  0.092545092	-4.836000E+00	  0.092545092	-1.043590E+02	  0.092545092	2.082300E+01	  0.092545092	-3.442500E+01
364	  0.092745490	-4.835000E+00	  0.092745490	-1.045760E+02	  0.092745490	2.076600E+01	  0.092745490	-3.430300E+01
365	  0.092945889	-4.839000E+00	  0.092945889	-1.047710E+02	  0.092945889	2.073500E+01	  0.092945889	-3.418500E+01
366	  0.093146294	-4.839000E+00	  0.093146294	-1.049780E+02	  0.093146294	2.068100E+01	  0.093146294	-3.406900E+01
367	  0.093346693	-4.847000E+00	  0.093346693	-1.051930E+02	  0.093346693	2.065700E+01	  0.093346693	-3.393500E+01
368	  0.093547091	-4.851000E+00	  0.093547091	-1.054480E+02	  0.093547091	2.061200E+01	  0.093547091	-3.378500E+01
369	  0.093747497	-4.859000E+00	  0.093747497	-1.056300E+02	  0.093747497	2.059700E+01	  0.093747497	-3.367000E+01
370	  0.093947895	-4.868000E+00	  0.093947895	-1.059260E+02	  0.093947895	2.056000E+01	  0.093947895	-3.349000E+01
371	  0.094148301	-4.875000E+00	  0.094148301	-1.061310E+02	  0.094148301	2.053600E+01	  0.094148301	-3.336500E+01
372	  0.094348699	-4.877000E+00	  0.094348699	-1.064180E+02	  0.094348699	2.047300E+01	  0.094348699	-3.320300E+01
373	  0.094549097	-4.877000E+00	  0.094549097	-1.066650E+02	  0.094549097	2.041500E+01	  0.094549097	-3.306500E+01
374	  0.094749503	-4.881000E+00	  0.094749503	-1.069830E+02	  0.094749503	2.035600E+01	  0.094749503	-3.288200E+01
375	  0.094949901	-4.882000E+00	  0.094949901	-1.072280E+02	  0.094949901	2.030300E+01	  0.094949901	-3.274600E+01
376	  0.095150299	-4.886000E+00	  0.095150299	-1.075120E+02	  0.095150299	2.025300E+01	  0.095150299	-3.258300E+01
377	  0.095350705	-4.882000E+00	  0.095350705	-1.077750E+02	  0.095350705	2.017700E+01	  0.095350705	-3.244500E+01
378	  0.095551103	-4.883000E+00	  0.095551103	-1.080340E+02	  0.095551103	2.012300E+01	  0.095551103	-3.230100E+01
379	  0.095751502	-4.879000E+00	  0.095751502	-1.083280E+02	  0.095751502	2.004100E+01	  0.095751502	-3.214600E+01
380	  0.095951907	-4.876000E+00	  0.095951907	-1.085810E+02	  0.095951907	1.997400E+01	  0.095951907	-3.201200E+01
381	  0.096152306	-4.879000E+00	  0.096152306	-1.088300E+02	  0.096152306	1.992800E+01	  0.096152306	-3.187300E+01
382	  0.096352704	-4.874000E+00	  0.096352704	-1.090640E+02	  0.096352704	1.985900E+01	  0.096352704	-3.175300E+01
383	  0.096553110	-4.876000E+00	  0.096553110	-1.093370E+02	  0.096553110	1.980400E+01	  0.096553110	-3.160200E+01
384	  0.096753508	-4.870000E+00	  0.096753508	-1.095790E+02	  0.096753508	1.973000E+01	  0.096753508	-3.148000E+01
385	  0.096953906	-4.868000E+00	  0.096953906	-1.098320E+02	  0.096953906	1.967000E+01	  0.096953906	-3.134500E+01
386	  0.097154312	-4.860000E+00	  0.097154312	-1.100530E+02	  0.097154312	1.959300E+01	  0.097154312	-3.123800E+01
387	  0.097354710	-4.857000E+00	  0.097354710	-1.103020E+02	  0.097354710	1.953100E+01	  0.097354710	-3.110600E+01
388	  0.097555116	-4.854000E+00	  0.097555116	-1.105240E+02	  0.097555116	1.947300E+01	  0.097555116	-3.099200E+01
389	  0.097755514	-4.851000E+00	  0.097755514	-1.107120E+02	  0.097755514	1.942300E+01	  0.097755514	-3.089500E+01
390	  0.097955912	-4.847000E+00	  0.097955912	-1.109040E+02	  0.097955912	1.936700E+01	  0.097955912	-3.079800E+01
391	  0.098156318	-4.844000E+00	  0.098156318	-1.111260E+02	  0.098156318	1.931100E+01	  0.098156318	-3.068300E+01
392	  0.098356716	-4.843000E+00	  0.098356716	-1.113070E+02	  0.098356716	1.927300E+01	  0.098356716	-3.058600E+01
393	  0.098557115	-4.843000E+00	  0.098557115	-1.114850E+02	  0.098557115	1.923500E+01	  0.098557115	-3.049200E+01
394	  0.098757520	-4.847000E+00	  0.098757520	-1.116680E+02	  0.098757520	1.921100E+01	  0.098757520	-3.038800E+01
395	  0.098957919	-4.847000E+00	  0.098957919	-1.118530E+02	  0.098957919	1.917400E+01	  0.098957919	-3.029000E+01
396	  0.099158317	-4.857000E+00	  0.099158317	-1.120850E+02	  0.099158317	1.916100E+01	  0.099158317	-3.015400E+01
397	  0.099358723	-4.857000E+00	  0.099358723	-1.122750E+02	  0.099358723	1.912500E+01	  0.099358723	-3.005200E+01
398	  0.099559121	-4.867000E+00	  0.099559121	-1.124990E+02	  0.099559121	1.911200E+01	  0.099559121	-2.992200E+01
399	  0.099759519	-4.870000E+00	  0.099759519	-1.127150E+02	  0.099759519	1.908200E+01	  0.099759519	-2.980200E+01
400	  0.099959925	-4.873000E+00	  0.099959925	-1.129730E+02	  0.099959925	1.904000E+01	  0.099959925	-2.966300E+01
401	  0.100160323	-4.875000E+00	  0.100160323	-1.132390E+02	  0.100160323	1.899400E+01	  0.100160323	-2.952100E+01
402	  0.100360721	-4.878000E+00	  0.100360721	-1.134670E+02	  0.100360721	1.896100E+01	  0.100360721	-2.939700E+01
403	  0.100561127	-4.891000E+00	  0.100561127	-1.137130E+02	  0.100561127	1.895700E+01	  0.100561127	-2.925200E+01
404	  0.100761525	-4.893000E+00	  0.100761525	-1.139420E+02	  0.100761525	1.892200E+01	  0.100761525	-2.912900E+01
405	  0.100961931	-4.888000E+00	  0.100961931	-1.141750E+02	  0.100961931	1.886000E+01	  0.100961931	-2.901400E+01
406	  0.101162329	-4.894000E+00	  0.101162329	-1.144360E+02	  0.101162329	1.883100E+01	  0.101162329	-2.887000E+01
407	  0.101362728	-4.891000E+00	  0.101362728	-1.147240E+02	  0.101362728	1.876400E+01	  0.101362728	-2.872500E+01
408	  0.101563133	-4.897000E+00	  0.101563133	-1.149570E+02	  0.101563133	1.874300E+01	  0.101563133	-2.859600E+01
409	  0.101763532	-4.894000E+00	  0.101763532	-1.152380E+02	  0.101763532	1.868000E+01	  0.101763532	-2.845500E+01
410	  0.101963930	-4.905000E+00	  0.101963930	-1.155270E+02	  0.101963930	1.866400E+01	  0.101963930	-2.829200E+01
411	  0.102164336	-4.900000E+00	  0.102164336	-1.157250E+02	  0.102164336	1.860900E+01	  0.102164336	-2.819700E+01
412	  0.102364734	-4.894000E+00	  0.102364734	-1.159920E+02	  0.102364734	1.854100E+01	  0.102364734	-2.806600E+01
413	  0.102565132	-4.893000E+00	  0.102565132	-1.163110E+02	  0.102565132	1.847900E+01	  0.102565132	-2.790400E+01
414	  0.102765530	-4.884000E+00	  0.102765530	-1.165190E+02	  0.102765530	1.841100E+01	  0.102765530	-2.780800E+01
415	  0.102965929	-4.884000E+00	  0.102965929	-1.167670E+02	  0.102965929	1.836900E+01	  0.102965929	-2.768100E+01
416	  0.103166327	-4.879000E+00	  0.103166327	-1.169820E+02	  0.103166327	1.831300E+01	  0.103166327	-2.757700E+01
417	  0.103366733	-4.875000E+00	  0.103366733	-1.172400E+02	  0.103366733	1.825300E+01	  0.103366733	-2.745100E+01
418	  0.103567131	-4.881000E+00	  0.103567131	-1.174260E+02	  0.103567131	1.824300E+01	  0.103567131	-2.734800E+01
419	  0.103767529	-4.879000E+00	  0.103767529	-1.176460E+02	  0.103767529	1.819700E+01	  0.103767529	-2.723900E+01
420	  0.103967935	-4.872000E+00	  0.103967935	-1.178430E+02	  0.103967935	1.813900E+01	  0.103967935	-2.714700E+01
421	  0.104168333	-4.879000E+00	  0.104168333	-1.180550E+02	  0.104168333	1.812800E+01	  0.104168333	-2.703100E+01
422	  0.104368731	-4.874000E+00	  0.104368731	-1.182480E+02	  0.104368731	1.807700E+01	  0.104368731	-2.693900E+01
423	  0.104569137	-4.870000E+00	  0.104569137	-1.184750E+02	  0.104569137	1.802500E+01	  0.104569137	-2.682900E+01
424	  0.104769535	-4.882000E+00	  0.104769535	-1.186760E+02	  0.104769535	1.803100E+01	  0.104769535	-2.671500E+01
425	  0.104969934	-4.875000E+00	  0.104969934	-1.188470E+02	  0.104969934	1.798000E+01	  0.104969934	-2.663600E+01
426	  0.105170339	-4.880000E+00	  0.105170339	-1.191030E+02	  0.105170339	1.795400E+01	  0.105170339	-2.650100E+01
427	  0.105370738	-4.880000E+00	  0.105370738	-1.193330E+02	  0.105370738	1.791600E+01	  0.105370738	-2.638500E+01
428	  0.105571143	-4.889000E+00	  0.105571143	-1.195910E+02	  0.105571143	1.790400E+01	  0.105571143	-2.624600E+01
429	  0.105771542	-4.883000E+00	  0.105771542	-1.197620E+02	  0.105771542	1.785500E+01	  0.105771542	-2.616800E+01
430	  0.105971940	-4.894000E+00	  0.105971940	-1.199730E+02	  0.105971940	1.785700E+01	  0.105971940	-2.605000E+01
431	  0.106172346	-4.890000E+00	  0.106172346	-1.202020E+02	  0.106172346	1.780500E+01	  0.106172346	-2.594100E+01
432	  0.106372744	-4.890000E+00	  0.106372744	-1.204380E+02	  0.106372744	1.776800E+01	  0.106372744	-2.582300E+01
433	  0.106573142	-4.892000E+00	  0.106573142	-1.205980E+02	  0.106573142	1.775000E+01	  0.106573142	-2.574100E+01
434	  0.106773548	-4.902000E+00	  0.106773548	-1.208620E+02	  0.106773548	1.773900E+01	  0.106773548	-2.560000E+01
435	  0.106973946	-4.893000E+00	  0.106973946	-1.210740E+02	  0.106973946	1.767900E+01	  0.106973946	-2.550400E+01
436	  0.107174344	-4.911000E+00	  0.107174344	-1.212960E+02	  0.107174344	1.770200E+01	  0.107174344	-2.537600E+01
437	  0.107374750	-4.909000E+00	  0.107374750	-1.215760E+02	  0.107374750	1.765100E+01	  0.107374750	-2.523900E+01
438	  0.107575148	-4.907000E+00	  0.107575148	-1.218470E+02	  0.107575148	1.760400E+01	  0.107575148	-2.510800E+01
439	  0.107775547	-4.901000E+00	  0.107775547	-1.219950E+02	  0.107775547	1.756000E+01	  0.107775547	-2.504200E+01
440	  0.107975952	-4.912000E+00	  0.107975952	-1.222870E+02	  0.107975952	1.755300E+01	  0.107975952	-2.488700E+01
441	  0.108176351	-4.911000E+00	  0.108176351	-1.225130E+02	  0.108176351	1.751300E+01	  0.108176351	-2.477700E+01
442	  0.108376749	-4.914000E+00	  0.108376749	-1.227640E+02	  0.108376749	1.748600E+01	  0.108376749	-2.465100E+01
443	  0.108577155	-4.910000E+00	  0.108577155	-1.229890E+02	  0.108577155	1.743900E+01	  0.108577155	-2.454500E+01
444	  0.108777553	-4.924000E+00	  0.108777553	-1.232590E+02	  0.108777553	1.744200E+01	  0.108777553	-2.440000E+01
445	  0.108977959	-4.921000E+00	  0.108977959	-1.234330E+02	  0.108977959	1.740900E+01	  0.108977959	-2.431800E+01
446	  0.109178357	-4.921000E+00	  0.109178357	-1.236590E+02	  0.109178357	1.737600E+01	  0.109178357	-2.420800E+01
447	  0.109378755	-4.922000E+00	  0.109378755	-1.239430E+02	  0.109378755	1.733700E+01	  0.109378755	-2.406900E+01
448	  0.109579161	-4.927000E+00	  0.109579161	-1.241810E+02	  0.109579161	1.731900E+01	  0.109579161	-2.394900E+01
449	  0.109779559	-4.927000E+00	  0.109779559	-1.243780E+02	  0.109779559	1.728900E+01	  0.109779559	-2.385400E+01
450	  0.109979957	-4.929000E+00	  0.109979957	-1.246390E+02	  0.109979957	1.725800E+01	  0.109979957	-2.372600E+01
451	  0.110180363	-4.925000E+00	  0.110180363	-1.249040E+02	  0.110180363	1.720700E+01	  0.110180363	-2.360200E+01
452	  0.110380761	-4.933000E+00	  0.110380761	-1.251120E+02	  0.110380761	1.720400E+01	  0.110380761	-2.349400E+01
453	  0.110581160	-4.934000E+00	  0.110581160	-1.253760E+02	  0.110581160	1.717100E+01	  0.110581160	-2.336600E+01
454	  0.110781565	-4.935000E+00	  0.110781565	-1.256290E+02	  0.110781565	1.713800E+01	  0.110781565	-2.324400E+01
455	  0.110981964	-4.934000E+00	  0.110981964	-1.259000E+02	  0.110981964	1.709600E+01	  0.110981964	-2.311600E+01
456	  0.111182362	-4.931000E+00	  0.111182362	-1.261520E+02	  0.111182362	1.705200E+01	  0.111182362	-2.299800E+01
457	  0.111382768	-4.931000E+00	  0.111382768	-1.263710E+02	  0.111382768	1.702300E+01	  0.111382768	-2.289300E+01
458	  0.111583166	-4.931000E+00	  0.111583166	-1.265940E+02	  0.111583166	1.699400E+01	  0.111583166	-2.278600E+01
459	  0.111783572	-4.931000E+00	  0.111783572	-1.268510E+02	  0.111783572	1.696000E+01	  0.111783572	-2.266400E+01
460	  0.111983970	-4.934000E+00	  0.111983970	-1.270580E+02	  0.111983970	1.694000E+01	  0.111983970	-2.256300E+01
461	  0.112184368	-4.930000E+00	  0.112184368	-1.272930E+02	  0.112184368	1.689600E+01	  0.112184368	-2.245500E+01
462	  0.112384774	-4.934000E+00	  0.112384774	-1.275610E+02	  0.112384774	1.687400E+01	  0.112384774	-2.232400E+01
463	  0.112585172	-4.934000E+00	  0.112585172	-1.277850E+02	  0.112585172	1.684600E+01	  0.112585172	-2.221800E+01
464	  0.112785570	-4.930000E+00	  0.112785570	-1.280100E+02	  0.112785570	1.680100E+01	  0.112785570	-2.211600E+01
465	  0.112985976	-4.931000E+00	  0.112985976	-1.282660E+02	  0.112985976	1.677400E+01	  0.112985976	-2.199400E+01
466	  0.113186374	-4.932000E+00	  0.113186374	-1.284820E+02	  0.113186374	1.674700E+01	  0.113186374	-2.189200E+01
467	  0.113386773	-4.941000E+00	  0.113386773	-1.287360E+02	  0.113386773	1.674500E+01	  0.113386773	-2.176400E+01
468	  0.113587178	-4.941000E+00	  0.113587178	-1.289500E+02	  0.113587178	1.671700E+01	  0.113587178	-2.166400E+01
469	  0.113787577	-4.942000E+00	  0.113787577	-1.291660E+02	  0.113787577	1.669200E+01	  0.113787577	-2.156100E+01
470	  0.113987975	-4.945000E+00	  0.113987975	-1.294200E+02	  0.113987975	1.667100E+01	  0.113987975	-2.144000E+01
471	  0.114188381	-4.941000E+00	  0.114188381	-1.296760E+02	  0.114188381	1.662700E+01	  0.114188381	-2.132300E+01
472	  0.114388779	-4.949000E+00	  0.114388779	-1.298620E+02	  0.114388779	1.662900E+01	  0.114388779	-2.122900E+01
473	  0.114589177	-4.954000E+00	  0.114589177	-1.301060E+02	  0.114589177	1.661200E+01	  0.114589177	-2.111200E+01
474	  0.114789583	-4.954000E+00	  0.114789583	-1.303470E+02	  0.114789583	1.658300E+01	  0.114789583	-2.100000E+01
475	  0.114989981	-4.960000E+00	  0.114989981	-1.306060E+02	  0.114989981	1.657000E+01	  0.114989981	-2.087500E+01
476	  0.115190387	-4.956000E+00	  0.115190387	-1.308520E+02	  0.115190387	1.652900E+01	  0.115190387	-2.076400E+01
477	  0.115390785	-4.964000E+00	  0.115390785	-1.310990E+02	  0.115390785	1.652300E+01	  0.115390785	-2.064300E+01
478	  0.115591183	-4.962000E+00	  0.115591183	-1.313460E+02	  0.115591183	1.648700E+01	  0.115591183	-2.053100E+01
479	  0.115791589	-4.962000E+00	  0.115791589	-1.316130E+02	  0.115791589	1.645500E+01	  0.115791589	-2.040700E+01
480	  0.115991987	-4.967000E+00	  0.115991987	-1.318460E+02	  0.115991987	1.644400E+01	  0.115991987	-2.029600E+01
481	  0.116192386	-4.973000E+00	  0.116192386	-1.321220E+02	  0.116192386	1.643000E+01	  0.116192386	-2.016400E+01
482	  0.116392791	-4.967000E+00	  0.116392791	-1.323740E+02	  0.116392791	1.638400E+01	  0.116392791	-2.005200E+01
483	  0.116593190	-4.968000E+00	  0.116593190	-1.326180E+02	  0.116593190	1.635900E+01	  0.116593190	-1.994000E+01
484	  0.116793588	-4.963000E+00	  0.116793588	-1.328860E+02	  0.116793588	1.631400E+01	  0.116793588	-1.982000E+01
485	  0.116993994	-4.964000E+00	  0.116993994	-1.331400E+02	  0.116993994	1.628700E+01	  0.116993994	-1.970300E+01
486	  0.117194392	-4.960000E+00	  0.117194392	-1.333670E+02	  0.117194392	1.625000E+01	  0.117194392	-1.960200E+01
487	  0.117394790	-4.955000E+00	  0.117394790	-1.336090E+02	  0.117394790	1.620900E+01	  0.117394790	-1.949500E+01
488	  0.117595196	-4.957000E+00	  0.117595196	-1.338860E+02	  0.117595196	1.618400E+01	  0.117595196	-1.936700E+01
489	  0.117795594	-4.954000E+00	  0.117795594	-1.340940E+02	  0.117795594	1.615300E+01	  0.117795594	-1.927500E+01
490	  0.117995992	-4.949000E+00	  0.117995992	-1.343170E+02	  0.117995992	1.611200E+01	  0.117995992	-1.917700E+01
491	  0.118196398	-4.950000E+00	  0.118196398	-1.345340E+02	  0.118196398	1.609400E+01	  0.118196398	-1.907700E+01
492	  0.118396796	-4.939000E+00	  0.118396796	-1.347780E+02	  0.118396796	1.603300E+01	  0.118396796	-1.897400E+01
493	  0.118597202	-4.950000E+00	  0.118597202	-1.349780E+02	  0.118597202	1.604500E+01	  0.118597202	-1.887600E+01
494	  0.118797600	-4.944000E+00	  0.118797600	-1.351970E+02	  0.118797600	1.600600E+01	  0.118797600	-1.878100E+01
495	  0.118997999	-4.949000E+00	  0.118997999	-1.354250E+02	  0.118997999	1.599400E+01	  0.118997999	-1.867400E+01
496	  0.119198404	-4.945000E+00	  0.119198404	-1.356470E+02	  0.119198404	1.596000E+01	  0.119198404	-1.857600E+01
497	  0.119398803	-4.940000E+00	  0.119398803	-1.358280E+02	  0.119398803	1.592800E+01	  0.119398803	-1.849800E+01
498	  0.119599201	-4.948000E+00	  0.119599201	-1.360580E+02	  0.119599201	1.592900E+01	  0.119599201	-1.838900E+01
499	  0.119799607	-4.944000E+00	  0.119799607	-1.363210E+02	  0.119799607	1.588900E+01	  0.119799607	-1.827300E+01
500	  0.120000005	-4.959000E+00	  0.120000005	-1.364950E+02	  0.120000005	1.591500E+01	  0.120000005	-1.818400E+01
