! Anritsu VNA Master:             	Model: MS2036C/10/77
! SN:             	1601066
! /bd0/18may26.balun/4a.r20.txt
! Existing Calibration Information:
! TYPE:             	Current Settings	Active Cal Settings
! TIME:             	05/26/2018 03:05:59 PM	05/26/2018 02:51:55 PM
! INTERNAL TEMP:    	59.3 C	59.5 C
! # POINTS:         	500	500
! START FREQ:       	20.000 MHz	20.000 MHz
! STOP FREQ:        	120.000 MHz	120.000 MHz
! SOURCE POWER:     	High	High
! IFBW:             	50 Hz	50 Hz
! AVG FACTOR:       	  1 	  1 
! REF PLANE 1:      	0 mm	0 mm
! REF PLANE 2:      	0 mm	0 mm
! CAL TYPE:         	Full S11	Full S11
! CAL METHOD:       	SOLT	SOLT
! CAL LINE TYPE:    	Coax	Coax
! DUT PORT 1:       	K-Conn(M)	K-Conn(M)
! DUT PORT 2:       	K-Conn(M)	K-Conn(M)
! CAL STATUS:       	OK: Accuracy High	--
! PROP-V:       	0.700
! CABLE LOSS:       	0.000 dB/m
! REF IMPEDANCE:       	50.0
! Trace Specific Parameters:	TR1	TR2	TR3	TR4
! TRACE.#.Y (GRAPH TYPE)	LOG MAG	PHASE	REAL IMPEDANCE	IMAGINARY IMPEDANCE
! TRACE.#.X 	FREQ.GHZ	FREQ.GHZ	FREQ.GHZ	FREQ.GHZ
! S-PARAMETER	S11	S11	S11	S11
! SMOOTH/APERTURE %	0	0	0	0
! WINDOW	NSL	NSL	NSL	NSL
! GATING	OFF	OFF	OFF	OFF
! FGTD	OFF	OFF	OFF	OFF
Marker Information per Trace:	TR1	TR2	TR3	TR4
!MK1	--	--	--	--
!MK2	--	--	--	--
!MK3	--	--	--	--
!MK4	--	--	--	--
!MK5	--	--	--	--
!MK6	--	--	--	--
!MK7	--	--	--	--
!MK8	--	--	--	--
PNT	TR1.FREQ.GHZ	TR1.LOG MAG.dB	TR2.FREQ.GHZ	TR2.PHASE.deg	TR3.FREQ.GHZ	TR3.REAL IMPEDANCE.ohm	TR4.FREQ.GHZ	TR4.IMAGINARY IMPEDANCE.ohm
1	  0.020000000	-7.295000E+00	  0.020000000	1.543710E+02	  0.020000000	2.070200E+01	  0.020000000	9.503000E+00
2	  0.020200402	-7.294000E+00	  0.020200402	1.541210E+02	  0.020200402	2.071700E+01	  0.020200402	9.598000E+00
3	  0.020400802	-7.296000E+00	  0.020400802	1.538860E+02	  0.020400802	2.073900E+01	  0.020400802	9.686000E+00
4	  0.020601204	-7.295000E+00	  0.020601204	1.535930E+02	  0.020601204	2.075600E+01	  0.020601204	9.797000E+00
5	  0.020801604	-7.292000E+00	  0.020801604	1.533500E+02	  0.020801604	2.076800E+01	  0.020801604	9.890000E+00
6	  0.021002004	-7.288000E+00	  0.021002004	1.530930E+02	  0.021002004	2.077600E+01	  0.021002004	9.989000E+00
7	  0.021202406	-7.290000E+00	  0.021202406	1.528250E+02	  0.021202406	2.079900E+01	  0.021202406	1.009000E+01
8	  0.021402806	-7.293000E+00	  0.021402806	1.525610E+02	  0.021402806	2.082600E+01	  0.021402806	1.018900E+01
9	  0.021603208	-7.294000E+00	  0.021603208	1.523090E+02	  0.021603208	2.084800E+01	  0.021603208	1.028300E+01
10	  0.021803608	-7.298000E+00	  0.021803608	1.520550E+02	  0.021803608	2.087600E+01	  0.021803608	1.037800E+01
11	  0.022004008	-7.304000E+00	  0.022004008	1.517980E+02	  0.022004008	2.091000E+01	  0.022004008	1.047200E+01
12	  0.022204408	-7.302000E+00	  0.022204408	1.515560E+02	  0.022204408	2.092600E+01	  0.022204408	1.056500E+01
13	  0.022404809	-7.301000E+00	  0.022404809	1.512790E+02	  0.022404809	2.094300E+01	  0.022404809	1.067100E+01
14	  0.022605211	-7.305000E+00	  0.022605211	1.510390E+02	  0.022605211	2.097300E+01	  0.022605211	1.076000E+01
15	  0.022805611	-7.308000E+00	  0.022805611	1.507540E+02	  0.022805611	2.100300E+01	  0.022805611	1.086600E+01
16	  0.023006011	-7.306000E+00	  0.023006011	1.505180E+02	  0.023006011	2.101700E+01	  0.023006011	1.095700E+01
17	  0.023206413	-7.301000E+00	  0.023206413	1.502290E+02	  0.023206413	2.102700E+01	  0.023206413	1.107000E+01
18	  0.023406813	-7.299000E+00	  0.023406813	1.499660E+02	  0.023406813	2.104500E+01	  0.023406813	1.117100E+01
19	  0.023607215	-7.296000E+00	  0.023607215	1.496550E+02	  0.023607215	2.106100E+01	  0.023607215	1.129100E+01
20	  0.023807615	-7.293000E+00	  0.023807615	1.494090E+02	  0.023807615	2.107600E+01	  0.023807615	1.138600E+01
21	  0.024008015	-7.292000E+00	  0.024008015	1.491480E+02	  0.024008015	2.109500E+01	  0.024008015	1.148700E+01
22	  0.024208417	-7.290000E+00	  0.024208417	1.489300E+02	  0.024208417	2.110800E+01	  0.024208417	1.157100E+01
23	  0.024408817	-7.292000E+00	  0.024408817	1.486980E+02	  0.024408817	2.113300E+01	  0.024408817	1.165900E+01
24	  0.024609219	-7.296000E+00	  0.024609219	1.484800E+02	  0.024609219	2.116300E+01	  0.024609219	1.173900E+01
25	  0.024809619	-7.295000E+00	  0.024809619	1.482630E+02	  0.024809619	2.117900E+01	  0.024809619	1.182300E+01
26	  0.025010020	-7.296000E+00	  0.025010020	1.480420E+02	  0.025010020	2.119900E+01	  0.025010020	1.190700E+01
27	  0.025210422	-7.301000E+00	  0.025210422	1.477900E+02	  0.025210422	2.123500E+01	  0.025210422	1.200100E+01
28	  0.025410822	-7.305000E+00	  0.025410822	1.475210E+02	  0.025410822	2.127000E+01	  0.025410822	1.210100E+01
29	  0.025611224	-7.310000E+00	  0.025611224	1.472810E+02	  0.025611224	2.130400E+01	  0.025611224	1.219000E+01
30	  0.025811624	-7.305000E+00	  0.025811624	1.470020E+02	  0.025811624	2.131700E+01	  0.025811624	1.230000E+01
31	  0.026012026	-7.304000E+00	  0.026012026	1.467180E+02	  0.026012026	2.134100E+01	  0.026012026	1.240900E+01
32	  0.026212426	-7.300000E+00	  0.026212426	1.464530E+02	  0.026212426	2.135500E+01	  0.026212426	1.251400E+01
33	  0.026412826	-7.302000E+00	  0.026412826	1.461790E+02	  0.026412826	2.138500E+01	  0.026412826	1.261800E+01
34	  0.026613226	-7.301000E+00	  0.026613226	1.459290E+02	  0.026613226	2.140700E+01	  0.026613226	1.271400E+01
35	  0.026813626	-7.300000E+00	  0.026813626	1.457090E+02	  0.026813626	2.142400E+01	  0.026813626	1.280000E+01
36	  0.027014028	-7.303000E+00	  0.027014028	1.454680E+02	  0.027014028	2.145500E+01	  0.027014028	1.289100E+01
37	  0.027214428	-7.306000E+00	  0.027214428	1.452760E+02	  0.027214428	2.148100E+01	  0.027214428	1.296300E+01
38	  0.027414829	-7.304000E+00	  0.027414829	1.450570E+02	  0.027414829	2.149900E+01	  0.027414829	1.304800E+01
39	  0.027615231	-7.310000E+00	  0.027615231	1.448190E+02	  0.027615231	2.153600E+01	  0.027615231	1.313600E+01
40	  0.027815631	-7.314000E+00	  0.027815631	1.445500E+02	  0.027815631	2.157400E+01	  0.027815631	1.323700E+01
41	  0.028016033	-7.318000E+00	  0.028016033	1.442570E+02	  0.028016033	2.161200E+01	  0.028016033	1.334800E+01
42	  0.028216433	-7.321000E+00	  0.028216433	1.439610E+02	  0.028216433	2.165000E+01	  0.028216433	1.346000E+01
43	  0.028416833	-7.320000E+00	  0.028416833	1.436590E+02	  0.028416833	2.168000E+01	  0.028416833	1.357700E+01
44	  0.028617235	-7.321000E+00	  0.028617235	1.433700E+02	  0.028617235	2.171100E+01	  0.028617235	1.368900E+01
45	  0.028817635	-7.319000E+00	  0.028817635	1.430630E+02	  0.028817635	2.173900E+01	  0.028817635	1.380800E+01
46	  0.029018037	-7.315000E+00	  0.029018037	1.427740E+02	  0.029018037	2.175800E+01	  0.029018037	1.392300E+01
47	  0.029218437	-7.313000E+00	  0.029218437	1.424890E+02	  0.029218437	2.178500E+01	  0.029218437	1.403500E+01
48	  0.029418837	-7.308000E+00	  0.029418837	1.422400E+02	  0.029418837	2.179700E+01	  0.029418837	1.413500E+01
49	  0.029619239	-7.301000E+00	  0.029619239	1.420220E+02	  0.029619239	2.180200E+01	  0.029619239	1.422500E+01
50	  0.029819639	-7.296000E+00	  0.029819639	1.418100E+02	  0.029819639	2.181200E+01	  0.029819639	1.431100E+01
51	  0.030020041	-7.293000E+00	  0.030020041	1.416280E+02	  0.030020041	2.182500E+01	  0.030020041	1.438400E+01
52	  0.030220442	-7.291000E+00	  0.030220442	1.414240E+02	  0.030220442	2.184200E+01	  0.030220442	1.446500E+01
53	  0.030420844	-7.295000E+00	  0.030420844	1.412390E+02	  0.030420844	2.187500E+01	  0.030420844	1.453400E+01
54	  0.030621244	-7.301000E+00	  0.030621244	1.410150E+02	  0.030621244	2.191500E+01	  0.030621244	1.461600E+01
55	  0.030821644	-7.309000E+00	  0.030821644	1.407500E+02	  0.030821644	2.196500E+01	  0.030821644	1.471400E+01
56	  0.031022044	-7.310000E+00	  0.031022044	1.404740E+02	  0.031022044	2.200000E+01	  0.031022044	1.482100E+01
57	  0.031222444	-7.301000E+00	  0.031222444	1.402190E+02	  0.031222444	2.200500E+01	  0.031222444	1.492700E+01
58	  0.031422846	-7.304000E+00	  0.031422846	1.399400E+02	  0.031422846	2.204500E+01	  0.031422846	1.503400E+01
59	  0.031623244	-7.308000E+00	  0.031623244	1.396480E+02	  0.031623244	2.208900E+01	  0.031623244	1.514500E+01
60	  0.031823646	-7.305000E+00	  0.031823646	1.394010E+02	  0.031823646	2.211000E+01	  0.031823646	1.524400E+01
61	  0.032024048	-7.304000E+00	  0.032024048	1.391120E+02	  0.032024048	2.214200E+01	  0.032024048	1.535800E+01
62	  0.032224450	-7.298000E+00	  0.032224450	1.388380E+02	  0.032224450	2.215800E+01	  0.032224450	1.547000E+01
63	  0.032424849	-7.292000E+00	  0.032424849	1.386150E+02	  0.032424849	2.216900E+01	  0.032424849	1.556300E+01
64	  0.032625251	-7.288000E+00	  0.032625251	1.383580E+02	  0.032625251	2.218900E+01	  0.032625251	1.566700E+01
65	  0.032825653	-7.288000E+00	  0.032825653	1.381020E+02	  0.032825653	2.222000E+01	  0.032825653	1.576800E+01
66	  0.033026051	-7.289000E+00	  0.033026051	1.378730E+02	  0.033026051	2.225200E+01	  0.033026051	1.585700E+01
67	  0.033226453	-7.292000E+00	  0.033226453	1.376160E+02	  0.033226453	2.229100E+01	  0.033226453	1.595600E+01
68	  0.033426855	-7.294000E+00	  0.033426855	1.373460E+02	  0.033426855	2.233000E+01	  0.033426855	1.606100E+01
69	  0.033627257	-7.298000E+00	  0.033627257	1.370850E+02	  0.033627257	2.237400E+01	  0.033627257	1.616000E+01
70	  0.033827655	-7.300000E+00	  0.033827655	1.367750E+02	  0.033827655	2.241800E+01	  0.033827655	1.628100E+01
71	  0.034028057	-7.300000E+00	  0.034028057	1.364760E+02	  0.034028057	2.245600E+01	  0.034028057	1.639900E+01
72	  0.034228459	-7.303000E+00	  0.034228459	1.361790E+02	  0.034228459	2.250300E+01	  0.034228459	1.651400E+01
73	  0.034428857	-7.302000E+00	  0.034428857	1.359110E+02	  0.034428857	2.253400E+01	  0.034428857	1.662100E+01
74	  0.034629259	-7.300000E+00	  0.034629259	1.356520E+02	  0.034629259	2.256500E+01	  0.034629259	1.672500E+01
75	  0.034829661	-7.292000E+00	  0.034829661	1.354010E+02	  0.034829661	2.257700E+01	  0.034829661	1.683200E+01
76	  0.035030060	-7.281000E+00	  0.035030060	1.351370E+02	  0.035030060	2.258200E+01	  0.035030060	1.694600E+01
77	  0.035230462	-7.274000E+00	  0.035230462	1.349080E+02	  0.035230462	2.259300E+01	  0.035230462	1.704400E+01
78	  0.035430863	-7.261000E+00	  0.035430863	1.346830E+02	  0.035430863	2.259200E+01	  0.035430863	1.714500E+01
79	  0.035631265	-7.253000E+00	  0.035631265	1.345020E+02	  0.035631265	2.259400E+01	  0.035631265	1.722400E+01
80	  0.035831664	-7.255000E+00	  0.035831664	1.343660E+02	  0.035831664	2.261800E+01	  0.035831664	1.727600E+01
81	  0.036032066	-7.258000E+00	  0.036032066	1.341980E+02	  0.036032066	2.264800E+01	  0.036032066	1.734100E+01
82	  0.036232468	-7.265000E+00	  0.036232468	1.339910E+02	  0.036232468	2.269700E+01	  0.036232468	1.741700E+01
83	  0.036432866	-7.276000E+00	  0.036432866	1.337680E+02	  0.036432866	2.275500E+01	  0.036432866	1.749700E+01
84	  0.036633268	-7.283000E+00	  0.036633268	1.335090E+02	  0.036633268	2.281000E+01	  0.036633268	1.759300E+01
85	  0.036833670	-7.296000E+00	  0.036833670	1.332450E+02	  0.036833670	2.288100E+01	  0.036833670	1.768700E+01
86	  0.037034072	-7.297000E+00	  0.037034072	1.329670E+02	  0.037034072	2.292400E+01	  0.037034072	1.779700E+01
87	  0.037234470	-7.300000E+00	  0.037234470	1.327080E+02	  0.037234470	2.297000E+01	  0.037234470	1.789700E+01
88	  0.037434869	-7.303000E+00	  0.037434869	1.324110E+02	  0.037434869	2.302000E+01	  0.037434869	1.801300E+01
89	  0.037635271	-7.299000E+00	  0.037635271	1.321480E+02	  0.037635271	2.304800E+01	  0.037635271	1.812300E+01
90	  0.037835669	-7.295000E+00	  0.037835669	1.318730E+02	  0.037835669	2.307700E+01	  0.037835669	1.823700E+01
91	  0.038036071	-7.291000E+00	  0.038036071	1.315900E+02	  0.038036071	2.310800E+01	  0.038036071	1.835400E+01
92	  0.038236473	-7.287000E+00	  0.038236473	1.313750E+02	  0.038236473	2.313000E+01	  0.038236473	1.844500E+01
93	  0.038436871	-7.289000E+00	  0.038436871	1.311330E+02	  0.038436871	2.317000E+01	  0.038436871	1.854000E+01
94	  0.038637273	-7.296000E+00	  0.038637273	1.308710E+02	  0.038637273	2.322900E+01	  0.038637273	1.863900E+01
95	  0.038837675	-7.300000E+00	  0.038837675	1.306130E+02	  0.038837675	2.327900E+01	  0.038837675	1.873900E+01
96	  0.039038073	-7.305000E+00	  0.039038073	1.303210E+02	  0.039038073	2.333800E+01	  0.039038073	1.885100E+01
97	  0.039238475	-7.306000E+00	  0.039238475	1.300250E+02	  0.039238475	2.338300E+01	  0.039238475	1.897000E+01
98	  0.039438877	-7.307000E+00	  0.039438877	1.297000E+02	  0.039438877	2.343700E+01	  0.039438877	1.910100E+01
99	  0.039639279	-7.305000E+00	  0.039639279	1.294130E+02	  0.039639279	2.347700E+01	  0.039639279	1.921900E+01
100	  0.039839678	-7.302000E+00	  0.039839678	1.291480E+02	  0.039839678	2.351100E+01	  0.039839678	1.932900E+01
101	  0.040040080	-7.295000E+00	  0.040040080	1.288520E+02	  0.040040080	2.354000E+01	  0.040040080	1.945600E+01
102	  0.040240481	-7.288000E+00	  0.040240481	1.285990E+02	  0.040240481	2.356100E+01	  0.040240481	1.956600E+01
103	  0.040440880	-7.274000E+00	  0.040440880	1.283310E+02	  0.040440880	2.356700E+01	  0.040440880	1.969100E+01
104	  0.040641282	-7.262000E+00	  0.040641282	1.280690E+02	  0.040641282	2.357900E+01	  0.040641282	1.980900E+01
105	  0.040841684	-7.254000E+00	  0.040841684	1.278720E+02	  0.040841684	2.358900E+01	  0.040841684	1.989900E+01
106	  0.041042086	-7.246000E+00	  0.041042086	1.277110E+02	  0.041042086	2.359500E+01	  0.041042086	1.997300E+01
107	  0.041242484	-7.239000E+00	  0.041242484	1.275350E+02	  0.041242484	2.360500E+01	  0.041242484	2.005200E+01
108	  0.041442886	-7.244000E+00	  0.041442886	1.273940E+02	  0.041442886	2.364100E+01	  0.041442886	2.010400E+01
109	  0.041643288	-7.248000E+00	  0.041643288	1.272310E+02	  0.041643288	2.367900E+01	  0.041643288	2.016700E+01
110	  0.041843686	-7.257000E+00	  0.041843686	1.270320E+02	  0.041843686	2.373500E+01	  0.041843686	2.023900E+01
111	  0.042044088	-7.265000E+00	  0.042044088	1.267810E+02	  0.042044088	2.380000E+01	  0.042044088	2.033300E+01
112	  0.042244490	-7.269000E+00	  0.042244490	1.265940E+02	  0.042244490	2.384100E+01	  0.042244490	2.040500E+01
113	  0.042444889	-7.272000E+00	  0.042444889	1.263330E+02	  0.042444889	2.389600E+01	  0.042444889	2.050800E+01
114	  0.042645290	-7.278000E+00	  0.042645290	1.260930E+02	  0.042645290	2.395200E+01	  0.042645290	2.060000E+01
115	  0.042845692	-7.282000E+00	  0.042845692	1.258360E+02	  0.042845692	2.400900E+01	  0.042845692	2.070100E+01
116	  0.043046094	-7.278000E+00	  0.043046094	1.255370E+02	  0.043046094	2.405000E+01	  0.043046094	2.082800E+01
117	  0.043246493	-7.278000E+00	  0.043246493	1.252590E+02	  0.043246493	2.409700E+01	  0.043246493	2.094300E+01
118	  0.043446895	-7.276000E+00	  0.043446895	1.250180E+02	  0.043446895	2.413400E+01	  0.043446895	2.104500E+01
119	  0.043647297	-7.280000E+00	  0.043647297	1.247500E+02	  0.043647297	2.419300E+01	  0.043647297	2.115100E+01
120	  0.043847695	-7.280000E+00	  0.043847695	1.245180E+02	  0.043847695	2.423400E+01	  0.043847695	2.124600E+01
121	  0.044048097	-7.284000E+00	  0.044048097	1.242760E+02	  0.044048097	2.429000E+01	  0.044048097	2.134100E+01
122	  0.044248499	-7.290000E+00	  0.044248499	1.239730E+02	  0.044248499	2.436100E+01	  0.044248499	2.145900E+01
123	  0.044448901	-7.296000E+00	  0.044448901	1.236660E+02	  0.044448901	2.443400E+01	  0.044448901	2.157800E+01
124	  0.044649299	-7.297000E+00	  0.044649299	1.233730E+02	  0.044649299	2.449000E+01	  0.044649299	2.169800E+01
125	  0.044849701	-7.296000E+00	  0.044849701	1.230780E+02	  0.044849701	2.454400E+01	  0.044849701	2.182100E+01
126	  0.045050103	-7.296000E+00	  0.045050103	1.227880E+02	  0.045050103	2.459700E+01	  0.045050103	2.194200E+01
127	  0.045250501	-7.297000E+00	  0.045250501	1.225060E+02	  0.045250501	2.465300E+01	  0.045250501	2.205800E+01
128	  0.045450903	-7.292000E+00	  0.045450903	1.222190E+02	  0.045450903	2.469300E+01	  0.045450903	2.218400E+01
129	  0.045651305	-7.284000E+00	  0.045651305	1.219230E+02	  0.045651305	2.473000E+01	  0.045651305	2.231600E+01
130	  0.045851704	-7.270000E+00	  0.045851704	1.216420E+02	  0.045851704	2.474400E+01	  0.045851704	2.245200E+01
131	  0.046052106	-7.258000E+00	  0.046052106	1.213980E+02	  0.046052106	2.475900E+01	  0.046052106	2.256900E+01
132	  0.046252504	-7.245000E+00	  0.046252504	1.211680E+02	  0.046252504	2.476800E+01	  0.046252504	2.268200E+01
133	  0.046452906	-7.243000E+00	  0.046452906	1.209910E+02	  0.046452906	2.479700E+01	  0.046452906	2.275900E+01
134	  0.046653304	-7.236000E+00	  0.046653304	1.208420E+02	  0.046653304	2.480700E+01	  0.046653304	2.283000E+01
135	  0.046853706	-7.236000E+00	  0.046853706	1.206660E+02	  0.046853706	2.484200E+01	  0.046853706	2.290400E+01
136	  0.047054108	-7.241000E+00	  0.047054108	1.204690E+02	  0.047054108	2.489700E+01	  0.047054108	2.298000E+01
137	  0.047254506	-7.243000E+00	  0.047254506	1.202890E+02	  0.047254506	2.493700E+01	  0.047254506	2.305400E+01
138	  0.047454908	-7.250000E+00	  0.047454908	1.200610E+02	  0.047454908	2.500100E+01	  0.047454908	2.314100E+01
139	  0.047655310	-7.255000E+00	  0.047655310	1.198520E+02	  0.047655310	2.505900E+01	  0.047655310	2.322100E+01
140	  0.047855709	-7.258000E+00	  0.047855709	1.195910E+02	  0.047855709	2.512000E+01	  0.047855709	2.332800E+01
141	  0.048056111	-7.260000E+00	  0.048056111	1.193820E+02	  0.048056111	2.516800E+01	  0.048056111	2.341300E+01
142	  0.048256513	-7.260000E+00	  0.048256513	1.191090E+02	  0.048256513	2.522400E+01	  0.048256513	2.352900E+01
143	  0.048456915	-7.257000E+00	  0.048456915	1.188340E+02	  0.048456915	2.527400E+01	  0.048456915	2.364800E+01
144	  0.048657313	-7.260000E+00	  0.048657313	1.185940E+02	  0.048657313	2.533100E+01	  0.048657313	2.374600E+01
145	  0.048857715	-7.261000E+00	  0.048857715	1.183740E+02	  0.048857715	2.538200E+01	  0.048857715	2.383700E+01
146	  0.049058117	-7.264000E+00	  0.049058117	1.181120E+02	  0.049058117	2.544600E+01	  0.049058117	2.394300E+01
147	  0.049258515	-7.270000E+00	  0.049258515	1.178760E+02	  0.049258515	2.551200E+01	  0.049258515	2.403600E+01
148	  0.049458917	-7.273000E+00	  0.049458917	1.176170E+02	  0.049458917	2.557700E+01	  0.049458917	2.414000E+01
149	  0.049659319	-7.278000E+00	  0.049659319	1.173390E+02	  0.049659319	2.565100E+01	  0.049659319	2.425100E+01
150	  0.049859721	-7.276000E+00	  0.049859721	1.170390E+02	  0.049859721	2.571100E+01	  0.049859721	2.438100E+01
151	  0.050060119	-7.287000E+00	  0.050060119	1.167470E+02	  0.050060119	2.580400E+01	  0.050060119	2.449000E+01
152	  0.050260521	-7.287000E+00	  0.050260521	1.164600E+02	  0.050260521	2.586800E+01	  0.050260521	2.461200E+01
153	  0.050460923	-7.289000E+00	  0.050460923	1.161650E+02	  0.050460923	2.594000E+01	  0.050460923	2.473400E+01
154	  0.050661322	-7.284000E+00	  0.050661322	1.158550E+02	  0.050661322	2.599700E+01	  0.050661322	2.487300E+01
155	  0.050861724	-7.275000E+00	  0.050861724	1.155740E+02	  0.050861724	2.603500E+01	  0.050861724	2.500700E+01
156	  0.051062126	-7.264000E+00	  0.051062126	1.152560E+02	  0.051062126	2.607600E+01	  0.051062126	2.516000E+01
157	  0.051262524	-7.255000E+00	  0.051262524	1.149900E+02	  0.051262524	2.611200E+01	  0.051262524	2.528800E+01
158	  0.051462926	-7.245000E+00	  0.051462926	1.147260E+02	  0.051462926	2.614500E+01	  0.051462926	2.541600E+01
159	  0.051663328	-7.241000E+00	  0.051663328	1.145140E+02	  0.051663328	2.618100E+01	  0.051663328	2.551400E+01
160	  0.051863730	-7.233000E+00	  0.051863730	1.143290E+02	  0.051863730	2.620400E+01	  0.051863730	2.560500E+01
161	  0.052064128	-7.227000E+00	  0.052064128	1.141460E+02	  0.052064128	2.622800E+01	  0.052064128	2.569400E+01
162	  0.052264530	-7.227000E+00	  0.052264530	1.139490E+02	  0.052264530	2.627400E+01	  0.052264530	2.577900E+01
163	  0.052464932	-7.226000E+00	  0.052464932	1.137740E+02	  0.052464932	2.631400E+01	  0.052464932	2.585600E+01
164	  0.052665330	-7.231000E+00	  0.052665330	1.135530E+02	  0.052665330	2.638200E+01	  0.052665330	2.594300E+01
165	  0.052865732	-7.233000E+00	  0.052865732	1.133370E+02	  0.052865732	2.643900E+01	  0.052865732	2.603300E+01
166	  0.053066134	-7.237000E+00	  0.053066134	1.131050E+02	  0.053066134	2.650500E+01	  0.053066134	2.612800E+01
167	  0.053266536	-7.239000E+00	  0.053266536	1.129100E+02	  0.053266536	2.655900E+01	  0.053266536	2.620900E+01
168	  0.053466935	-7.240000E+00	  0.053466935	1.126260E+02	  0.053466935	2.663100E+01	  0.053466935	2.633000E+01
169	  0.053667337	-7.239000E+00	  0.053667337	1.123920E+02	  0.053667337	2.668500E+01	  0.053667337	2.643400E+01
170	  0.053867739	-7.235000E+00	  0.053867739	1.121560E+02	  0.053867739	2.673100E+01	  0.053867739	2.654300E+01
171	  0.054068137	-7.236000E+00	  0.054068137	1.118920E+02	  0.054068137	2.680100E+01	  0.054068137	2.665500E+01
172	  0.054268539	-7.235000E+00	  0.054268539	1.116530E+02	  0.054268539	2.685800E+01	  0.054268539	2.676100E+01
173	  0.054468941	-7.241000E+00	  0.054468941	1.114060E+02	  0.054468941	2.693500E+01	  0.054468941	2.686000E+01
174	  0.054669339	-7.245000E+00	  0.054669339	1.111830E+02	  0.054669339	2.700400E+01	  0.054669339	2.695000E+01
175	  0.054869737	-7.249000E+00	  0.054869737	1.109550E+02	  0.054869737	2.707400E+01	  0.054869737	2.704200E+01
176	  0.055070139	-7.252000E+00	  0.055070139	1.106830E+02	  0.055070139	2.715400E+01	  0.055070139	2.715500E+01
177	  0.055270538	-7.255000E+00	  0.055270538	1.103920E+02	  0.055270538	2.723600E+01	  0.055270538	2.727800E+01
178	  0.055470940	-7.259000E+00	  0.055470940	1.101340E+02	  0.055470940	2.731500E+01	  0.055470940	2.738400E+01
179	  0.055671342	-7.259000E+00	  0.055671342	1.098490E+02	  0.055671342	2.739100E+01	  0.055671342	2.750700E+01
180	  0.055871744	-7.255000E+00	  0.055871744	1.095970E+02	  0.055871744	2.744500E+01	  0.055871744	2.762500E+01
181	  0.056072142	-7.254000E+00	  0.056072142	1.092970E+02	  0.056072142	2.752100E+01	  0.056072142	2.775900E+01
182	  0.056272544	-7.247000E+00	  0.056272544	1.090000E+02	  0.056272544	2.758200E+01	  0.056272544	2.790100E+01
183	  0.056472946	-7.244000E+00	  0.056472946	1.087130E+02	  0.056472946	2.764900E+01	  0.056472946	2.803300E+01
184	  0.056673344	-7.235000E+00	  0.056673344	1.084530E+02	  0.056673344	2.769300E+01	  0.056673344	2.816400E+01
185	  0.056873746	-7.233000E+00	  0.056873746	1.082320E+02	  0.056873746	2.774900E+01	  0.056873746	2.826400E+01
186	  0.057074148	-7.226000E+00	  0.057074148	1.079890E+02	  0.057074148	2.779600E+01	  0.057074148	2.838400E+01
187	  0.057274550	-7.216000E+00	  0.057274550	1.077730E+02	  0.057274550	2.782500E+01	  0.057274550	2.849800E+01
188	  0.057474948	-7.211000E+00	  0.057474948	1.075930E+02	  0.057474948	2.786100E+01	  0.057474948	2.858700E+01
189	  0.057675350	-7.213000E+00	  0.057675350	1.073940E+02	  0.057675350	2.792300E+01	  0.057675350	2.867100E+01
190	  0.057875752	-7.214000E+00	  0.057875752	1.071790E+02	  0.057875752	2.798600E+01	  0.057875752	2.876500E+01
191	  0.058076151	-7.217000E+00	  0.058076151	1.069800E+02	  0.058076151	2.804900E+01	  0.058076151	2.884900E+01
192	  0.058276553	-7.219000E+00	  0.058276553	1.067590E+02	  0.058276553	2.811900E+01	  0.058276553	2.894200E+01
193	  0.058476955	-7.222000E+00	  0.058476955	1.065290E+02	  0.058476955	2.819300E+01	  0.058476955	2.903900E+01
194	  0.058677353	-7.224000E+00	  0.058677353	1.062690E+02	  0.058677353	2.827200E+01	  0.058677353	2.915200E+01
195	  0.058877755	-7.223000E+00	  0.058877755	1.060080E+02	  0.058877755	2.834400E+01	  0.058877755	2.927000E+01
196	  0.059078157	-7.225000E+00	  0.059078157	1.057560E+02	  0.059078157	2.842500E+01	  0.059078157	2.937800E+01
197	  0.059278559	-7.225000E+00	  0.059278559	1.055320E+02	  0.059278559	2.849100E+01	  0.059278559	2.947800E+01
198	  0.059478957	-7.229000E+00	  0.059478957	1.052700E+02	  0.059478957	2.857800E+01	  0.059478957	2.958800E+01
199	  0.059679359	-7.230000E+00	  0.059679359	1.050220E+02	  0.059679359	2.865400E+01	  0.059679359	2.969700E+01
200	  0.059879761	-7.232000E+00	  0.059879761	1.048020E+02	  0.059879761	2.872700E+01	  0.059879761	2.979000E+01
201	  0.060080159	-7.234000E+00	  0.060080159	1.045420E+02	  0.060080159	2.881200E+01	  0.060080159	2.990200E+01
202	  0.060280561	-7.239000E+00	  0.060280561	1.042820E+02	  0.060280561	2.890300E+01	  0.060280561	3.000900E+01
203	  0.060480963	-7.241000E+00	  0.060480963	1.040210E+02	  0.060480963	2.898900E+01	  0.060480963	3.012200E+01
204	  0.060681365	-7.244000E+00	  0.060681365	1.037520E+02	  0.060681365	2.908100E+01	  0.060681365	3.023600E+01
205	  0.060881764	-7.244000E+00	  0.060881764	1.035110E+02	  0.060881764	2.915300E+01	  0.060881764	3.034500E+01
206	  0.061082166	-7.240000E+00	  0.061082166	1.032380E+02	  0.061082166	2.922600E+01	  0.061082166	3.047600E+01
207	  0.061282568	-7.244000E+00	  0.061282568	1.029330E+02	  0.061282568	2.933300E+01	  0.061282568	3.060500E+01
208	  0.061482966	-7.239000E+00	  0.061482966	1.026430E+02	  0.061482966	2.941000E+01	  0.061482966	3.074600E+01
209	  0.061683368	-7.235000E+00	  0.061683368	1.023650E+02	  0.061683368	2.948700E+01	  0.061683368	3.087800E+01
210	  0.061883770	-7.228000E+00	  0.061883770	1.020660E+02	  0.061883770	2.955900E+01	  0.061883770	3.102900E+01
211	  0.062084168	-7.223000E+00	  0.062084168	1.018480E+02	  0.062084168	2.961600E+01	  0.062084168	3.113800E+01
212	  0.062284570	-7.213000E+00	  0.062284570	1.015910E+02	  0.062284570	2.967000E+01	  0.062284570	3.127500E+01
213	  0.062484972	-7.195000E+00	  0.062484972	1.014010E+02	  0.062484972	2.967800E+01	  0.062484972	3.140000E+01
214	  0.062685370	-7.192000E+00	  0.062685370	1.011620E+02	  0.062685370	2.974600E+01	  0.062685370	3.151500E+01
215	  0.062885776	-7.187000E+00	  0.062885776	1.009880E+02	  0.062885776	2.978800E+01	  0.062885776	3.160500E+01
216	  0.063086174	-7.191000E+00	  0.063086174	1.007860E+02	  0.063086174	2.986800E+01	  0.063086174	3.168800E+01
217	  0.063286573	-7.183000E+00	  0.063286573	1.005760E+02	  0.063286573	2.991300E+01	  0.063286573	3.180200E+01
218	  0.063486971	-7.188000E+00	  0.063486971	1.003820E+02	  0.063486971	2.999300E+01	  0.063486971	3.188000E+01
219	  0.063687377	-7.188000E+00	  0.063687377	1.001680E+02	  0.063687377	3.006200E+01	  0.063687377	3.197800E+01
220	  0.063887775	-7.185000E+00	  0.063887775	9.992200E+01	  0.063887775	3.013600E+01	  0.063887775	3.209800E+01
221	  0.064088173	-7.190000E+00	  0.064088173	9.970300E+01	  0.064088173	3.022600E+01	  0.064088173	3.218600E+01
222	  0.064288579	-7.188000E+00	  0.064288579	9.945600E+01	  0.064288579	3.030600E+01	  0.064288579	3.230300E+01
223	  0.064488977	-7.195000E+00	  0.064488977	9.918700E+01	  0.064488977	3.041800E+01	  0.064488977	3.241000E+01
224	  0.064689375	-7.196000E+00	  0.064689375	9.895400E+01	  0.064689375	3.050200E+01	  0.064689375	3.251500E+01
225	  0.064889781	-7.195000E+00	  0.064889781	9.870700E+01	  0.064889781	3.058300E+01	  0.064889781	3.263100E+01
226	  0.065090179	-7.201000E+00	  0.065090179	9.847200E+01	  0.065090179	3.068500E+01	  0.065090179	3.272500E+01
227	  0.065290578	-7.197000E+00	  0.065290578	9.824000E+01	  0.065290578	3.075300E+01	  0.065290578	3.284200E+01
228	  0.065490983	-7.199000E+00	  0.065490983	9.800400E+01	  0.065490983	3.084200E+01	  0.065490983	3.294500E+01
229	  0.065691382	-7.204000E+00	  0.065691382	9.774200E+01	  0.065691382	3.095200E+01	  0.065691382	3.305200E+01
230	  0.065891780	-7.207000E+00	  0.065891780	9.749400E+01	  0.065891780	3.105000E+01	  0.065891780	3.316000E+01
231	  0.066092186	-7.203000E+00	  0.066092186	9.729200E+01	  0.066092186	3.111200E+01	  0.066092186	3.326200E+01
232	  0.066292584	-7.210000E+00	  0.066292584	9.699100E+01	  0.066292584	3.124200E+01	  0.066292584	3.338400E+01
233	  0.066492982	-7.216000E+00	  0.066492982	9.672000E+01	  0.066492982	3.135700E+01	  0.066492982	3.349500E+01
234	  0.066693388	-7.213000E+00	  0.066693388	9.642500E+01	  0.066693388	3.145700E+01	  0.066693388	3.363900E+01
235	  0.066893786	-7.210000E+00	  0.066893786	9.614800E+01	  0.066893786	3.155100E+01	  0.066893786	3.377400E+01
236	  0.067094192	-7.211000E+00	  0.067094192	9.586100E+01	  0.067094192	3.166200E+01	  0.067094192	3.390300E+01
237	  0.067294590	-7.201000E+00	  0.067294590	9.558800E+01	  0.067294590	3.173300E+01	  0.067294590	3.405500E+01
238	  0.067494988	-7.200000E+00	  0.067494988	9.533800E+01	  0.067494988	3.182500E+01	  0.067494988	3.417200E+01
239	  0.067695394	-7.194000E+00	  0.067695394	9.509200E+01	  0.067695394	3.190100E+01	  0.067695394	3.430100E+01
240	  0.067895792	-7.187000E+00	  0.067895792	9.483300E+01	  0.067895792	3.197900E+01	  0.067895792	3.444000E+01
241	  0.068096191	-7.182000E+00	  0.068096191	9.463800E+01	  0.068096191	3.203800E+01	  0.068096191	3.454300E+01
242	  0.068296596	-7.182000E+00	  0.068296596	9.439100E+01	  0.068296596	3.213200E+01	  0.068296596	3.465900E+01
243	  0.068496995	-7.177000E+00	  0.068496995	9.421100E+01	  0.068496995	3.219000E+01	  0.068496995	3.475400E+01
244	  0.068697393	-7.170000E+00	  0.068697393	9.399400E+01	  0.068697393	3.225100E+01	  0.068697393	3.487500E+01
245	  0.068897791	-7.173000E+00	  0.068897791	9.376100E+01	  0.068897791	3.235300E+01	  0.068897791	3.497500E+01
246	  0.069098189	-7.172000E+00	  0.069098189	9.351800E+01	  0.069098189	3.244600E+01	  0.069098189	3.509200E+01
247	  0.069298595	-7.167000E+00	  0.069298595	9.330700E+01	  0.069298595	3.251300E+01	  0.069298595	3.520400E+01
248	  0.069498993	-7.171000E+00	  0.069498993	9.307000E+01	  0.069498993	3.262200E+01	  0.069498993	3.530400E+01
249	  0.069699399	-7.171000E+00	  0.069699399	9.280400E+01	  0.069699399	3.272900E+01	  0.069699399	3.542900E+01
250	  0.069899797	-7.173000E+00	  0.069899797	9.257100E+01	  0.069899797	3.283000E+01	  0.069899797	3.553200E+01
251	  0.070100196	-7.174000E+00	  0.070100196	9.231200E+01	  0.070100196	3.294000E+01	  0.070100196	3.565000E+01
252	  0.070300601	-7.175000E+00	  0.070300601	9.209300E+01	  0.070300601	3.303200E+01	  0.070300601	3.575100E+01
253	  0.070501000	-7.171000E+00	  0.070501000	9.186000E+01	  0.070501000	3.311700E+01	  0.070501000	3.587000E+01
254	  0.070701398	-7.168000E+00	  0.070701398	9.163600E+01	  0.070701398	3.319900E+01	  0.070701398	3.598500E+01
255	  0.070901804	-7.173000E+00	  0.070901804	9.139000E+01	  0.070901804	3.331700E+01	  0.070901804	3.608800E+01
256	  0.071102202	-7.169000E+00	  0.071102202	9.116100E+01	  0.071102202	3.340200E+01	  0.071102202	3.620500E+01
257	  0.071302600	-7.167000E+00	  0.071302600	9.094100E+01	  0.071302600	3.349000E+01	  0.071302600	3.631400E+01
258	  0.071503006	-7.172000E+00	  0.071503006	9.070900E+01	  0.071503006	3.360200E+01	  0.071503006	3.641100E+01
259	  0.071703404	-7.177000E+00	  0.071703404	9.044900E+01	  0.071703404	3.372900E+01	  0.071703404	3.651900E+01
260	  0.071903802	-7.175000E+00	  0.071903802	9.018900E+01	  0.071903802	3.383800E+01	  0.071903802	3.664400E+01
261	  0.072104208	-7.176000E+00	  0.072104208	8.993900E+01	  0.072104208	3.394900E+01	  0.072104208	3.676000E+01
262	  0.072304606	-7.174000E+00	  0.072304606	8.963600E+01	  0.072304606	3.407400E+01	  0.072304606	3.690900E+01
263	  0.072505005	-7.172000E+00	  0.072505005	8.943200E+01	  0.072505005	3.415700E+01	  0.072505005	3.701300E+01
264	  0.072705410	-7.169000E+00	  0.072705410	8.912900E+01	  0.072705410	3.428300E+01	  0.072705410	3.716200E+01
265	  0.072905809	-7.168000E+00	  0.072905809	8.886000E+01	  0.072905809	3.439900E+01	  0.072905809	3.729400E+01
266	  0.073106214	-7.159000E+00	  0.073106214	8.866000E+01	  0.073106214	3.446100E+01	  0.073106214	3.741500E+01
267	  0.073306613	-7.152000E+00	  0.073306613	8.841400E+01	  0.073306613	3.455000E+01	  0.073306613	3.755200E+01
268	  0.073507011	-7.152000E+00	  0.073507011	8.816200E+01	  0.073507011	3.466300E+01	  0.073507011	3.767200E+01
269	  0.073707417	-7.152000E+00	  0.073707417	8.794000E+01	  0.073707417	3.476500E+01	  0.073707417	3.777800E+01
270	  0.073907815	-7.147000E+00	  0.073907815	8.772400E+01	  0.073907815	3.484900E+01	  0.073907815	3.789500E+01
271	  0.074108213	-7.144000E+00	  0.074108213	8.753300E+01	  0.074108213	3.493000E+01	  0.074108213	3.799300E+01
272	  0.074308619	-7.149000E+00	  0.074308619	8.731400E+01	  0.074308619	3.504500E+01	  0.074308619	3.808400E+01
273	  0.074509017	-7.144000E+00	  0.074509017	8.705800E+01	  0.074509017	3.515100E+01	  0.074509017	3.821900E+01
274	  0.074709415	-7.144000E+00	  0.074709415	8.679400E+01	  0.074709415	3.527400E+01	  0.074709415	3.834600E+01
275	  0.074909821	-7.145000E+00	  0.074909821	8.658500E+01	  0.074909821	3.537700E+01	  0.074909821	3.844100E+01
276	  0.075110219	-7.148000E+00	  0.075110219	8.634400E+01	  0.075110219	3.550200E+01	  0.075110219	3.854600E+01
277	  0.075310618	-7.149000E+00	  0.075310618	8.609700E+01	  0.075310618	3.562400E+01	  0.075310618	3.866100E+01
278	  0.075511023	-7.149000E+00	  0.075511023	8.585600E+01	  0.075511023	3.573700E+01	  0.075511023	3.877700E+01
279	  0.075711422	-7.153000E+00	  0.075711422	8.560900E+01	  0.075711422	3.587000E+01	  0.075711422	3.888200E+01
280	  0.075911827	-7.142000E+00	  0.075911827	8.536000E+01	  0.075911827	3.595900E+01	  0.075911827	3.903400E+01
281	  0.076112226	-7.144000E+00	  0.076112226	8.515800E+01	  0.076112226	3.606200E+01	  0.076112226	3.912500E+01
282	  0.076312624	-7.140000E+00	  0.076312624	8.490000E+01	  0.076312624	3.617700E+01	  0.076312624	3.926200E+01
283	  0.076513030	-7.137000E+00	  0.076513030	8.469800E+01	  0.076513030	3.626900E+01	  0.076513030	3.936800E+01
284	  0.076713428	-7.140000E+00	  0.076713428	8.449200E+01	  0.076713428	3.638200E+01	  0.076713428	3.945600E+01
285	  0.076913826	-7.137000E+00	  0.076913826	8.424300E+01	  0.076913826	3.649900E+01	  0.076913826	3.958200E+01
286	  0.077114232	-7.140000E+00	  0.077114232	8.401900E+01	  0.077114232	3.662100E+01	  0.077114232	3.968000E+01
287	  0.077314630	-7.142000E+00	  0.077314630	8.370200E+01	  0.077314630	3.678800E+01	  0.077314630	3.982600E+01
288	  0.077515028	-7.143000E+00	  0.077515028	8.351800E+01	  0.077515028	3.688700E+01	  0.077515028	3.990900E+01
289	  0.077715434	-7.143000E+00	  0.077715434	8.327500E+01	  0.077715434	3.700900E+01	  0.077715434	4.002700E+01
290	  0.077915832	-7.145000E+00	  0.077915832	8.301900E+01	  0.077915832	3.715000E+01	  0.077915832	4.014000E+01
291	  0.078116231	-7.142000E+00	  0.078116231	8.277300E+01	  0.078116231	3.727100E+01	  0.078116231	4.026600E+01
292	  0.078316636	-7.144000E+00	  0.078316636	8.250300E+01	  0.078316636	3.741600E+01	  0.078316636	4.039200E+01
293	  0.078517035	-7.146000E+00	  0.078517035	8.223300E+01	  0.078517035	3.756700E+01	  0.078517035	4.051200E+01
294	  0.078717433	-7.141000E+00	  0.078717433	8.200400E+01	  0.078717433	3.767200E+01	  0.078717433	4.063900E+01
295	  0.078917839	-7.138000E+00	  0.078917839	8.178400E+01	  0.078917839	3.778100E+01	  0.078917839	4.075500E+01
296	  0.079118237	-7.139000E+00	  0.079118237	8.156700E+01	  0.079118237	3.790300E+01	  0.079118237	4.085300E+01
297	  0.079318643	-7.133000E+00	  0.079318643	8.134400E+01	  0.079318643	3.800400E+01	  0.079318643	4.098100E+01
298	  0.079519041	-7.128000E+00	  0.079519041	8.109600E+01	  0.079519041	3.812300E+01	  0.079519041	4.111900E+01
299	  0.079719439	-7.135000E+00	  0.079719439	8.084100E+01	  0.079719439	3.828500E+01	  0.079719439	4.121500E+01
300	  0.079919845	-7.124000E+00	  0.079919845	8.059500E+01	  0.079919845	3.838800E+01	  0.079919845	4.137100E+01
301	  0.080120243	-7.134000E+00	  0.080120243	8.034700E+01	  0.080120243	3.855700E+01	  0.080120243	4.145200E+01
302	  0.080320641	-7.137000E+00	  0.080320641	8.008100E+01	  0.080320641	3.871500E+01	  0.080320641	4.156900E+01
303	  0.080521047	-7.136000E+00	  0.080521047	7.987400E+01	  0.080521047	3.882800E+01	  0.080521047	4.167100E+01
304	  0.080721445	-7.140000E+00	  0.080721445	7.958000E+01	  0.080721445	3.900600E+01	  0.080721445	4.179800E+01
305	  0.080921844	-7.137000E+00	  0.080921844	7.931600E+01	  0.080921844	3.914800E+01	  0.080921844	4.193500E+01
306	  0.081122249	-7.135000E+00	  0.081122249	7.905100E+01	  0.081122249	3.929400E+01	  0.081122249	4.206700E+01
307	  0.081322648	-7.124000E+00	  0.081322648	7.879400E+01	  0.081322648	3.940900E+01	  0.081322648	4.223100E+01
308	  0.081523046	-7.120000E+00	  0.081523046	7.859000E+01	  0.081523046	3.951500E+01	  0.081523046	4.234500E+01
309	  0.081723452	-7.120000E+00	  0.081723452	7.838700E+01	  0.081723452	3.963400E+01	  0.081723452	4.244000E+01
310	  0.081923850	-7.111000E+00	  0.081923850	7.812200E+01	  0.081923850	3.976300E+01	  0.081923850	4.260100E+01
311	  0.082124248	-7.114000E+00	  0.082124248	7.792300E+01	  0.082124248	3.989000E+01	  0.082124248	4.268400E+01
312	  0.082324654	-7.114000E+00	  0.082324654	7.769700E+01	  0.082324654	4.002300E+01	  0.082324654	4.279400E+01
313	  0.082525052	-7.109000E+00	  0.082525052	7.749200E+01	  0.082525052	4.013200E+01	  0.082525052	4.291000E+01
314	  0.082725458	-7.113000E+00	  0.082725458	7.721500E+01	  0.082725458	4.031200E+01	  0.082725458	4.302500E+01
315	  0.082925856	-7.115000E+00	  0.082925856	7.702400E+01	  0.082925856	4.043300E+01	  0.082925856	4.311000E+01
316	  0.083126254	-7.114000E+00	  0.083126254	7.678800E+01	  0.083126254	4.057200E+01	  0.083126254	4.322800E+01
317	  0.083326660	-7.110000E+00	  0.083326660	7.654200E+01	  0.083326660	4.071100E+01	  0.083326660	4.336100E+01
318	  0.083527058	-7.114000E+00	  0.083527058	7.631600E+01	  0.083527058	4.086500E+01	  0.083527058	4.345000E+01
319	  0.083727457	-7.115000E+00	  0.083727457	7.605400E+01	  0.083727457	4.102900E+01	  0.083727457	4.357200E+01
320	  0.083927862	-7.112000E+00	  0.083927862	7.581200E+01	  0.083927862	4.117400E+01	  0.083927862	4.369600E+01
321	  0.084128261	-7.112000E+00	  0.084128261	7.560500E+01	  0.084128261	4.130500E+01	  0.084128261	4.379300E+01
322	  0.084328659	-7.110000E+00	  0.084328659	7.533700E+01	  0.084328659	4.146700E+01	  0.084328659	4.393000E+01
323	  0.084529065	-7.106000E+00	  0.084529065	7.510700E+01	  0.084529065	4.159900E+01	  0.084529065	4.405800E+01
324	  0.084729463	-7.104000E+00	  0.084729463	7.488600E+01	  0.084729463	4.173800E+01	  0.084729463	4.416700E+01
325	  0.084929861	-7.107000E+00	  0.084929861	7.464500E+01	  0.084929861	4.190000E+01	  0.084929861	4.427200E+01
326	  0.085130267	-7.108000E+00	  0.085130267	7.443100E+01	  0.085130267	4.204400E+01	  0.085130267	4.436600E+01
327	  0.085330658	-7.108000E+00	  0.085330658	7.416600E+01	  0.085330658	4.221700E+01	  0.085330658	4.449100E+01
328	  0.085531056	-7.112000E+00	  0.085531056	7.391800E+01	  0.085531056	4.239300E+01	  0.085531056	4.459000E+01
329	  0.085731462	-7.113000E+00	  0.085731462	7.367700E+01	  0.085731462	4.255500E+01	  0.085731462	4.469900E+01
330	  0.085931860	-7.116000E+00	  0.085931860	7.344900E+01	  0.085931860	4.271500E+01	  0.085931860	4.479400E+01
331	  0.086132258	-7.116000E+00	  0.086132258	7.316800E+01	  0.086132258	4.290300E+01	  0.086132258	4.492500E+01
332	  0.086332664	-7.115000E+00	  0.086332664	7.293900E+01	  0.086332664	4.305500E+01	  0.086332664	4.503700E+01
333	  0.086533062	-7.107000E+00	  0.086533062	7.269000E+01	  0.086533062	4.320000E+01	  0.086533062	4.518800E+01
334	  0.086733460	-7.103000E+00	  0.086733460	7.242400E+01	  0.086733460	4.336800E+01	  0.086733460	4.533200E+01
335	  0.086933866	-7.101000E+00	  0.086933866	7.219000E+01	  0.086933866	4.352500E+01	  0.086933866	4.544700E+01
336	  0.087134264	-7.096000E+00	  0.087134264	7.201300E+01	  0.087134264	4.363100E+01	  0.087134264	4.555500E+01
337	  0.087334670	-7.095000E+00	  0.087334670	7.176300E+01	  0.087334670	4.380400E+01	  0.087334670	4.567300E+01
338	  0.087535068	-7.093000E+00	  0.087535068	7.156000E+01	  0.087535068	4.393900E+01	  0.087535068	4.577900E+01
339	  0.087735467	-7.090000E+00	  0.087735467	7.135000E+01	  0.087735467	4.407700E+01	  0.087735467	4.589000E+01
340	  0.087935872	-7.095000E+00	  0.087935872	7.117400E+01	  0.087935872	4.421700E+01	  0.087935872	4.594900E+01
341	  0.088136271	-7.094000E+00	  0.088136271	7.095600E+01	  0.088136271	4.436900E+01	  0.088136271	4.605400E+01
342	  0.088336669	-7.101000E+00	  0.088336669	7.071600E+01	  0.088336669	4.456200E+01	  0.088336669	4.613300E+01
343	  0.088537075	-7.108000E+00	  0.088537075	7.046500E+01	  0.088537075	4.476300E+01	  0.088537075	4.621600E+01
344	  0.088737473	-7.108000E+00	  0.088737473	7.022000E+01	  0.088737473	4.494100E+01	  0.088737473	4.632900E+01
345	  0.088937871	-7.114000E+00	  0.088937871	6.997800E+01	  0.088937871	4.513500E+01	  0.088937871	4.641100E+01
346	  0.089138277	-7.114000E+00	  0.089138277	6.972100E+01	  0.089138277	4.532500E+01	  0.089138277	4.652600E+01
347	  0.089338675	-7.118000E+00	  0.089338675	6.945300E+01	  0.089338675	4.553300E+01	  0.089338675	4.663100E+01
348	  0.089539073	-7.114000E+00	  0.089539073	6.915700E+01	  0.089539073	4.574200E+01	  0.089539073	4.678500E+01
349	  0.089739479	-7.112000E+00	  0.089739479	6.888400E+01	  0.089739479	4.594100E+01	  0.089739479	4.691600E+01
350	  0.089939877	-7.117000E+00	  0.089939877	6.862300E+01	  0.089939877	4.615200E+01	  0.089939877	4.701100E+01
351	  0.090140276	-7.114000E+00	  0.090140276	6.834100E+01	  0.090140276	4.636000E+01	  0.090140276	4.714900E+01
352	  0.090340681	-7.121000E+00	  0.090340681	6.809900E+01	  0.090340681	4.656500E+01	  0.090340681	4.722200E+01
353	  0.090541080	-7.114000E+00	  0.090541080	6.779800E+01	  0.090541080	4.677500E+01	  0.090541080	4.739500E+01
354	  0.090741485	-7.115000E+00	  0.090741485	6.752000E+01	  0.090741485	4.699400E+01	  0.090741485	4.751500E+01
355	  0.090941884	-7.116000E+00	  0.090941884	6.727100E+01	  0.090941884	4.719200E+01	  0.090941884	4.761800E+01
356	  0.091142282	-7.120000E+00	  0.091142282	6.699000E+01	  0.091142282	4.742600E+01	  0.091142282	4.771900E+01
357	  0.091342688	-7.113000E+00	  0.091342688	6.670000E+01	  0.091342688	4.763600E+01	  0.091342688	4.788400E+01
358	  0.091543086	-7.113000E+00	  0.091543086	6.644600E+01	  0.091543086	4.783700E+01	  0.091543086	4.800000E+01
359	  0.091743484	-7.103000E+00	  0.091743484	6.617300E+01	  0.091743484	4.802900E+01	  0.091743484	4.817000E+01
360	  0.091943890	-7.092000E+00	  0.091943890	6.591400E+01	  0.091943890	4.820500E+01	  0.091943890	4.834500E+01
361	  0.092144288	-7.081000E+00	  0.092144288	6.567600E+01	  0.092144288	4.836900E+01	  0.092144288	4.850700E+01
362	  0.092344686	-7.075000E+00	  0.092344686	6.541900E+01	  0.092344686	4.856200E+01	  0.092344686	4.865400E+01
363	  0.092545092	-7.074000E+00	  0.092545092	6.524400E+01	  0.092545092	4.870500E+01	  0.092545092	4.873500E+01
364	  0.092745490	-7.058000E+00	  0.092745490	6.504500E+01	  0.092745490	4.882400E+01	  0.092745490	4.890900E+01
365	  0.092945889	-7.060000E+00	  0.092945889	6.484200E+01	  0.092945889	4.900100E+01	  0.092945889	4.898400E+01
366	  0.093146294	-7.052000E+00	  0.093146294	6.464900E+01	  0.093146294	4.913800E+01	  0.093146294	4.911700E+01
367	  0.093346693	-7.053000E+00	  0.093346693	6.445800E+01	  0.093346693	4.930200E+01	  0.093346693	4.919300E+01
368	  0.093547091	-7.049000E+00	  0.093547091	6.430100E+01	  0.093547091	4.942400E+01	  0.093547091	4.928400E+01
369	  0.093747497	-7.059000E+00	  0.093747497	6.404900E+01	  0.093747497	4.966700E+01	  0.093747497	4.933700E+01
370	  0.093947895	-7.056000E+00	  0.093947895	6.387100E+01	  0.093947895	4.981400E+01	  0.093947895	4.942700E+01
371	  0.094148301	-7.064000E+00	  0.094148301	6.366400E+01	  0.094148301	5.001300E+01	  0.094148301	4.947200E+01
372	  0.094348699	-7.069000E+00	  0.094348699	6.341300E+01	  0.094348699	5.024600E+01	  0.094348699	4.954900E+01
373	  0.094549097	-7.070000E+00	  0.094549097	6.319500E+01	  0.094549097	5.043700E+01	  0.094549097	4.963800E+01
374	  0.094749503	-7.072000E+00	  0.094749503	6.295400E+01	  0.094749503	5.065400E+01	  0.094749503	4.972700E+01
375	  0.094949901	-7.074000E+00	  0.094949901	6.272600E+01	  0.094949901	5.086000E+01	  0.094949901	4.981300E+01
376	  0.095150299	-7.078000E+00	  0.095150299	6.245300E+01	  0.095150299	5.111300E+01	  0.095150299	4.990200E+01
377	  0.095350705	-7.079000E+00	  0.095350705	6.218200E+01	  0.095350705	5.135900E+01	  0.095350705	5.000800E+01
378	  0.095551103	-7.081000E+00	  0.095551103	6.190300E+01	  0.095551103	5.161400E+01	  0.095551103	5.011300E+01
379	  0.095751502	-7.085000E+00	  0.095751502	6.166200E+01	  0.095751502	5.184300E+01	  0.095751502	5.018700E+01
380	  0.095951907	-7.086000E+00	  0.095951907	6.139400E+01	  0.095951907	5.209200E+01	  0.095951907	5.028400E+01
381	  0.096152306	-7.090000E+00	  0.096152306	6.111500E+01	  0.096152306	5.235700E+01	  0.096152306	5.037800E+01
382	  0.096352704	-7.089000E+00	  0.096352704	6.082900E+01	  0.096352704	5.261900E+01	  0.096352704	5.049600E+01
383	  0.096553110	-7.091000E+00	  0.096553110	6.055100E+01	  0.096553110	5.288400E+01	  0.096553110	5.059300E+01
384	  0.096753508	-7.088000E+00	  0.096753508	6.024800E+01	  0.096753508	5.315900E+01	  0.096753508	5.073100E+01
385	  0.096953906	-7.082000E+00	  0.096953906	5.995400E+01	  0.096953906	5.342100E+01	  0.096953906	5.088600E+01
386	  0.097154312	-7.078000E+00	  0.097154312	5.969200E+01	  0.097154312	5.366300E+01	  0.097154312	5.100800E+01
387	  0.097354710	-7.067000E+00	  0.097354710	5.942800E+01	  0.097354710	5.388600E+01	  0.097354710	5.118300E+01
388	  0.097555116	-7.057000E+00	  0.097555116	5.917400E+01	  0.097555116	5.410600E+01	  0.097555116	5.134600E+01
389	  0.097755514	-7.046000E+00	  0.097755514	5.891500E+01	  0.097755514	5.433000E+01	  0.097755514	5.151600E+01
390	  0.097955912	-7.041000E+00	  0.097955912	5.869000E+01	  0.097955912	5.453900E+01	  0.097955912	5.163000E+01
391	  0.098156318	-7.036000E+00	  0.098156318	5.850000E+01	  0.098156318	5.471400E+01	  0.098156318	5.173800E+01
392	  0.098356716	-7.029000E+00	  0.098356716	5.832700E+01	  0.098356716	5.486700E+01	  0.098356716	5.185100E+01
393	  0.098557115	-7.017000E+00	  0.098557115	5.812500E+01	  0.098557115	5.503700E+01	  0.098557115	5.200900E+01
394	  0.098757520	-7.013000E+00	  0.098757520	5.793800E+01	  0.098757520	5.521600E+01	  0.098757520	5.210100E+01
395	  0.098957919	-7.012000E+00	  0.098957919	5.773500E+01	  0.098957919	5.541700E+01	  0.098957919	5.218600E+01
396	  0.099158317	-7.021000E+00	  0.099158317	5.756500E+01	  0.099158317	5.561000E+01	  0.099158317	5.219100E+01
397	  0.099358723	-7.016000E+00	  0.099358723	5.736500E+01	  0.099358723	5.580200E+01	  0.099358723	5.229900E+01
398	  0.099559121	-7.017000E+00	  0.099559121	5.716900E+01	  0.099559121	5.600500E+01	  0.099559121	5.236200E+01
399	  0.099759519	-7.013000E+00	  0.099759519	5.693800E+01	  0.099759519	5.623400E+01	  0.099759519	5.247100E+01
400	  0.099959925	-7.008000E+00	  0.099959925	5.679500E+01	  0.099959925	5.636800E+01	  0.099959925	5.256200E+01
401	  0.100160323	-7.021000E+00	  0.100160323	5.657200E+01	  0.100160323	5.663100E+01	  0.100160323	5.255100E+01
402	  0.100360721	-7.026000E+00	  0.100360721	5.630200E+01	  0.100360721	5.692400E+01	  0.100360721	5.261300E+01
403	  0.100561127	-7.021000E+00	  0.100561127	5.609600E+01	  0.100561127	5.712900E+01	  0.100561127	5.271900E+01
404	  0.100761525	-7.025000E+00	  0.100761525	5.585200E+01	  0.100761525	5.739500E+01	  0.100761525	5.277600E+01
405	  0.100961931	-7.028000E+00	  0.100961931	5.556000E+01	  0.100961931	5.771000E+01	  0.100961931	5.286200E+01
406	  0.101162329	-7.034000E+00	  0.101162329	5.535800E+01	  0.101162329	5.794000E+01	  0.101162329	5.288700E+01
407	  0.101362728	-7.037000E+00	  0.101362728	5.514600E+01	  0.101362728	5.817400E+01	  0.101362728	5.293700E+01
408	  0.101563133	-7.041000E+00	  0.101563133	5.483400E+01	  0.101563133	5.852000E+01	  0.101563133	5.300900E+01
409	  0.101763532	-7.040000E+00	  0.101763532	5.453500E+01	  0.101763532	5.884300E+01	  0.101763532	5.311200E+01
410	  0.101963930	-7.031000E+00	  0.101963930	5.427300E+01	  0.101963930	5.911000E+01	  0.101963930	5.326200E+01
411	  0.102164336	-7.038000E+00	  0.102164336	5.402100E+01	  0.102164336	5.940200E+01	  0.102164336	5.329700E+01
412	  0.102364734	-7.039000E+00	  0.102364734	5.374300E+01	  0.102364734	5.971200E+01	  0.102364734	5.337800E+01
413	  0.102565132	-7.028000E+00	  0.102565132	5.355600E+01	  0.102565132	5.989800E+01	  0.102565132	5.351300E+01
414	  0.102765530	-7.034000E+00	  0.102765530	5.323000E+01	  0.102765530	6.027700E+01	  0.102765530	5.356900E+01
415	  0.102965929	-7.021000E+00	  0.102965929	5.296100E+01	  0.102965929	6.055500E+01	  0.102965929	5.374800E+01
416	  0.103166327	-7.019000E+00	  0.103166327	5.273800E+01	  0.103166327	6.080500E+01	  0.103166327	5.383200E+01
417	  0.103366733	-7.014000E+00	  0.103366733	5.255300E+01	  0.103366733	6.100700E+01	  0.103366733	5.392400E+01
418	  0.103567131	-6.992000E+00	  0.103567131	5.229800E+01	  0.103567131	6.126000E+01	  0.103567131	5.416400E+01
419	  0.103767529	-6.989000E+00	  0.103767529	5.214100E+01	  0.103767529	6.143500E+01	  0.103767529	5.423500E+01
420	  0.103967935	-6.992000E+00	  0.103967935	5.194800E+01	  0.103967935	6.166700E+01	  0.103967935	5.426300E+01
421	  0.104168333	-6.989000E+00	  0.104168333	5.175000E+01	  0.104168333	6.189100E+01	  0.104168333	5.434800E+01
422	  0.104368731	-6.999000E+00	  0.104368731	5.150900E+01	  0.104368731	6.219400E+01	  0.104368731	5.433700E+01
423	  0.104569137	-6.986000E+00	  0.104569137	5.134000E+01	  0.104569137	6.237100E+01	  0.104569137	5.448500E+01
424	  0.104769535	-6.994000E+00	  0.104769535	5.122100E+01	  0.104769535	6.252700E+01	  0.104769535	5.445400E+01
425	  0.104969934	-6.985000E+00	  0.104969934	5.097400E+01	  0.104969934	6.280600E+01	  0.104969934	5.458700E+01
426	  0.105170339	-7.008000E+00	  0.105170339	5.077300E+01	  0.105170339	6.308500E+01	  0.105170339	5.446200E+01
427	  0.105370738	-6.990000E+00	  0.105370738	5.058600E+01	  0.105370738	6.328000E+01	  0.105370738	5.465600E+01
428	  0.105571143	-7.006000E+00	  0.105571143	5.036600E+01	  0.105571143	6.357400E+01	  0.105571143	5.457700E+01
429	  0.105771542	-7.001000E+00	  0.105771542	5.009500E+01	  0.105771542	6.389400E+01	  0.105771542	5.469000E+01
430	  0.105971940	-7.006000E+00	  0.105971940	4.992600E+01	  0.105971940	6.410900E+01	  0.105971940	5.468800E+01
431	  0.106172346	-7.003000E+00	  0.106172346	4.966000E+01	  0.106172346	6.443100E+01	  0.106172346	5.477500E+01
432	  0.106372744	-7.020000E+00	  0.106372744	4.942400E+01	  0.106372744	6.474800E+01	  0.106372744	5.469600E+01
433	  0.106573142	-7.016000E+00	  0.106573142	4.914100E+01	  0.106573142	6.509400E+01	  0.106573142	5.478600E+01
434	  0.106773548	-7.020000E+00	  0.106773548	4.888700E+01	  0.106773548	6.541600E+01	  0.106773548	5.481100E+01
435	  0.106973946	-7.023000E+00	  0.106973946	4.862300E+01	  0.106973946	6.575100E+01	  0.106973946	5.484400E+01
436	  0.107174344	-7.020000E+00	  0.107174344	4.838000E+01	  0.107174344	6.605400E+01	  0.107174344	5.491700E+01
437	  0.107374750	-7.022000E+00	  0.107374750	4.814100E+01	  0.107374750	6.636000E+01	  0.107374750	5.494400E+01
438	  0.107575148	-7.021000E+00	  0.107575148	4.788500E+01	  0.107575148	6.668600E+01	  0.107575148	5.500000E+01
439	  0.107775547	-7.013000E+00	  0.107775547	4.763900E+01	  0.107775547	6.699200E+01	  0.107775547	5.511700E+01
440	  0.107975952	-7.009000E+00	  0.107975952	4.734400E+01	  0.107975952	6.736800E+01	  0.107975952	5.520700E+01
441	  0.108176351	-7.002000E+00	  0.108176351	4.706600E+01	  0.108176351	6.772400E+01	  0.108176351	5.531200E+01
442	  0.108376749	-7.005000E+00	  0.108376749	4.686400E+01	  0.108376749	6.799100E+01	  0.108376749	5.532400E+01
443	  0.108577155	-7.000000E+00	  0.108577155	4.664800E+01	  0.108577155	6.827000E+01	  0.108577155	5.539900E+01
444	  0.108777553	-6.988000E+00	  0.108777553	4.643600E+01	  0.108777553	6.853800E+01	  0.108777553	5.554100E+01
445	  0.108977959	-6.980000E+00	  0.108977959	4.619900E+01	  0.108977959	6.884600E+01	  0.108977959	5.564600E+01
446	  0.109178357	-6.979000E+00	  0.109178357	4.596800E+01	  0.109178357	6.915500E+01	  0.109178357	5.568600E+01
447	  0.109378755	-6.988000E+00	  0.109378755	4.576000E+01	  0.109378755	6.944300E+01	  0.109378755	5.563200E+01
448	  0.109579161	-6.981000E+00	  0.109579161	4.557800E+01	  0.109579161	6.968300E+01	  0.109579161	5.572200E+01
449	  0.109779559	-6.983000E+00	  0.109779559	4.533400E+01	  0.109779559	7.001700E+01	  0.109779559	5.573600E+01
450	  0.109979957	-6.974000E+00	  0.109979957	4.520500E+01	  0.109979957	7.018600E+01	  0.109979957	5.583400E+01
451	  0.110180363	-6.980000E+00	  0.110180363	4.499500E+01	  0.110180363	7.047800E+01	  0.110180363	5.580100E+01
452	  0.110380761	-6.977000E+00	  0.110380761	4.481700E+01	  0.110380761	7.072100E+01	  0.110380761	5.584900E+01
453	  0.110581160	-6.985000E+00	  0.110581160	4.458900E+01	  0.110581160	7.104100E+01	  0.110581160	5.579800E+01
454	  0.110781565	-6.991000E+00	  0.110781565	4.433800E+01	  0.110781565	7.139200E+01	  0.110781565	5.577000E+01
455	  0.110981964	-6.998000E+00	  0.110981964	4.412200E+01	  0.110981964	7.169800E+01	  0.110981964	5.572100E+01
456	  0.111182362	-7.003000E+00	  0.111182362	4.390800E+01	  0.111182362	7.199900E+01	  0.111182362	5.569200E+01
457	  0.111382768	-7.001000E+00	  0.111382768	4.364600E+01	  0.111382768	7.236600E+01	  0.111382768	5.572800E+01
458	  0.111583166	-7.000000E+00	  0.111583166	4.341300E+01	  0.111583166	7.269500E+01	  0.111583166	5.575500E+01
459	  0.111783572	-7.011000E+00	  0.111783572	4.316800E+01	  0.111783572	7.304500E+01	  0.111783572	5.566300E+01
460	  0.111983970	-7.011000E+00	  0.111983970	4.285800E+01	  0.111983970	7.348700E+01	  0.111983970	5.567200E+01
461	  0.112184368	-7.019000E+00	  0.112184368	4.262000E+01	  0.112184368	7.382900E+01	  0.112184368	5.560600E+01
462	  0.112384774	-7.014000E+00	  0.112384774	4.238300E+01	  0.112384774	7.416800E+01	  0.112384774	5.566200E+01
463	  0.112585172	-7.016000E+00	  0.112585172	4.210000E+01	  0.112585172	7.457700E+01	  0.112585172	5.563900E+01
464	  0.112785570	-7.018000E+00	  0.112785570	4.186000E+01	  0.112785570	7.492600E+01	  0.112785570	5.562800E+01
465	  0.112985976	-7.021000E+00	  0.112985976	4.155700E+01	  0.112985976	7.536800E+01	  0.112985976	5.559600E+01
466	  0.113186374	-7.014000E+00	  0.113186374	4.127200E+01	  0.113186374	7.578700E+01	  0.113186374	5.565000E+01
467	  0.113386773	-7.009000E+00	  0.113386773	4.102800E+01	  0.113386773	7.614900E+01	  0.113386773	5.569700E+01
468	  0.113587178	-7.009000E+00	  0.113587178	4.074100E+01	  0.113587178	7.657500E+01	  0.113587178	5.568600E+01
469	  0.113787577	-7.002000E+00	  0.113787577	4.049800E+01	  0.113787577	7.693900E+01	  0.113787577	5.573900E+01
470	  0.113987975	-6.999000E+00	  0.113987975	4.026500E+01	  0.113987975	7.729000E+01	  0.113987975	5.576100E+01
471	  0.114188381	-7.000000E+00	  0.114188381	4.003200E+01	  0.114188381	7.764200E+01	  0.114188381	5.573400E+01
472	  0.114388779	-6.988000E+00	  0.114388779	3.974100E+01	  0.114388779	7.808800E+01	  0.114388779	5.583000E+01
473	  0.114589177	-6.989000E+00	  0.114589177	3.949700E+01	  0.114589177	7.846000E+01	  0.114589177	5.579500E+01
474	  0.114789583	-6.987000E+00	  0.114789583	3.924600E+01	  0.114789583	7.884600E+01	  0.114789583	5.579500E+01
475	  0.114989981	-6.983000E+00	  0.114989981	3.903200E+01	  0.114989981	7.917800E+01	  0.114989981	5.580500E+01
476	  0.115190387	-6.980000E+00	  0.115190387	3.878900E+01	  0.115190387	7.955600E+01	  0.115190387	5.580500E+01
477	  0.115390785	-6.975000E+00	  0.115390785	3.859500E+01	  0.115390785	7.986200E+01	  0.115390785	5.584100E+01
478	  0.115591183	-6.979000E+00	  0.115591183	3.838100E+01	  0.115591183	8.019100E+01	  0.115591183	5.576800E+01
479	  0.115791589	-6.972000E+00	  0.115791589	3.812000E+01	  0.115791589	8.060700E+01	  0.115791589	5.580100E+01
480	  0.115991987	-6.974000E+00	  0.115991987	3.790200E+01	  0.115991987	8.094900E+01	  0.115991987	5.574800E+01
481	  0.116192386	-6.975000E+00	  0.116192386	3.767800E+01	  0.116192386	8.129900E+01	  0.116192386	5.569700E+01
482	  0.116392791	-6.976000E+00	  0.116392791	3.747000E+01	  0.116392791	8.162700E+01	  0.116392791	5.564300E+01
483	  0.116593190	-6.974000E+00	  0.116593190	3.725300E+01	  0.116593190	8.197500E+01	  0.116593190	5.563000E+01
484	  0.116793588	-6.982000E+00	  0.116793588	3.704900E+01	  0.116793588	8.228900E+01	  0.116793588	5.550400E+01
485	  0.116993994	-6.971000E+00	  0.116993994	3.675800E+01	  0.116993994	8.277000E+01	  0.116993994	5.555100E+01
486	  0.117194392	-6.978000E+00	  0.117194392	3.653100E+01	  0.117194392	8.312400E+01	  0.117194392	5.542900E+01
487	  0.117394790	-6.982000E+00	  0.117394790	3.629600E+01	  0.117394790	8.349700E+01	  0.117394790	5.532900E+01
488	  0.117595196	-6.976000E+00	  0.117595196	3.612300E+01	  0.117595196	8.378600E+01	  0.117595196	5.535200E+01
489	  0.117795594	-6.975000E+00	  0.117795594	3.588700E+01	  0.117795594	8.417000E+01	  0.117795594	5.529900E+01
490	  0.117995992	-6.967000E+00	  0.117995992	3.566500E+01	  0.117995992	8.454700E+01	  0.117995992	5.532800E+01
491	  0.118196398	-6.969000E+00	  0.118196398	3.540900E+01	  0.118196398	8.496100E+01	  0.118196398	5.522700E+01
492	  0.118396796	-6.970000E+00	  0.118396796	3.516800E+01	  0.118396796	8.535500E+01	  0.118396796	5.514700E+01
493	  0.118597202	-6.966000E+00	  0.118597202	3.494100E+01	  0.118597202	8.573900E+01	  0.118597202	5.512600E+01
494	  0.118797600	-6.969000E+00	  0.118797600	3.473300E+01	  0.118797600	8.607400E+01	  0.118797600	5.502100E+01
495	  0.118997999	-6.965000E+00	  0.118997999	3.451800E+01	  0.118997999	8.643900E+01	  0.118997999	5.499100E+01
496	  0.119198404	-6.968000E+00	  0.119198404	3.428800E+01	  0.119198404	8.681600E+01	  0.119198404	5.488500E+01
497	  0.119398803	-6.966000E+00	  0.119398803	3.404600E+01	  0.119398803	8.722300E+01	  0.119398803	5.481600E+01
498	  0.119599201	-6.960000E+00	  0.119599201	3.380600E+01	  0.119599201	8.763800E+01	  0.119599201	5.478800E+01
499	  0.119799607	-6.969000E+00	  0.119799607	3.361200E+01	  0.119799607	8.794100E+01	  0.119799607	5.462000E+01
500	  0.120000005	-6.965000E+00	  0.120000005	3.338000E+01	  0.120000005	8.834200E+01	  0.120000005	5.457500E+01
