! Anritsu VNA Master:             	Model: MS2036C/10/77
! SN:             	1601066
! /card0/usr/18may12.lna.rl/252a.lna.rl.txt
! Existing Calibration Information:
! TYPE:             	Current Settings	Active Cal Settings
! TIME:             	05/12/2018 04:24:43 PM	05/12/2018 04:14:26 PM
! INTERNAL TEMP:    	49.5 C	49.8 C
! # POINTS:         	500	500
! START FREQ:       	20.000 MHz	20.000 MHz
! STOP FREQ:        	120.000 MHz	120.000 MHz
! SOURCE POWER:     	Low	Low
! IFBW:             	10 Hz	10 Hz
! AVG FACTOR:       	  1 	  1 
! REF PLANE 1:      	0 mm	0 mm
! REF PLANE 2:      	0 mm	0 mm
! CAL TYPE:         	Full S22	Full S22
! CAL METHOD:       	SOLT	SOLT
! CAL LINE TYPE:    	Coax	Coax
! DUT PORT 1:       	K-Conn(M)	K-Conn(M)
! DUT PORT 2:       	K-Conn(M)	K-Conn(M)
! CAL STATUS:       	OK: Accuracy High	--
! PROP-V:       	0.700
! CABLE LOSS:       	0.000 dB/m
! REF IMPEDANCE:       	50.0
! Trace Specific Parameters:	TR1	TR2	TR3	TR4
! TRACE.#.Y (GRAPH TYPE)	LOG MAG	PHASE	REAL IMPEDANCE	IMAGINARY IMPEDANCE
! TRACE.#.X 	FREQ.GHZ	FREQ.GHZ	FREQ.GHZ	FREQ.GHZ
! S-PARAMETER	S22	S22	S22	S22
! SMOOTH/APERTURE %	0	0	0	0
! WINDOW	NSL	NSL	NSL	NSL
! GATING	OFF	OFF	OFF	OFF
! FGTD	OFF	OFF	OFF	OFF
Marker Information per Trace:	TR1	TR2	TR3	TR4
!MK1	--	"MK1 TR2:  12.184 368 MHz,##.##"	--	--
!MK2	--	--	"MK2 TR3:  12.184 368 MHz,##.##"	--
!MK3	--	--	--	--
!MK4	--	--	--	--
!MK5	--	--	--	--
!MK6	--	--	--	--
!MK7	--	--	--	--
!MK8	--	--	--	--
PNT	TR1.FREQ.GHZ	TR1.LOG MAG.dB	TR2.FREQ.GHZ	TR2.PHASE.deg	TR3.FREQ.GHZ	TR3.REAL IMPEDANCE.ohm	TR4.FREQ.GHZ	TR4.IMAGINARY IMPEDANCE.ohm
1	  0.020000000	-2.118700E+01	  0.020000000	4.207700E+01	  0.020000000	5.650600E+01	  0.020000000	6.656000E+00
2	  0.020200402	-2.125700E+01	  0.020200402	3.883200E+01	  0.020200402	5.686500E+01	  0.020200402	6.216000E+00
3	  0.020400802	-2.112000E+01	  0.020400802	3.634800E+01	  0.020400802	5.728100E+01	  0.020400802	6.014000E+00
4	  0.020601204	-2.121200E+01	  0.020601204	3.426100E+01	  0.020601204	5.744500E+01	  0.020601204	5.667000E+00
5	  0.020801604	-2.120800E+01	  0.020801604	3.104300E+01	  0.020801604	5.780100E+01	  0.020801604	5.226000E+00
6	  0.021002004	-2.124600E+01	  0.021002004	2.861300E+01	  0.021002004	5.801300E+01	  0.021002004	4.850000E+00
7	  0.021202406	-2.132000E+01	  0.021202406	2.575200E+01	  0.021202406	5.820700E+01	  0.021202406	4.376000E+00
8	  0.021402806	-2.129000E+01	  0.021402806	2.310600E+01	  0.021402806	5.846300E+01	  0.021402806	3.984000E+00
9	  0.021603208	-2.125700E+01	  0.021603208	1.958200E+01	  0.021603208	5.876700E+01	  0.021603208	3.434000E+00
10	  0.021803608	-2.118900E+01	  0.021803608	1.706600E+01	  0.021803608	5.900900E+01	  0.021803608	3.043000E+00
11	  0.022004008	-2.125900E+01	  0.022004008	1.402400E+01	  0.022004008	5.910300E+01	  0.022004008	2.496000E+00
12	  0.022204408	-2.118700E+01	  0.022204408	1.116700E+01	  0.022204408	5.932000E+01	  0.022204408	2.019000E+00
13	  0.022404809	-2.128300E+01	  0.022404809	8.168000E+00	  0.022404809	5.931500E+01	  0.022404809	1.464000E+00
14	  0.022605211	-2.118400E+01	  0.022605211	5.202000E+00	  0.022605211	5.950800E+01	  0.022605211	9.480000E-01
15	  0.022805611	-2.119800E+01	  0.022805611	1.598000E+00	  0.022805611	5.953700E+01	  0.022805611	2.910000E-01
16	  0.023006011	-2.114800E+01	  0.023006011	-9.100000E-01	  0.023006011	5.960100E+01	  0.023006011	-1.670000E-01
17	  0.023206413	-2.128800E+01	  0.023206413	-5.367000E+00	  0.023206413	5.938000E+01	  0.023206413	-9.640000E-01
18	  0.023406813	-2.102100E+01	  0.023406813	-8.508000E+00	  0.023406813	5.961700E+01	  0.023406813	-1.580000E+00
19	  0.023607215	-2.120200E+01	  0.023607215	-1.219600E+01	  0.023607215	5.925700E+01	  0.023607215	-2.196000E+00
20	  0.023807615	-2.112400E+01	  0.023807615	-1.597700E+01	  0.023807615	5.914800E+01	  0.023807615	-2.883000E+00
21	  0.024008015	-2.112700E+01	  0.024008015	-1.928800E+01	  0.024008015	5.892900E+01	  0.024008015	-3.445000E+00
22	  0.024208417	-2.104000E+01	  0.024208417	-2.380400E+01	  0.024208417	5.866800E+01	  0.024208417	-4.234000E+00
23	  0.024408817	-2.106000E+01	  0.024408817	-2.779000E+01	  0.024408817	5.827800E+01	  0.024408817	-4.847000E+00
24	  0.024609219	-2.108700E+01	  0.024609219	-3.176800E+01	  0.024609219	5.783700E+01	  0.024609219	-5.415000E+00
25	  0.024809619	-2.094700E+01	  0.024809619	-3.719500E+01	  0.024809619	5.732600E+01	  0.024809619	-6.265000E+00
26	  0.025010020	-2.092700E+01	  0.025010020	-4.058000E+01	  0.025010020	5.690400E+01	  0.025010020	-6.707000E+00
27	  0.025210422	-2.089200E+01	  0.025210422	-4.569700E+01	  0.025210422	5.622100E+01	  0.025210422	-7.320000E+00
28	  0.025410822	-2.090700E+01	  0.025410822	-5.039700E+01	  0.025410822	5.551900E+01	  0.025410822	-7.769000E+00
29	  0.025611224	-2.088200E+01	  0.025611224	-5.623800E+01	  0.025611224	5.463100E+01	  0.025611224	-8.273000E+00
30	  0.025811624	-2.085800E+01	  0.025811624	-6.178000E+01	  0.025811624	5.375300E+01	  0.025811624	-8.652000E+00
31	  0.026012026	-2.086700E+01	  0.026012026	-6.710800E+01	  0.026012026	5.288000E+01	  0.026012026	-8.889000E+00
32	  0.026212426	-2.090800E+01	  0.026212426	-7.312100E+01	  0.026212426	5.188700E+01	  0.026212426	-9.017000E+00
33	  0.026412826	-2.082500E+01	  0.026412826	-7.932100E+01	  0.026412826	5.088000E+01	  0.026412826	-9.168000E+00
34	  0.026613226	-2.079700E+01	  0.026613226	-8.569900E+01	  0.026613226	4.985100E+01	  0.026613226	-9.146000E+00
35	  0.026813626	-2.105800E+01	  0.026813626	-9.329200E+01	  0.026813626	4.873000E+01	  0.026813626	-8.681000E+00
36	  0.027014028	-2.121200E+01	  0.027014028	-9.979100E+01	  0.027014028	4.784400E+01	  0.027014028	-8.263000E+00
37	  0.027214428	-2.120700E+01	  0.027214428	-1.083900E+02	  0.027214428	4.670300E+01	  0.027214428	-7.772000E+00
38	  0.027414829	-2.151400E+01	  0.027414829	-1.151790E+02	  0.027414829	4.603200E+01	  0.027414829	-7.048000E+00
39	  0.027615231	-2.179400E+01	  0.027615231	-1.235390E+02	  0.027615231	4.529800E+01	  0.027615231	-6.182000E+00
40	  0.027815631	-2.208400E+01	  0.027815631	-1.320520E+02	  0.027815631	4.470300E+01	  0.027815631	-5.254000E+00
41	  0.028016033	-2.243000E+01	  0.028016033	-1.400270E+02	  0.028016033	4.432500E+01	  0.028016033	-4.329000E+00
42	  0.028216433	-2.312700E+01	  0.028216433	-1.476460E+02	  0.028216433	4.431700E+01	  0.028216433	-3.325000E+00
43	  0.028416833	-2.374000E+01	  0.028416833	-1.549840E+02	  0.028416833	4.437200E+01	  0.028416833	-2.450000E+00
44	  0.028617235	-2.439400E+01	  0.028617235	-1.640780E+02	  0.028617235	4.449600E+01	  0.028617235	-1.477000E+00
45	  0.028817635	-2.501000E+01	  0.028817635	-1.702850E+02	  0.028817635	4.474600E+01	  0.028817635	-8.500000E-01
46	  0.029018037	-2.584600E+01	  0.029018037	-1.780940E+02	  0.029018037	4.514800E+01	  0.029018037	-1.530000E-01
47	  0.029218437	-2.651200E+01	  0.029218437	1.767110E+02	  0.029218437	4.549400E+01	  0.029218437	2.470000E-01
48	  0.029418837	-2.748500E+01	  0.029418837	1.704380E+02	  0.029418837	4.599600E+01	  0.029418837	6.460000E-01
49	  0.029619239	-2.847700E+01	  0.029619239	1.634360E+02	  0.029619239	4.650300E+01	  0.029619239	1.000000E+00
50	  0.029819639	-2.910900E+01	  0.029819639	1.596420E+02	  0.029819639	4.680600E+01	  0.029819639	1.142000E+00
51	  0.030020041	-2.982800E+01	  0.030020041	1.555530E+02	  0.030020041	4.713100E+01	  0.030020041	1.259000E+00
52	  0.030220442	-3.090200E+01	  0.030220442	1.538850E+02	  0.030220442	4.749000E+01	  0.030220442	1.192000E+00
53	  0.030420844	-3.203300E+01	  0.030420844	1.476150E+02	  0.030420844	4.791300E+01	  0.030420844	1.285000E+00
54	  0.030621244	-3.260300E+01	  0.030621244	1.477090E+02	  0.030621244	4.804200E+01	  0.030621244	1.203000E+00
55	  0.030821644	-3.369100E+01	  0.030821644	1.451740E+02	  0.030821644	4.831700E+01	  0.030821644	1.141000E+00
56	  0.031022044	-3.434200E+01	  0.031022044	1.441840E+02	  0.031022044	4.845600E+01	  0.031022044	1.088000E+00
57	  0.031222444	-3.469100E+01	  0.031222444	1.452010E+02	  0.031222444	4.849800E+01	  0.031222444	1.020000E+00
58	  0.031422846	-3.521100E+01	  0.031422846	1.438000E+02	  0.031422846	4.860800E+01	  0.031422846	9.960000E-01
59	  0.031623244	-3.626300E+01	  0.031623244	1.429680E+02	  0.031623244	4.877900E+01	  0.031623244	9.030000E-01
60	  0.031823646	-3.734000E+01	  0.031823646	1.403950E+02	  0.031823646	4.895700E+01	  0.031823646	8.470000E-01
61	  0.032024048	-3.757300E+01	  0.032024048	1.452730E+02	  0.032024048	4.891900E+01	  0.032024048	7.370000E-01
62	  0.032224450	-3.793600E+01	  0.032224450	1.449990E+02	  0.032224450	4.896600E+01	  0.032224450	7.120000E-01
63	  0.032424849	-3.704300E+01	  0.032424849	1.486120E+02	  0.032424849	4.880900E+01	  0.032424849	7.140000E-01
64	  0.032625251	-3.791100E+01	  0.032625251	1.498010E+02	  0.032625251	4.890800E+01	  0.032625251	6.250000E-01
65	  0.032825653	-3.795300E+01	  0.032825653	1.505450E+02	  0.032825653	4.890600E+01	  0.032825653	6.080000E-01
66	  0.033026051	-3.736700E+01	  0.033026051	1.512750E+02	  0.033026051	4.882200E+01	  0.033026051	6.350000E-01
67	  0.033226453	-3.739700E+01	  0.033226453	1.506360E+02	  0.033226453	4.883300E+01	  0.033226453	6.460000E-01
68	  0.033426855	-3.687200E+01	  0.033426855	1.508050E+02	  0.033426855	4.875900E+01	  0.033426855	6.820000E-01
69	  0.033627257	-3.697200E+01	  0.033627257	1.493910E+02	  0.033627257	4.879000E+01	  0.033627257	7.040000E-01
70	  0.033827655	-3.657100E+01	  0.033827655	1.533110E+02	  0.033827655	4.868700E+01	  0.033827655	6.490000E-01
71	  0.034028057	-3.764800E+01	  0.034028057	1.479670E+02	  0.034028057	4.889600E+01	  0.034028057	6.800000E-01
72	  0.034228459	-3.684600E+01	  0.034228459	1.507530E+02	  0.034228459	4.875600E+01	  0.034228459	6.850000E-01
73	  0.034428857	-3.624700E+01	  0.034428857	1.433140E+02	  0.034428857	4.877100E+01	  0.034428857	8.970000E-01
74	  0.034629259	-3.610200E+01	  0.034629259	1.404240E+02	  0.034629259	4.879700E+01	  0.034629259	9.740000E-01
75	  0.034829661	-3.623600E+01	  0.034829661	1.457150E+02	  0.034829661	4.873400E+01	  0.034829661	8.470000E-01
76	  0.035030060	-3.566600E+01	  0.035030060	1.417780E+02	  0.035030060	4.871200E+01	  0.035030060	9.930000E-01
77	  0.035230462	-3.657400E+01	  0.035230462	1.413140E+02	  0.035230462	4.884600E+01	  0.035230462	9.060000E-01
78	  0.035430863	-3.638300E+01	  0.035430863	1.364760E+02	  0.035430863	4.890100E+01	  0.035430863	1.021000E+00
79	  0.035631265	-3.576600E+01	  0.035631265	1.391830E+02	  0.035631265	4.877100E+01	  0.035631265	1.038000E+00
80	  0.035831664	-3.567900E+01	  0.035831664	1.352700E+02	  0.035831664	4.883200E+01	  0.035831664	1.130000E+00
81	  0.036032066	-3.571100E+01	  0.036032066	1.348280E+02	  0.036032066	4.884500E+01	  0.036032066	1.135000E+00
82	  0.036232468	-3.572000E+01	  0.036232468	1.335990E+02	  0.036232468	4.887000E+01	  0.036232468	1.158000E+00
83	  0.036432866	-3.537000E+01	  0.036432866	1.318830E+02	  0.036432866	4.885900E+01	  0.036432866	1.239000E+00
84	  0.036633268	-3.637400E+01	  0.036633268	1.327600E+02	  0.036633268	4.896700E+01	  0.036633268	1.091000E+00
85	  0.036833670	-3.509600E+01	  0.036833670	1.285490E+02	  0.036833670	4.889700E+01	  0.036833670	1.345000E+00
86	  0.037034072	-3.594900E+01	  0.037034072	1.284990E+02	  0.037034072	4.900200E+01	  0.037034072	1.223000E+00
87	  0.037234470	-3.599700E+01	  0.037234470	1.310920E+02	  0.037234470	4.895400E+01	  0.037234470	1.170000E+00
88	  0.037434869	-3.517100E+01	  0.037434869	1.274770E+02	  0.037434869	4.893100E+01	  0.037434869	1.354000E+00
89	  0.037635271	-3.571800E+01	  0.037635271	1.218250E+02	  0.037635271	4.912500E+01	  0.037635271	1.367000E+00
90	  0.037835669	-3.588400E+01	  0.037835669	1.229970E+02	  0.037835669	4.911500E+01	  0.037835669	1.323000E+00
91	  0.038036071	-3.557400E+01	  0.038036071	1.228260E+02	  0.038036071	4.908600E+01	  0.038036071	1.373000E+00
92	  0.038236473	-3.580400E+01	  0.038236473	1.208090E+02	  0.038236473	4.915700E+01	  0.038236473	1.369000E+00
93	  0.038436871	-3.590500E+01	  0.038436871	1.210660E+02	  0.038436871	4.916100E+01	  0.038436871	1.349000E+00
94	  0.038637273	-3.591500E+01	  0.038637273	1.238290E+02	  0.038637273	4.909900E+01	  0.038637273	1.305000E+00
95	  0.038837675	-3.585700E+01	  0.038837675	1.212930E+02	  0.038837675	4.915100E+01	  0.038837675	1.353000E+00
96	  0.039038073	-3.485100E+01	  0.039038073	1.222520E+02	  0.039038073	4.902100E+01	  0.039038073	1.500000E+00
97	  0.039238475	-3.578100E+01	  0.039238475	1.177660E+02	  0.039238475	4.922800E+01	  0.039238475	1.416000E+00
98	  0.039438877	-3.571500E+01	  0.039438877	1.167920E+02	  0.039438877	4.924600E+01	  0.039438877	1.440000E+00
99	  0.039639279	-3.567800E+01	  0.039639279	1.190930E+02	  0.039639279	4.918600E+01	  0.039639279	1.414000E+00
100	  0.039839678	-3.573300E+01	  0.039839678	1.159820E+02	  0.039839678	4.926700E+01	  0.039839678	1.447000E+00
101	  0.040040080	-3.650100E+01	  0.040040080	1.155360E+02	  0.040040080	4.934100E+01	  0.040040080	1.332000E+00
102	  0.040240481	-3.545300E+01	  0.040240481	1.182710E+02	  0.040240481	4.918500E+01	  0.040240481	1.462000E+00
103	  0.040440880	-3.564100E+01	  0.040440880	1.153820E+02	  0.040440880	4.927500E+01	  0.040440880	1.470000E+00
104	  0.040641282	-3.622300E+01	  0.040641282	1.169200E+02	  0.040641282	4.928600E+01	  0.040641282	1.357000E+00
105	  0.040841684	-3.563400E+01	  0.040841684	1.156890E+02	  0.040841684	4.926600E+01	  0.040841684	1.468000E+00
106	  0.041042086	-3.596100E+01	  0.041042086	1.181000E+02	  0.041042086	4.923600E+01	  0.041042086	1.383000E+00
107	  0.041242484	-3.563300E+01	  0.041242484	1.168240E+02	  0.041242484	4.923800E+01	  0.041242484	1.453000E+00
108	  0.041442886	-3.614000E+01	  0.041442886	1.150180E+02	  0.041442886	4.932500E+01	  0.041442886	1.394000E+00
109	  0.041643288	-3.587600E+01	  0.041643288	1.158010E+02	  0.041643288	4.928400E+01	  0.041643288	1.426000E+00
110	  0.041843686	-3.581500E+01	  0.041843686	1.204240E+02	  0.041843686	4.916700E+01	  0.041843686	1.373000E+00
111	  0.042044088	-3.583800E+01	  0.042044088	1.217630E+02	  0.042044088	4.913800E+01	  0.042044088	1.349000E+00
112	  0.042244490	-3.551900E+01	  0.042244490	1.188180E+02	  0.042244490	4.917800E+01	  0.042244490	1.443000E+00
113	  0.042444889	-3.559200E+01	  0.042444889	1.177890E+02	  0.042444889	4.921000E+01	  0.042444889	1.446000E+00
114	  0.042645290	-3.503600E+01	  0.042645290	1.147440E+02	  0.042645290	4.923800E+01	  0.042645290	1.584000E+00
115	  0.042845692	-3.565900E+01	  0.042845692	1.167910E+02	  0.042845692	4.924100E+01	  0.042845692	1.449000E+00
116	  0.043046094	-3.558400E+01	  0.043046094	1.157000E+02	  0.043046094	4.926200E+01	  0.043046094	1.476000E+00
117	  0.043246493	-3.532500E+01	  0.043246493	1.191200E+02	  0.043246493	4.915100E+01	  0.043246493	1.471000E+00
118	  0.043446895	-3.513800E+01	  0.043446895	1.177090E+02	  0.043446895	4.916900E+01	  0.043446895	1.524000E+00
119	  0.043647297	-3.478600E+01	  0.043647297	1.149740E+02	  0.043647297	4.920900E+01	  0.043647297	1.626000E+00
120	  0.043847695	-3.533200E+01	  0.043847695	1.192320E+02	  0.043847695	4.914900E+01	  0.043847695	1.468000E+00
121	  0.044048097	-3.440600E+01	  0.044048097	1.153730E+02	  0.044048097	4.916100E+01	  0.044048097	1.692000E+00
122	  0.044248499	-3.485200E+01	  0.044248499	1.164410E+02	  0.044248499	4.917500E+01	  0.044248499	1.593000E+00
123	  0.044448901	-3.424100E+01	  0.044448901	1.171910E+02	  0.044448901	4.909100E+01	  0.044448901	1.695000E+00
124	  0.044649299	-3.465500E+01	  0.044649299	1.200600E+02	  0.044649299	4.905600E+01	  0.044649299	1.571000E+00
125	  0.044849701	-3.408000E+01	  0.044849701	1.171370E+02	  0.044849701	4.907600E+01	  0.044849701	1.727000E+00
126	  0.045050103	-3.400500E+01	  0.045050103	1.146550E+02	  0.045050103	4.914300E+01	  0.045050103	1.781000E+00
127	  0.045250501	-3.428500E+01	  0.045250501	1.152460E+02	  0.045250501	4.915300E+01	  0.045250501	1.717000E+00
128	  0.045450903	-3.420000E+01	  0.045450903	1.180720E+02	  0.045450903	4.906100E+01	  0.045450903	1.688000E+00
129	  0.045651305	-3.424900E+01	  0.045651305	1.146750E+02	  0.045651305	4.916600E+01	  0.045651305	1.732000E+00
130	  0.045851704	-3.335500E+01	  0.045851704	1.160040E+02	  0.045851704	4.903000E+01	  0.045851704	1.894000E+00
131	  0.046052106	-3.303400E+01	  0.046052106	1.172370E+02	  0.046052106	4.895100E+01	  0.046052106	1.942000E+00
132	  0.046252504	-3.340600E+01	  0.046252504	1.159820E+02	  0.046252504	4.903600E+01	  0.046252504	1.884000E+00
133	  0.046452906	-3.343300E+01	  0.046452906	1.154160E+02	  0.046452906	4.905800E+01	  0.046452906	1.888000E+00
134	  0.046653304	-3.341400E+01	  0.046653304	1.092760E+02	  0.046653304	4.926000E+01	  0.046653304	1.985000E+00
135	  0.046853706	-3.265600E+01	  0.046853706	1.132420E+02	  0.046853706	4.904400E+01	  0.046853706	2.100000E+00
136	  0.047054108	-3.293900E+01	  0.047054108	1.121240E+02	  0.047054108	4.911500E+01	  0.047054108	2.052000E+00
137	  0.047254506	-3.287000E+01	  0.047254506	1.122200E+02	  0.047254506	4.910400E+01	  0.047254506	2.067000E+00
138	  0.047454908	-3.283900E+01	  0.047454908	1.129180E+02	  0.047454908	4.907600E+01	  0.047454908	2.062000E+00
139	  0.047655310	-3.253800E+01	  0.047655310	1.095510E+02	  0.047655310	4.916700E+01	  0.047655310	2.188000E+00
140	  0.047855709	-3.213400E+01	  0.047855709	1.128740E+02	  0.047855709	4.899700E+01	  0.047855709	2.234000E+00
141	  0.048056111	-3.203500E+01	  0.048056111	1.087130E+02	  0.048056111	4.914900E+01	  0.048056111	2.330000E+00
142	  0.048256513	-3.182800E+01	  0.048256513	1.077360E+02	  0.048256513	4.916700E+01	  0.048256513	2.401000E+00
143	  0.048456915	-3.185100E+01	  0.048456915	1.066740E+02	  0.048456915	4.921300E+01	  0.048456915	2.410000E+00
144	  0.048657313	-3.168800E+01	  0.048657313	1.069960E+02	  0.048657313	4.918400E+01	  0.048657313	2.451000E+00
145	  0.048857715	-3.183900E+01	  0.048857715	1.084620E+02	  0.048857715	4.913800E+01	  0.048857715	2.386000E+00
146	  0.049058117	-3.141100E+01	  0.049058117	1.072180E+02	  0.049058117	4.914600E+01	  0.049058117	2.525000E+00
147	  0.049258515	-3.179600E+01	  0.049258515	1.059030E+02	  0.049258515	4.924000E+01	  0.049258515	2.436000E+00
148	  0.049458917	-3.135000E+01	  0.049458917	1.035300E+02	  0.049458917	4.930200E+01	  0.049458917	2.597000E+00
149	  0.049659319	-3.148100E+01	  0.049659319	1.044080E+02	  0.049659319	4.927500E+01	  0.049659319	2.546000E+00
150	  0.049859721	-3.118700E+01	  0.049859721	1.034420E+02	  0.049859721	4.929200E+01	  0.049859721	2.646000E+00
151	  0.050060119	-3.092200E+01	  0.050060119	1.015990E+02	  0.050060119	4.935500E+01	  0.050060119	2.751000E+00
152	  0.050260521	-3.117200E+01	  0.050260521	1.020400E+02	  0.050260521	4.935500E+01	  0.050260521	2.669000E+00
153	  0.050460923	-3.087100E+01	  0.050460923	1.000820E+02	  0.050460923	4.942300E+01	  0.050460923	2.785000E+00
154	  0.050661322	-3.078300E+01	  0.050661322	1.015820E+02	  0.050661322	4.934400E+01	  0.050661322	2.796000E+00
155	  0.050861724	-3.085300E+01	  0.050861724	9.895500E+01	  0.050861724	4.947600E+01	  0.050861724	2.804000E+00
156	  0.051062126	-3.073400E+01	  0.051062126	9.883600E+01	  0.051062126	4.947400E+01	  0.051062126	2.843000E+00
157	  0.051262524	-3.058100E+01	  0.051262524	9.680700E+01	  0.051262524	4.956500E+01	  0.051262524	2.913000E+00
158	  0.051462926	-3.075700E+01	  0.051462926	9.819800E+01	  0.051462926	4.950700E+01	  0.051462926	2.842000E+00
159	  0.051663328	-3.018400E+01	  0.051663328	9.411400E+01	  0.051663328	4.968300E+01	  0.051663328	3.071000E+00
160	  0.051863730	-3.031800E+01	  0.051863730	9.293300E+01	  0.051863730	4.975200E+01	  0.051863730	3.032000E+00
161	  0.052064128	-3.049900E+01	  0.052064128	9.302200E+01	  0.052064128	4.975400E+01	  0.052064128	2.969000E+00
162	  0.052264530	-3.031800E+01	  0.052264530	9.325000E+01	  0.052264530	4.973500E+01	  0.052264530	3.030000E+00
163	  0.052464932	-3.013000E+01	  0.052464932	9.057100E+01	  0.052464932	4.987200E+01	  0.052464932	3.110000E+00
164	  0.052665330	-3.026700E+01	  0.052665330	9.018700E+01	  0.052665330	4.989600E+01	  0.052665330	3.062000E+00
165	  0.052865732	-3.032200E+01	  0.052865732	8.741700E+01	  0.052865732	5.004400E+01	  0.052865732	3.049000E+00
166	  0.053066134	-3.008000E+01	  0.053066134	8.890500E+01	  0.053066134	4.996100E+01	  0.053066134	3.133000E+00
167	  0.053266536	-3.012000E+01	  0.053266536	8.660000E+01	  0.053266536	5.008700E+01	  0.053266536	3.121000E+00
168	  0.053466935	-3.008700E+01	  0.053466935	8.854200E+01	  0.053466935	4.998100E+01	  0.053466935	3.131000E+00
169	  0.053667337	-2.997200E+01	  0.053667337	8.638700E+01	  0.053667337	5.009900E+01	  0.053667337	3.175000E+00
170	  0.053867739	-3.022300E+01	  0.053867739	8.521600E+01	  0.053867739	5.016200E+01	  0.053867739	3.084000E+00
171	  0.054068137	-2.986600E+01	  0.054068137	8.373300E+01	  0.054068137	5.024800E+01	  0.054068137	3.211000E+00
172	  0.054268539	-3.021100E+01	  0.054268539	8.264300E+01	  0.054268539	5.030200E+01	  0.054268539	3.082000E+00
173	  0.054468941	-3.031700E+01	  0.054468941	8.153500E+01	  0.054468941	5.035800E+01	  0.054468941	3.040000E+00
174	  0.054669339	-3.014400E+01	  0.054669339	8.161600E+01	  0.054669339	5.035900E+01	  0.054669339	3.101000E+00
175	  0.054869737	-3.001900E+01	  0.054869737	8.086100E+01	  0.054869737	5.040500E+01	  0.054869737	3.143000E+00
176	  0.055070139	-2.969500E+01	  0.055070139	7.914800E+01	  0.055070139	5.051500E+01	  0.055070139	3.253000E+00
177	  0.055270538	-3.012200E+01	  0.055270538	7.819800E+01	  0.055270538	5.054600E+01	  0.055270538	3.088000E+00
178	  0.055470940	-3.034100E+01	  0.055470940	7.589200E+01	  0.055470940	5.065700E+01	  0.055470940	2.990000E+00
179	  0.055671342	-3.020400E+01	  0.055671342	7.583400E+01	  0.055671342	5.066900E+01	  0.055671342	3.037000E+00
180	  0.055871744	-3.027400E+01	  0.055871744	7.520900E+01	  0.055871744	5.069800E+01	  0.055871744	3.006000E+00
181	  0.056072142	-3.033300E+01	  0.056072142	7.600600E+01	  0.056072142	5.065200E+01	  0.056072142	2.994000E+00
182	  0.056272544	-3.002900E+01	  0.056272544	7.590600E+01	  0.056272544	5.067700E+01	  0.056272544	3.101000E+00
183	  0.056472946	-3.029400E+01	  0.056472946	7.294900E+01	  0.056472946	5.081600E+01	  0.056472946	2.972000E+00
184	  0.056673344	-3.037900E+01	  0.056673344	7.350400E+01	  0.056673344	5.078000E+01	  0.056673344	2.950000E+00
185	  0.056873746	-3.074800E+01	  0.056873746	7.263900E+01	  0.056873746	5.079400E+01	  0.056873746	2.815000E+00
186	  0.057074148	-3.047900E+01	  0.057074148	7.211400E+01	  0.057074148	5.084400E+01	  0.057074148	2.898000E+00
187	  0.057274550	-3.063000E+01	  0.057274550	7.095100E+01	  0.057274550	5.088900E+01	  0.057274550	2.831000E+00
188	  0.057474948	-3.042000E+01	  0.057474948	6.932700E+01	  0.057474948	5.099300E+01	  0.057474948	2.877000E+00
189	  0.057675350	-3.056300E+01	  0.057675350	6.637300E+01	  0.057675350	5.112500E+01	  0.057675350	2.778000E+00
190	  0.057875752	-3.076500E+01	  0.057875752	6.724500E+01	  0.057875752	5.105800E+01	  0.057875752	2.728000E+00
191	  0.058076151	-3.092200E+01	  0.058076151	6.534700E+01	  0.058076151	5.113100E+01	  0.058076151	2.645000E+00
192	  0.058276553	-3.071700E+01	  0.058276553	6.722000E+01	  0.058276553	5.106500E+01	  0.058276553	2.744000E+00
193	  0.058476955	-3.110600E+01	  0.058476955	6.542000E+01	  0.058476955	5.110500E+01	  0.058476955	2.589000E+00
194	  0.058677353	-3.104700E+01	  0.058677353	6.571400E+01	  0.058677353	5.109800E+01	  0.058677353	2.613000E+00
195	  0.058877755	-3.100100E+01	  0.058877755	6.525100E+01	  0.058877755	5.112500E+01	  0.058877755	2.618000E+00
196	  0.059078157	-3.126100E+01	  0.059078157	6.420800E+01	  0.059078157	5.114100E+01	  0.059078157	2.520000E+00
197	  0.059278559	-3.130400E+01	  0.059278559	6.231600E+01	  0.059278559	5.122000E+01	  0.059278559	2.470000E+00
198	  0.059478957	-3.115900E+01	  0.059478957	6.381100E+01	  0.059478957	5.117200E+01	  0.059478957	2.543000E+00
199	  0.059679359	-3.150500E+01	  0.059679359	6.019800E+01	  0.059679359	5.128300E+01	  0.059679359	2.368000E+00
200	  0.059879761	-3.141900E+01	  0.059879761	6.255900E+01	  0.059879761	5.119400E+01	  0.059879761	2.442000E+00
201	  0.060080159	-3.180700E+01	  0.060080159	5.802400E+01	  0.060080159	5.132900E+01	  0.060080159	2.237000E+00
202	  0.060280561	-3.184700E+01	  0.060280561	6.127200E+01	  0.060280561	5.119100E+01	  0.060280561	2.296000E+00
203	  0.060480963	-3.213000E+01	  0.060480963	6.063800E+01	  0.060480963	5.117900E+01	  0.060480963	2.208000E+00
204	  0.060681365	-3.231700E+01	  0.060681365	6.110500E+01	  0.060681365	5.113700E+01	  0.060681365	2.169000E+00
205	  0.060881764	-3.284600E+01	  0.060881764	5.752800E+01	  0.060881764	5.120000E+01	  0.060881764	1.969000E+00
206	  0.061082166	-3.220900E+01	  0.061082166	6.128600E+01	  0.061082166	5.114400E+01	  0.061082166	2.201000E+00
207	  0.061282568	-3.243900E+01	  0.061282568	5.708700E+01	  0.061282568	5.127200E+01	  0.061282568	2.056000E+00
208	  0.061482966	-3.314200E+01	  0.061482966	5.906800E+01	  0.061482966	5.110800E+01	  0.061482966	1.931000E+00
209	  0.061683368	-3.309700E+01	  0.061683368	6.026600E+01	  0.061683368	5.107100E+01	  0.061683368	1.964000E+00
210	  0.061883770	-3.313800E+01	  0.061883770	5.757300E+01	  0.061883770	5.115900E+01	  0.061883770	1.903000E+00
211	  0.062084168	-3.334400E+01	  0.062084168	5.681100E+01	  0.062084168	5.115800E+01	  0.062084168	1.843000E+00
212	  0.062284570	-3.324900E+01	  0.062284570	5.991500E+01	  0.062284570	5.106500E+01	  0.062284570	1.923000E+00
213	  0.062484972	-3.347800E+01	  0.062484972	6.315700E+01	  0.062484972	5.092900E+01	  0.062484972	1.926000E+00
214	  0.062685370	-3.409300E+01	  0.062685370	6.090500E+01	  0.062685370	5.093800E+01	  0.062685370	1.757000E+00
215	  0.062885776	-3.371600E+01	  0.062885776	6.324200E+01	  0.062885776	5.090100E+01	  0.062885776	1.874000E+00
216	  0.063086174	-3.395000E+01	  0.063086174	5.916700E+01	  0.063086174	5.100800E+01	  0.063086174	1.758000E+00
217	  0.063286573	-3.466600E+01	  0.063286573	6.248200E+01	  0.063286573	5.083300E+01	  0.063286573	1.666000E+00
218	  0.063486971	-3.392300E+01	  0.063486971	5.944700E+01	  0.063486971	5.100200E+01	  0.063486971	1.768000E+00
219	  0.063687377	-3.444700E+01	  0.063687377	6.351000E+01	  0.063687377	5.082200E+01	  0.063687377	1.724000E+00
220	  0.063887775	-3.505000E+01	  0.063887775	6.029400E+01	  0.063887775	5.085900E+01	  0.063887775	1.562000E+00
221	  0.064088173	-3.465400E+01	  0.064088173	6.241600E+01	  0.064088173	5.083600E+01	  0.064088173	1.668000E+00
222	  0.064288579	-3.508200E+01	  0.064288579	6.584400E+01	  0.064288579	5.069900E+01	  0.064288579	1.630000E+00
223	  0.064488977	-3.517000E+01	  0.064488977	6.620700E+01	  0.064488977	5.068200E+01	  0.064488977	1.617000E+00
224	  0.064689375	-3.521300E+01	  0.064689375	6.888800E+01	  0.064689375	5.060200E+01	  0.064689375	1.638000E+00
225	  0.064889781	-3.514700E+01	  0.064889781	6.795400E+01	  0.064889781	5.063300E+01	  0.064889781	1.641000E+00
226	  0.065090179	-3.455100E+01	  0.065090179	7.784000E+01	  0.065090179	5.036200E+01	  0.065090179	1.844000E+00
227	  0.065290578	-3.519800E+01	  0.065290578	7.012700E+01	  0.065290578	5.056700E+01	  0.065290578	1.653000E+00
228	  0.065490983	-3.484900E+01	  0.065490983	7.385800E+01	  0.065490983	5.047400E+01	  0.065490983	1.755000E+00
229	  0.065691382	-3.503800E+01	  0.065691382	7.542300E+01	  0.065691382	5.041700E+01	  0.065691382	1.728000E+00
230	  0.065891780	-3.577900E+01	  0.065891780	7.789300E+01	  0.065891780	5.031600E+01	  0.065891780	1.599000E+00
231	  0.066092186	-3.532800E+01	  0.066092186	8.142900E+01	  0.066092186	5.022600E+01	  0.066092186	1.701000E+00
232	  0.066292584	-3.558000E+01	  0.066292584	8.320000E+01	  0.066292584	5.016900E+01	  0.066292584	1.657000E+00
233	  0.066492982	-3.490200E+01	  0.066492982	8.859900E+01	  0.066492982	5.001100E+01	  0.066492982	1.798000E+00
234	  0.066693388	-3.564300E+01	  0.066693388	8.447700E+01	  0.066693388	5.013200E+01	  0.066693388	1.648000E+00
235	  0.066893786	-3.490500E+01	  0.066893786	8.424300E+01	  0.066893786	5.014800E+01	  0.066893786	1.794000E+00
236	  0.067094192	-3.557300E+01	  0.067094192	9.315000E+01	  0.067094192	4.988100E+01	  0.067094192	1.658000E+00
237	  0.067294590	-3.420000E+01	  0.067294590	9.387900E+01	  0.067294590	4.983000E+01	  0.067294590	1.939000E+00
238	  0.067494988	-3.485300E+01	  0.067494988	9.256600E+01	  0.067494988	4.988600E+01	  0.067494988	1.803000E+00
239	  0.067695394	-3.406300E+01	  0.067695394	9.264300E+01	  0.067695394	4.986900E+01	  0.067695394	1.974000E+00
240	  0.067895792	-3.396100E+01	  0.067895792	9.255600E+01	  0.067895792	4.987000E+01	  0.067895792	1.997000E+00
241	  0.068096191	-3.300700E+01	  0.068096191	9.618100E+01	  0.068096191	4.971000E+01	  0.068096191	2.212000E+00
242	  0.068296596	-3.332200E+01	  0.068296596	9.522700E+01	  0.068296596	4.975700E+01	  0.068296596	2.138000E+00
243	  0.068496995	-3.337300E+01	  0.068496995	9.497200E+01	  0.068496995	4.976900E+01	  0.068496995	2.127000E+00
244	  0.068697393	-3.294800E+01	  0.068697393	9.285300E+01	  0.068697393	4.983700E+01	  0.068697393	2.243000E+00
245	  0.068897791	-3.232200E+01	  0.068897791	9.794700E+01	  0.068897791	4.960900E+01	  0.068897791	2.379000E+00
246	  0.069098189	-3.253700E+01	  0.069098189	9.514800E+01	  0.069098189	4.973300E+01	  0.069098189	2.340000E+00
247	  0.069298595	-3.186500E+01	  0.069298595	1.005350E+02	  0.069298595	4.947300E+01	  0.069298595	2.483000E+00
248	  0.069498993	-3.209500E+01	  0.069498993	1.009500E+02	  0.069498993	4.947100E+01	  0.069498993	2.414000E+00
249	  0.069699399	-3.174600E+01	  0.069699399	9.875500E+01	  0.069699399	4.954300E+01	  0.069699399	2.534000E+00
250	  0.069899797	-3.140600E+01	  0.069899797	1.007510E+02	  0.069899797	4.943200E+01	  0.069899797	2.614000E+00
251	  0.070100196	-3.133600E+01	  0.070100196	9.722400E+01	  0.070100196	4.958800E+01	  0.070100196	2.669000E+00
252	  0.070300601	-3.112400E+01	  0.070300601	9.882700E+01	  0.070300601	4.950100E+01	  0.070300601	2.720000E+00
253	  0.070501000	-3.113300E+01	  0.070501000	9.885800E+01	  0.070501000	4.950000E+01	  0.070501000	2.716000E+00
254	  0.070701398	-3.043900E+01	  0.070701398	9.637000E+01	  0.070701398	4.957900E+01	  0.070701398	2.965000E+00
255	  0.070901804	-3.013500E+01	  0.070901804	9.860500E+01	  0.070901804	4.944200E+01	  0.070901804	3.047000E+00
256	  0.071102202	-3.031300E+01	  0.071102202	9.636500E+01	  0.071102202	4.957200E+01	  0.071102202	3.008000E+00
257	  0.071302600	-2.975900E+01	  0.071302600	9.561900E+01	  0.071302600	4.957900E+01	  0.071302600	3.211000E+00
258	  0.071503006	-3.011400E+01	  0.071503006	9.429100E+01	  0.071503006	4.967000E+01	  0.071503006	3.094000E+00
259	  0.071703404	-2.950600E+01	  0.071703404	9.490900E+01	  0.071703404	4.960400E+01	  0.071703404	3.312000E+00
260	  0.071903802	-2.955500E+01	  0.071903802	9.514600E+01	  0.071903802	4.959300E+01	  0.071903802	3.291000E+00
261	  0.072104208	-2.939100E+01	  0.072104208	9.590400E+01	  0.072104208	4.953900E+01	  0.072104208	3.346000E+00
262	  0.072304606	-2.886100E+01	  0.072304606	9.439600E+01	  0.072304606	4.959600E+01	  0.072304606	3.570000E+00
263	  0.072505005	-2.873000E+01	  0.072505005	9.449600E+01	  0.072505005	4.958200E+01	  0.072505005	3.623000E+00
264	  0.072705410	-2.838700E+01	  0.072705410	9.390100E+01	  0.072705410	4.959800E+01	  0.072705410	3.773000E+00
265	  0.072905809	-2.850500E+01	  0.072905809	9.268700E+01	  0.072905809	4.968400E+01	  0.072905809	3.733000E+00
266	  0.073106214	-2.832600E+01	  0.073106214	9.146900E+01	  0.073106214	4.975500E+01	  0.073106214	3.819000E+00
267	  0.073306613	-2.806200E+01	  0.073306613	8.891400E+01	  0.073306613	4.991800E+01	  0.073306613	3.951000E+00
268	  0.073507011	-2.814100E+01	  0.073507011	9.032300E+01	  0.073507011	4.982400E+01	  0.073507011	3.908000E+00
269	  0.073707417	-2.786700E+01	  0.073707417	8.846300E+01	  0.073707417	4.994400E+01	  0.073707417	4.042000E+00
270	  0.073907815	-2.772300E+01	  0.073907815	8.702500E+01	  0.073907815	5.004400E+01	  0.073907815	4.114000E+00
271	  0.074108213	-2.765800E+01	  0.074108213	8.545800E+01	  0.074108213	5.015700E+01	  0.074108213	4.147000E+00
272	  0.074308619	-2.771600E+01	  0.074308619	8.624800E+01	  0.074308619	5.010000E+01	  0.074308619	4.119000E+00
273	  0.074509017	-2.710600E+01	  0.074509017	8.510400E+01	  0.074509017	5.018200E+01	  0.074509017	4.420000E+00
274	  0.074709415	-2.695600E+01	  0.074709415	8.288100E+01	  0.074709415	5.035800E+01	  0.074709415	4.495000E+00
275	  0.074909821	-2.698300E+01	  0.074909821	8.223000E+01	  0.074909821	5.040800E+01	  0.074909821	4.479000E+00
276	  0.075110219	-2.713800E+01	  0.075110219	8.257300E+01	  0.075110219	5.037800E+01	  0.075110219	4.400000E+00
277	  0.075310618	-2.687100E+01	  0.075310618	7.992400E+01	  0.075310618	5.059500E+01	  0.075310618	4.526000E+00
278	  0.075511023	-2.715000E+01	  0.075511023	8.185600E+01	  0.075511023	5.043300E+01	  0.075511023	4.392000E+00
279	  0.075711422	-2.692600E+01	  0.075711422	7.783700E+01	  0.075711422	5.075900E+01	  0.075711422	4.479000E+00
280	  0.075911827	-2.681000E+01	  0.075911827	7.717700E+01	  0.075911827	5.081900E+01	  0.075911827	4.533000E+00
281	  0.076112226	-2.673200E+01	  0.076112226	7.812800E+01	  0.076112226	5.074800E+01	  0.076112226	4.585000E+00
282	  0.076312624	-2.656700E+01	  0.076312624	7.736300E+01	  0.076312624	5.082100E+01	  0.076312624	4.666000E+00
283	  0.076513030	-2.645100E+01	  0.076513030	7.478500E+01	  0.076513030	5.104600E+01	  0.076513030	4.697000E+00
284	  0.076713428	-2.676900E+01	  0.076713428	7.559600E+01	  0.076713428	5.095000E+01	  0.076713428	4.536000E+00
285	  0.076913826	-2.676100E+01	  0.076913826	7.437400E+01	  0.076913826	5.104900E+01	  0.076913826	4.523000E+00
286	  0.077114232	-2.653300E+01	  0.077114232	7.262800E+01	  0.077114232	5.121600E+01	  0.077114232	4.618000E+00
287	  0.077314630	-2.627200E+01	  0.077314630	7.191900E+01	  0.077314630	5.130700E+01	  0.077314630	4.749000E+00
288	  0.077515028	-2.652900E+01	  0.077515028	6.907800E+01	  0.077515028	5.150800E+01	  0.077515028	4.547000E+00
289	  0.077715434	-2.660700E+01	  0.077715434	6.895400E+01	  0.077715434	5.150700E+01	  0.077715434	4.502000E+00
290	  0.077915832	-2.657300E+01	  0.077915832	6.616300E+01	  0.077915832	5.173700E+01	  0.077915832	4.450000E+00
291	  0.078116231	-2.673800E+01	  0.078116231	6.765300E+01	  0.078116231	5.159000E+01	  0.078116231	4.402000E+00
292	  0.078316636	-2.658900E+01	  0.078316636	6.588800E+01	  0.078316636	5.175700E+01	  0.078316636	4.434000E+00
293	  0.078517035	-2.695200E+01	  0.078517035	6.519200E+01	  0.078517035	5.174400E+01	  0.078517035	4.227000E+00
294	  0.078717433	-2.666600E+01	  0.078717433	6.346800E+01	  0.078717433	5.193300E+01	  0.078717433	4.322000E+00
295	  0.078917839	-2.729600E+01	  0.078917839	6.621500E+01	  0.078917839	5.160700E+01	  0.078917839	4.084000E+00
296	  0.079118237	-2.729200E+01	  0.079118237	6.172500E+01	  0.079118237	5.193400E+01	  0.079118237	3.958000E+00
297	  0.079318643	-2.737400E+01	  0.079318643	6.100000E+01	  0.079318643	5.196900E+01	  0.079318643	3.896000E+00
298	  0.079519041	-2.719800E+01	  0.079519041	6.131800E+01	  0.079519041	5.198400E+01	  0.079519041	3.989000E+00
299	  0.079719439	-2.747100E+01	  0.079719439	5.965500E+01	  0.079719439	5.204200E+01	  0.079719439	3.807000E+00
300	  0.079919845	-2.775000E+01	  0.079919845	6.061800E+01	  0.079919845	5.191600E+01	  0.079919845	3.713000E+00
301	  0.080120243	-2.732100E+01	  0.080120243	5.957600E+01	  0.080120243	5.208100E+01	  0.080120243	3.873000E+00
302	  0.080320641	-2.773500E+01	  0.080320641	5.941100E+01	  0.080320641	5.200000E+01	  0.080320641	3.680000E+00
303	  0.080521047	-2.806500E+01	  0.080521047	6.127700E+01	  0.080521047	5.180800E+01	  0.080521047	3.596000E+00
304	  0.080721445	-2.807200E+01	  0.080721445	5.762700E+01	  0.080721445	5.204100E+01	  0.080721445	3.475000E+00
305	  0.080921844	-2.846800E+01	  0.080921844	6.026000E+01	  0.080921844	5.179300E+01	  0.080921844	3.397000E+00
306	  0.081122249	-2.846800E+01	  0.081122249	5.942800E+01	  0.081122249	5.184400E+01	  0.081122249	3.372000E+00
307	  0.081322648	-2.886200E+01	  0.081322648	5.865800E+01	  0.081322648	5.181000E+01	  0.081322648	3.194000E+00
308	  0.081523046	-2.870300E+01	  0.081523046	6.375400E+01	  0.081523046	5.153600E+01	  0.081523046	3.398000E+00
309	  0.081723452	-2.906400E+01	  0.081723452	6.435000E+01	  0.081723452	5.144200E+01	  0.081723452	3.270000E+00
310	  0.081923850	-2.916600E+01	  0.081923850	6.386200E+01	  0.081923850	5.145500E+01	  0.081923850	3.219000E+00
311	  0.082124248	-2.931100E+01	  0.082124248	6.511700E+01	  0.082124248	5.136000E+01	  0.082124248	3.193000E+00
312	  0.082324654	-2.957800E+01	  0.082324654	6.389000E+01	  0.082324654	5.138900E+01	  0.082324654	3.067000E+00
313	  0.082525052	-2.921800E+01	  0.082525052	6.756300E+01	  0.082525052	5.123100E+01	  0.082525052	3.280000E+00
314	  0.082725458	-2.990400E+01	  0.082725458	6.938100E+01	  0.082725458	5.104600E+01	  0.082725458	3.058000E+00
315	  0.082925856	-2.980900E+01	  0.082925856	7.029800E+01	  0.082925856	5.100600E+01	  0.082925856	3.107000E+00
316	  0.083126254	-2.995900E+01	  0.083126254	7.259900E+01	  0.083126254	5.086400E+01	  0.083126254	3.087000E+00
317	  0.083326660	-2.982800E+01	  0.083326660	7.537300E+01	  0.083326660	5.072100E+01	  0.083326660	3.169000E+00
318	  0.083527058	-2.949800E+01	  0.083527058	7.786900E+01	  0.083527058	5.059900E+01	  0.083527058	3.318000E+00
319	  0.083727457	-2.968100E+01	  0.083727457	8.174100E+01	  0.083727457	5.036600E+01	  0.083727457	3.273000E+00
320	  0.083927862	-2.929100E+01	  0.083927862	8.371900E+01	  0.083927862	5.025900E+01	  0.083927862	3.432000E+00
321	  0.084128261	-2.932800E+01	  0.084128261	8.534100E+01	  0.084128261	5.016100E+01	  0.084128261	3.420000E+00
322	  0.084328659	-2.870900E+01	  0.084328659	8.747500E+01	  0.084328659	5.002700E+01	  0.084328659	3.672000E+00
323	  0.084529065	-2.837900E+01	  0.084529065	9.021200E+01	  0.084529065	4.984000E+01	  0.084529065	3.804000E+00
324	  0.084729463	-2.804300E+01	  0.084729463	8.942000E+01	  0.084729463	4.988300E+01	  0.084729463	3.957000E+00
325	  0.084929861	-2.734400E+01	  0.084929861	9.312000E+01	  0.084929861	4.958400E+01	  0.084929861	4.258000E+00
326	  0.085130267	-2.721100E+01	  0.085130267	9.402600E+01	  0.085130267	4.950700E+01	  0.085130267	4.313000E+00
327	  0.085330658	-2.666500E+01	  0.085330658	9.542400E+01	  0.085330658	4.935200E+01	  0.085330658	4.571000E+00
328	  0.085531056	-2.615200E+01	  0.085531056	9.559500E+01	  0.085531056	4.928500E+01	  0.085531056	4.842000E+00
329	  0.085731462	-2.563800E+01	  0.085731462	9.780500E+01	  0.085731462	4.903300E+01	  0.085731462	5.090000E+00
330	  0.085931860	-2.502600E+01	  0.085931860	9.774700E+01	  0.085931860	4.894900E+01	  0.085931860	5.455000E+00
331	  0.086132258	-2.483900E+01	  0.086132258	9.783900E+01	  0.086132258	4.891100E+01	  0.086132258	5.569000E+00
332	  0.086332664	-2.443800E+01	  0.086332664	9.828200E+01	  0.086332664	4.880100E+01	  0.086332664	5.814000E+00
333	  0.086533062	-2.385800E+01	  0.086533062	9.760900E+01	  0.086533062	4.876500E+01	  0.086533062	6.225000E+00
334	  0.086733460	-2.329700E+01	  0.086733460	9.716500E+01	  0.086733460	4.870600E+01	  0.086733460	6.642000E+00
335	  0.086933866	-2.284500E+01	  0.086933866	9.555000E+01	  0.086933866	4.880600E+01	  0.086933866	7.038000E+00
336	  0.087134264	-2.254800E+01	  0.087134264	9.444000E+01	  0.087134264	4.888500E+01	  0.087134264	7.309000E+00
337	  0.087334670	-2.199400E+01	  0.087334670	9.173800E+01	  0.087334670	4.913600E+01	  0.087334670	7.857000E+00
338	  0.087535068	-2.174300E+01	  0.087535068	9.145000E+01	  0.087535068	4.913200E+01	  0.087535068	8.091000E+00
339	  0.087735467	-2.130900E+01	  0.087735467	9.058100E+01	  0.087735467	4.918000E+01	  0.087735467	8.522000E+00
340	  0.087935872	-2.091200E+01	  0.087935872	8.805200E+01	  0.087935872	4.949600E+01	  0.087935872	8.979000E+00
341	  0.088136271	-2.047200E+01	  0.088136271	8.674100E+01	  0.088136271	4.964000E+01	  0.088136271	9.472000E+00
342	  0.088336669	-2.008200E+01	  0.088336669	8.375000E+01	  0.088336669	5.009800E+01	  0.088336669	9.963000E+00
343	  0.088537075	-1.974900E+01	  0.088537075	8.317200E+01	  0.088537075	5.016600E+01	  0.088537075	1.036300E+01
344	  0.088737473	-1.954400E+01	  0.088737473	8.026800E+01	  0.088737473	5.068700E+01	  0.088737473	1.064800E+01
345	  0.088937871	-1.922800E+01	  0.088937871	7.778800E+01	  0.088937871	5.115700E+01	  0.088937871	1.106000E+01
346	  0.089138277	-1.904200E+01	  0.089138277	7.631200E+01	  0.089138277	5.145400E+01	  0.089138277	1.130400E+01
347	  0.089338675	-1.883900E+01	  0.089338675	7.359200E+01	  0.089338675	5.202600E+01	  0.089338675	1.155900E+01
348	  0.089539073	-1.860400E+01	  0.089539073	7.141000E+01	  0.089539073	5.251800E+01	  0.089539073	1.185300E+01
349	  0.089739479	-1.844900E+01	  0.089739479	6.943900E+01	  0.089739479	5.297600E+01	  0.089739479	1.203100E+01
350	  0.089939877	-1.826300E+01	  0.089939877	6.656300E+01	  0.089939877	5.366700E+01	  0.089939877	1.221000E+01
351	  0.090140276	-1.811300E+01	  0.090140276	6.414600E+01	  0.090140276	5.427100E+01	  0.090140276	1.232800E+01
352	  0.090340681	-1.803000E+01	  0.090340681	6.240700E+01	  0.090340681	5.471000E+01	  0.090340681	1.236000E+01
353	  0.090541080	-1.789000E+01	  0.090541080	5.930100E+01	  0.090541080	5.551000E+01	  0.090541080	1.237100E+01
354	  0.090741485	-1.781400E+01	  0.090741485	5.755900E+01	  0.090741485	5.596900E+01	  0.090741485	1.235400E+01
355	  0.090941884	-1.773600E+01	  0.090941884	5.539000E+01	  0.090941884	5.654000E+01	  0.090941884	1.228500E+01
356	  0.091142282	-1.765700E+01	  0.091142282	5.316000E+01	  0.091142282	5.713400E+01	  0.091142282	1.218500E+01
357	  0.091342688	-1.755500E+01	  0.091342688	5.158000E+01	  0.091342688	5.759500E+01	  0.091342688	1.217100E+01
358	  0.091543086	-1.758500E+01	  0.091543086	4.983600E+01	  0.091543086	5.799500E+01	  0.091543086	1.191200E+01
359	  0.091743484	-1.745500E+01	  0.091743484	4.719600E+01	  0.091743484	5.874600E+01	  0.091743484	1.176500E+01
360	  0.091943890	-1.750600E+01	  0.091943890	4.573400E+01	  0.091943890	5.904700E+01	  0.091943890	1.147300E+01
361	  0.092144288	-1.748100E+01	  0.092144288	4.408700E+01	  0.092144288	5.945900E+01	  0.092144288	1.125700E+01
362	  0.092344686	-1.740800E+01	  0.092344686	4.173200E+01	  0.092344686	6.008600E+01	  0.092344686	1.097900E+01
363	  0.092545092	-1.740400E+01	  0.092545092	4.008500E+01	  0.092545092	6.046700E+01	  0.092545092	1.069400E+01
364	  0.092745490	-1.746300E+01	  0.092745490	3.846000E+01	  0.092745490	6.075500E+01	  0.092745490	1.030500E+01
365	  0.092945889	-1.742300E+01	  0.092945889	3.592300E+01	  0.092945889	6.135300E+01	  0.092945889	9.864000E+00
366	  0.093146294	-1.740100E+01	  0.093146294	3.480800E+01	  0.093146294	6.161500E+01	  0.093146294	9.663000E+00
367	  0.093346693	-1.745600E+01	  0.093346693	3.309300E+01	  0.093346693	6.188800E+01	  0.093346693	9.223000E+00
368	  0.093547091	-1.740500E+01	  0.093547091	3.149400E+01	  0.093547091	6.227700E+01	  0.093547091	8.934000E+00
369	  0.093747497	-1.735200E+01	  0.093747497	3.027600E+01	  0.093747497	6.259200E+01	  0.093747497	8.721000E+00
370	  0.093947895	-1.743100E+01	  0.093947895	2.838200E+01	  0.093947895	6.281900E+01	  0.093947895	8.175000E+00
371	  0.094148301	-1.739200E+01	  0.094148301	2.651000E+01	  0.094148301	6.320900E+01	  0.094148301	7.760000E+00
372	  0.094348699	-1.746000E+01	  0.094348699	2.497300E+01	  0.094348699	6.335100E+01	  0.094348699	7.296000E+00
373	  0.094549097	-1.751400E+01	  0.094549097	2.358900E+01	  0.094549097	6.347700E+01	  0.094549097	6.885000E+00
374	  0.094749503	-1.753400E+01	  0.094749503	2.229500E+01	  0.094749503	6.363500E+01	  0.094749503	6.528000E+00
375	  0.094949901	-1.752300E+01	  0.094949901	2.055200E+01	  0.094949901	6.389900E+01	  0.094949901	6.074000E+00
376	  0.095150299	-1.747700E+01	  0.095150299	1.895200E+01	  0.095150299	6.419200E+01	  0.095150299	5.676000E+00
377	  0.095350705	-1.753500E+01	  0.095350705	1.716300E+01	  0.095350705	6.430300E+01	  0.095350705	5.130000E+00
378	  0.095551103	-1.754600E+01	  0.095551103	1.656500E+01	  0.095551103	6.435000E+01	  0.095551103	4.954000E+00
379	  0.095751502	-1.760300E+01	  0.095751502	1.489900E+01	  0.095751502	6.442000E+01	  0.095751502	4.442000E+00
380	  0.095951907	-1.763400E+01	  0.095951907	1.386300E+01	  0.095951907	6.446000E+01	  0.095951907	4.126000E+00
381	  0.096152306	-1.765700E+01	  0.096152306	1.221700E+01	  0.096152306	6.456100E+01	  0.096152306	3.640000E+00
382	  0.096352704	-1.770700E+01	  0.096352704	1.152000E+01	  0.096352704	6.452200E+01	  0.096352704	3.413000E+00
383	  0.096553110	-1.766100E+01	  0.096553110	1.015300E+01	  0.096553110	6.471000E+01	  0.096553110	3.038000E+00
384	  0.096753508	-1.770800E+01	  0.096753508	8.431000E+00	  0.096753508	6.472600E+01	  0.096753508	2.513000E+00
385	  0.096953906	-1.779000E+01	  0.096953906	7.003000E+00	  0.096953906	6.464300E+01	  0.096953906	2.067000E+00
386	  0.097154312	-1.779600E+01	  0.097154312	5.571000E+00	  0.097154312	6.469100E+01	  0.097154312	1.646000E+00
387	  0.097354710	-1.784500E+01	  0.097354710	4.553000E+00	  0.097354710	6.462900E+01	  0.097354710	1.336000E+00
388	  0.097555116	-1.784800E+01	  0.097555116	2.891000E+00	  0.097555116	6.466600E+01	  0.097555116	8.490000E-01
389	  0.097755514	-1.794400E+01	  0.097755514	2.009000E+00	  0.097755514	6.449500E+01	  0.097755514	5.820000E-01
390	  0.097955912	-1.787100E+01	  0.097955912	4.990000E-01	  0.097955912	6.464800E+01	  0.097955912	1.460000E-01
391	  0.098156318	-1.799200E+01	  0.098156318	3.430000E-01	  0.098156318	6.441500E+01	  0.098156318	9.800000E-02
392	  0.098356716	-1.803000E+01	  0.098356716	-1.951000E+00	  0.098356716	6.433100E+01	  0.098356716	-5.580000E-01
393	  0.098557115	-1.803800E+01	  0.098557115	-2.856000E+00	  0.098557115	6.430200E+01	  0.098557115	-8.150000E-01
394	  0.098757520	-1.810800E+01	  0.098757520	-4.112000E+00	  0.098757520	6.414500E+01	  0.098757520	-1.161000E+00
395	  0.098957919	-1.819400E+01	  0.098957919	-5.810000E+00	  0.098957919	6.393300E+01	  0.098957919	-1.618000E+00
396	  0.099158317	-1.819800E+01	  0.099158317	-6.094000E+00	  0.099158317	6.391600E+01	  0.099158317	-1.695000E+00
397	  0.099358723	-1.823000E+01	  0.099358723	-7.930000E+00	  0.099358723	6.377700E+01	  0.099358723	-2.190000E+00
398	  0.099559121	-1.826000E+01	  0.099559121	-8.501000E+00	  0.099559121	6.369600E+01	  0.099559121	-2.335000E+00
399	  0.099759519	-1.828700E+01	  0.099759519	-1.017900E+01	  0.099759519	6.355100E+01	  0.099759519	-2.777000E+00
400	  0.099959925	-1.814500E+01	  0.099959925	-9.759000E+00	  0.099959925	6.383000E+01	  0.099959925	-2.720000E+00
401	  0.100160323	-1.846400E+01	  0.100160323	-1.218100E+01	  0.100160323	6.311200E+01	  0.100160323	-3.224000E+00
402	  0.100360721	-1.851300E+01	  0.100360721	-1.350900E+01	  0.100360721	6.293100E+01	  0.100360721	-3.538000E+00
403	  0.100561127	-1.864500E+01	  0.100561127	-1.474800E+01	  0.100561127	6.261500E+01	  0.100561127	-3.777000E+00
404	  0.100761525	-1.859100E+01	  0.100761525	-1.472900E+01	  0.100761525	6.270500E+01	  0.100761525	-3.802000E+00
405	  0.100961931	-1.865800E+01	  0.100961931	-1.676000E+01	  0.100961931	6.241700E+01	  0.100961931	-4.258000E+00
406	  0.101162329	-1.856700E+01	  0.101162329	-1.850900E+01	  0.101162329	6.239000E+01	  0.101162329	-4.737000E+00
407	  0.101362728	-1.859500E+01	  0.101362728	-1.929000E+01	  0.101362728	6.226600E+01	  0.101362728	-4.903000E+00
408	  0.101563133	-1.873600E+01	  0.101563133	-2.069200E+01	  0.101563133	6.189700E+01	  0.101563133	-5.127000E+00
409	  0.101763532	-1.870700E+01	  0.101763532	-2.109200E+01	  0.101763532	6.189600E+01	  0.101763532	-5.240000E+00
410	  0.101963930	-1.868100E+01	  0.101963930	-2.166800E+01	  0.101963930	6.186800E+01	  0.101963930	-5.390000E+00
411	  0.102164336	-1.885900E+01	  0.102164336	-2.272700E+01	  0.102164336	6.148300E+01	  0.102164336	-5.488000E+00
412	  0.102364734	-1.900400E+01	  0.102364734	-2.339700E+01	  0.102364734	6.119900E+01	  0.102364734	-5.520000E+00
413	  0.102565132	-1.884100E+01	  0.102565132	-2.547300E+01	  0.102565132	6.116800E+01	  0.102565132	-6.092000E+00
414	  0.102765530	-1.902000E+01	  0.102765530	-2.682000E+01	  0.102765530	6.074800E+01	  0.102765530	-6.213000E+00
415	  0.102965929	-1.894700E+01	  0.102965929	-2.779000E+01	  0.102965929	6.071500E+01	  0.102965929	-6.473000E+00
416	  0.103166327	-1.901600E+01	  0.103166327	-2.795800E+01	  0.103166327	6.060200E+01	  0.103166327	-6.444000E+00
417	  0.103366733	-1.922200E+01	  0.103366733	-2.950500E+01	  0.103366733	6.012800E+01	  0.103366733	-6.555000E+00
418	  0.103567131	-1.920300E+01	  0.103567131	-3.088600E+01	  0.103567131	5.995800E+01	  0.103567131	-6.829000E+00
419	  0.103767529	-1.927900E+01	  0.103767529	-3.295500E+01	  0.103767529	5.956800E+01	  0.103767529	-7.125000E+00
420	  0.103967935	-1.926600E+01	  0.103967935	-3.186900E+01	  0.103967935	5.974100E+01	  0.103967935	-6.946000E+00
421	  0.104168333	-1.936800E+01	  0.104168333	-3.345200E+01	  0.104168333	5.939300E+01	  0.104168333	-7.124000E+00
422	  0.104368731	-1.923800E+01	  0.104368731	-3.426800E+01	  0.104368731	5.941600E+01	  0.104368731	-7.392000E+00
423	  0.104569137	-1.955300E+01	  0.104569137	-3.637100E+01	  0.104569137	5.875500E+01	  0.104569137	-7.418000E+00
424	  0.104769535	-1.947600E+01	  0.104769535	-3.696700E+01	  0.104769535	5.874300E+01	  0.104769535	-7.589000E+00
425	  0.104969934	-1.964900E+01	  0.104969934	-3.836800E+01	  0.104969934	5.835200E+01	  0.104969934	-7.625000E+00
426	  0.105170339	-1.974500E+01	  0.105170339	-3.907100E+01	  0.105170339	5.815000E+01	  0.105170339	-7.628000E+00
427	  0.105370738	-1.965600E+01	  0.105370738	-4.044200E+01	  0.105370738	5.801800E+01	  0.105370738	-7.916000E+00
428	  0.105571143	-1.973400E+01	  0.105571143	-4.026900E+01	  0.105571143	5.797300E+01	  0.105571143	-7.810000E+00
429	  0.105771542	-1.986500E+01	  0.105771542	-4.189600E+01	  0.105771542	5.759800E+01	  0.105771542	-7.894000E+00
430	  0.105971940	-1.967100E+01	  0.105971940	-4.332100E+01	  0.105971940	5.753400E+01	  0.105971940	-8.288000E+00
431	  0.106172346	-1.989100E+01	  0.106172346	-4.424700E+01	  0.106172346	5.719800E+01	  0.106172346	-8.165000E+00
432	  0.106372744	-2.009700E+01	  0.106372744	-4.540600E+01	  0.106372744	5.684800E+01	  0.106372744	-8.084000E+00
433	  0.106573142	-2.006100E+01	  0.106573142	-4.641900E+01	  0.106573142	5.671100E+01	  0.106573142	-8.239000E+00
434	  0.106773548	-1.999300E+01	  0.106773548	-4.714500E+01	  0.106773548	5.664200E+01	  0.106773548	-8.394000E+00
435	  0.106973946	-2.024700E+01	  0.106973946	-4.935900E+01	  0.106973946	5.610000E+01	  0.106973946	-8.353000E+00
436	  0.107174344	-2.023700E+01	  0.107174344	-4.896000E+01	  0.107174344	5.617200E+01	  0.107174344	-8.323000E+00
437	  0.107374750	-2.022300E+01	  0.107374750	-4.968400E+01	  0.107374750	5.606200E+01	  0.107374750	-8.411000E+00
438	  0.107575148	-2.027800E+01	  0.107575148	-5.128300E+01	  0.107575148	5.576300E+01	  0.107575148	-8.507000E+00
439	  0.107775547	-2.016500E+01	  0.107775547	-5.260400E+01	  0.107775547	5.561000E+01	  0.107775547	-8.753000E+00
440	  0.107975952	-2.064300E+01	  0.107975952	-5.389100E+01	  0.107975952	5.512600E+01	  0.107975952	-8.342000E+00
441	  0.108176351	-2.050300E+01	  0.108176351	-5.390300E+01	  0.108176351	5.520100E+01	  0.108176351	-8.494000E+00
442	  0.108376749	-2.041800E+01	  0.108376749	-5.450200E+01	  0.108376749	5.514800E+01	  0.108376749	-8.635000E+00
443	  0.108577155	-2.058200E+01	  0.108577155	-5.770600E+01	  0.108577155	5.453500E+01	  0.108577155	-8.697000E+00
444	  0.108777553	-2.059500E+01	  0.108777553	-5.822900E+01	  0.108777553	5.444200E+01	  0.108777553	-8.719000E+00
445	  0.108977959	-2.070100E+01	  0.108977959	-5.883900E+01	  0.108977959	5.429500E+01	  0.108977959	-8.644000E+00
446	  0.109178357	-2.070100E+01	  0.109178357	-5.851600E+01	  0.109178357	5.434800E+01	  0.109178357	-8.623000E+00
447	  0.109378755	-2.084200E+01	  0.109378755	-6.109500E+01	  0.109378755	5.387000E+01	  0.109378755	-8.630000E+00
448	  0.109579161	-2.082700E+01	  0.109579161	-6.149500E+01	  0.109579161	5.381100E+01	  0.109579161	-8.670000E+00
449	  0.109779559	-2.105600E+01	  0.109779559	-6.258200E+01	  0.109779559	5.355500E+01	  0.109779559	-8.485000E+00
450	  0.109979957	-2.093200E+01	  0.109979957	-6.235700E+01	  0.109979957	5.363300E+01	  0.109979957	-8.604000E+00
451	  0.110180363	-2.102400E+01	  0.110180363	-6.562100E+01	  0.110180363	5.308000E+01	  0.110180363	-8.662000E+00
452	  0.110380761	-2.096400E+01	  0.110380761	-6.691500E+01	  0.110380761	5.288700E+01	  0.110380761	-8.777000E+00
453	  0.110581160	-2.111300E+01	  0.110581160	-6.578400E+01	  0.110581160	5.302900E+01	  0.110581160	-8.575000E+00
454	  0.110781565	-2.124200E+01	  0.110781565	-6.748100E+01	  0.110781565	5.272800E+01	  0.110781565	-8.507000E+00
455	  0.110981964	-2.116500E+01	  0.110981964	-6.866600E+01	  0.110981964	5.255900E+01	  0.110981964	-8.628000E+00
456	  0.111182362	-2.138800E+01	  0.111182362	-6.942000E+01	  0.111182362	5.239500E+01	  0.111182362	-8.422000E+00
457	  0.111382768	-2.133600E+01	  0.111382768	-7.225600E+01	  0.111382768	5.196600E+01	  0.111382768	-8.549000E+00
458	  0.111583166	-2.160600E+01	  0.111583166	-7.128700E+01	  0.111583166	5.207100E+01	  0.111583166	-8.254000E+00
459	  0.111783572	-2.162300E+01	  0.111783572	-7.325700E+01	  0.111783572	5.177400E+01	  0.111783572	-8.282000E+00
460	  0.111983970	-2.170600E+01	  0.111983970	-7.332100E+01	  0.111983970	5.175300E+01	  0.111983970	-8.202000E+00
461	  0.112184368	-2.170600E+01	  0.112184368	-7.482600E+01	  0.112184368	5.153100E+01	  0.112184368	-8.228000E+00
462	  0.112384774	-2.171500E+01	  0.112384774	-7.548200E+01	  0.112384774	5.143300E+01	  0.112384774	-8.228000E+00
463	  0.112585172	-2.170900E+01	  0.112585172	-7.627600E+01	  0.112585172	5.131600E+01	  0.112585172	-8.244000E+00
464	  0.112785570	-2.198400E+01	  0.112785570	-7.894800E+01	  0.112785570	5.091400E+01	  0.112785570	-8.003000E+00
465	  0.112985976	-2.202800E+01	  0.112985976	-7.919400E+01	  0.112985976	5.087800E+01	  0.112985976	-7.963000E+00
466	  0.113186374	-2.200500E+01	  0.113186374	-7.949500E+01	  0.113186374	5.083600E+01	  0.113186374	-7.985000E+00
467	  0.113386773	-2.204300E+01	  0.113386773	-8.172100E+01	  0.113386773	5.052100E+01	  0.113386773	-7.952000E+00
468	  0.113587178	-2.208800E+01	  0.113587178	-8.099200E+01	  0.113587178	5.062400E+01	  0.113587178	-7.911000E+00
469	  0.113787577	-2.225600E+01	  0.113787577	-8.387700E+01	  0.113787577	5.023000E+01	  0.113787577	-7.749000E+00
470	  0.113987975	-2.226300E+01	  0.113987975	-8.352100E+01	  0.113987975	5.027800E+01	  0.113987975	-7.745000E+00
471	  0.114188381	-2.239000E+01	  0.114188381	-8.431200E+01	  0.114188381	5.017700E+01	  0.114188381	-7.627000E+00
472	  0.114388779	-2.238200E+01	  0.114388779	-8.562000E+01	  0.114388779	5.000200E+01	  0.114388779	-7.623000E+00
473	  0.114589177	-2.246900E+01	  0.114589177	-8.776700E+01	  0.114589177	4.972600E+01	  0.114589177	-7.520000E+00
474	  0.114789583	-2.246200E+01	  0.114789583	-8.788900E+01	  0.114789583	4.971000E+01	  0.114789583	-7.525000E+00
475	  0.114989981	-2.246400E+01	  0.114989981	-8.859300E+01	  0.114989981	4.961800E+01	  0.114989981	-7.512000E+00
476	  0.115190387	-2.277100E+01	  0.115190387	-8.977100E+01	  0.115190387	4.950200E+01	  0.115190387	-7.234000E+00
477	  0.115390785	-2.256900E+01	  0.115390785	-9.105200E+01	  0.115390785	4.931500E+01	  0.115390785	-7.376000E+00
478	  0.115591183	-2.263600E+01	  0.115591183	-9.252500E+01	  0.115591183	4.913900E+01	  0.115591183	-7.287000E+00
479	  0.115791589	-2.275000E+01	  0.115791589	-9.464800E+01	  0.115791589	4.889700E+01	  0.115791589	-7.139000E+00
480	  0.115991987	-2.284100E+01	  0.115991987	-9.454500E+01	  0.115991987	4.892600E+01	  0.115991987	-7.069000E+00
481	  0.116192386	-2.289700E+01	  0.116192386	-9.480500E+01	  0.116192386	4.890500E+01	  0.116192386	-7.018000E+00
482	  0.116392791	-2.285900E+01	  0.116392791	-9.607800E+01	  0.116392791	4.874600E+01	  0.116392791	-7.011000E+00
483	  0.116593190	-2.306000E+01	  0.116593190	-9.682700E+01	  0.116593190	4.869800E+01	  0.116593190	-6.832000E+00
484	  0.116793588	-2.300900E+01	  0.116793588	-9.906300E+01	  0.116793588	4.842800E+01	  0.116793588	-6.797000E+00
485	  0.116993994	-2.316300E+01	  0.116993994	-1.003670E+02	  0.116993994	4.831700E+01	  0.116993994	-6.635000E+00
486	  0.117194392	-2.320300E+01	  0.117194392	-1.004450E+02	  0.117194392	4.831800E+01	  0.117194392	-6.603000E+00
487	  0.117394790	-2.335600E+01	  0.117394790	-1.022790E+02	  0.117394790	4.815400E+01	  0.117394790	-6.424000E+00
488	  0.117595196	-2.323900E+01	  0.117595196	-1.041010E+02	  0.117595196	4.792700E+01	  0.117595196	-6.432000E+00
489	  0.117795594	-2.330900E+01	  0.117795594	-1.023480E+02	  0.117795594	4.813500E+01	  0.117795594	-6.454000E+00
490	  0.117995992	-2.317100E+01	  0.117995992	-1.044560E+02	  0.117995992	4.786900E+01	  0.117995992	-6.466000E+00
491	  0.118196398	-2.357300E+01	  0.118196398	-1.062060E+02	  0.118196398	4.780200E+01	  0.118196398	-6.110000E+00
492	  0.118396796	-2.347100E+01	  0.118396796	-1.067240E+02	  0.118396796	4.771800E+01	  0.118396796	-6.156000E+00
493	  0.118597202	-2.352200E+01	  0.118597202	-1.077990E+02	  0.118597202	4.762500E+01	  0.118597202	-6.072000E+00
494	  0.118797600	-2.362200E+01	  0.118797600	-1.096180E+02	  0.118797600	4.747500E+01	  0.118797600	-5.919000E+00
495	  0.118997999	-2.378200E+01	  0.118997999	-1.101790E+02	  0.118997999	4.747300E+01	  0.118997999	-5.789000E+00
496	  0.119198404	-2.346300E+01	  0.119198404	-1.131360E+02	  0.119198404	4.707900E+01	  0.119198404	-5.837000E+00
497	  0.119398803	-2.371400E+01	  0.119398803	-1.130060E+02	  0.119398803	4.718100E+01	  0.119398803	-5.687000E+00
498	  0.119599201	-2.379700E+01	  0.119599201	-1.146740E+02	  0.119599201	4.705700E+01	  0.119599201	-5.546000E+00
499	  0.119799607	-2.403000E+01	  0.119799607	-1.154210E+02	  0.119799607	4.707500E+01	  0.119799607	-5.367000E+00
500	  0.120000005	-2.403500E+01	  0.120000005	-1.167410E+02	  0.120000005	4.696100E+01	  0.120000005	-5.291000E+00
