! Anritsu VNA Master:             	Model: MS2036C/10/77
! SN:             	1601066
! /card0/usr/18may12.lna.rl/252b.lna.rl.txt
! Existing Calibration Information:
! TYPE:             	Current Settings	Active Cal Settings
! TIME:             	05/13/2018 10:24:35 AM	05/13/2018 10:19:50 AM
! INTERNAL TEMP:    	46.5 C	46.3 C
! # POINTS:         	500	500
! START FREQ:       	20.000 MHz	20.000 MHz
! STOP FREQ:        	120.000 MHz	120.000 MHz
! SOURCE POWER:     	Low	Low
! IFBW:             	10 Hz	10 Hz
! AVG FACTOR:       	  1 	  1 
! REF PLANE 1:      	0 mm	0 mm
! REF PLANE 2:      	0 mm	0 mm
! CAL TYPE:         	Full S22	Full S22
! CAL METHOD:       	SOLT	SOLT
! CAL LINE TYPE:    	Coax	Coax
! DUT PORT 1:       	K-Conn(M)	K-Conn(M)
! DUT PORT 2:       	K-Conn(M)	K-Conn(M)
! CAL STATUS:       	OK: Accuracy High	--
! PROP-V:       	0.700
! CABLE LOSS:       	0.000 dB/m
! REF IMPEDANCE:       	50.0
! Trace Specific Parameters:	TR1	TR2	TR3	TR4
! TRACE.#.Y (GRAPH TYPE)	LOG MAG	PHASE	REAL IMPEDANCE	IMAGINARY IMPEDANCE
! TRACE.#.X 	FREQ.GHZ	FREQ.GHZ	FREQ.GHZ	FREQ.GHZ
! S-PARAMETER	S22	S22	S22	S22
! SMOOTH/APERTURE %	0	0	0	0
! WINDOW	NSL	NSL	NSL	NSL
! GATING	OFF	OFF	OFF	OFF
! FGTD	OFF	OFF	OFF	OFF
Marker Information per Trace:	TR1	TR2	TR3	TR4
!MK1	--	"MK1 TR2:  12.184 368 MHz,##.##"	--	--
!MK2	--	--	"MK2 TR3:  12.184 368 MHz,##.##"	--
!MK3	--	--	--	--
!MK4	--	--	--	--
!MK5	--	--	--	--
!MK6	--	--	--	--
!MK7	--	--	--	--
!MK8	--	--	--	--
PNT	TR1.FREQ.GHZ	TR1.LOG MAG.dB	TR2.FREQ.GHZ	TR2.PHASE.deg	TR3.FREQ.GHZ	TR3.REAL IMPEDANCE.ohm	TR4.FREQ.GHZ	TR4.IMAGINARY IMPEDANCE.ohm
1	  0.020000000	-1.978700E+01	  0.020000000	2.288700E+01	  0.020000000	6.021100E+01	  0.020000000	4.850000E+00
2	  0.020200402	-1.980500E+01	  0.020200402	2.118500E+01	  0.020200402	6.035600E+01	  0.020200402	4.508000E+00
3	  0.020400802	-1.976200E+01	  0.020400802	1.879400E+01	  0.020400802	6.062900E+01	  0.020400802	4.058000E+00
4	  0.020601204	-1.970700E+01	  0.020601204	1.635200E+01	  0.020601204	6.090100E+01	  0.020601204	3.584000E+00
5	  0.020801604	-1.964300E+01	  0.020801604	1.408500E+01	  0.020801604	6.115300E+01	  0.020801604	3.135000E+00
6	  0.021002004	-1.954000E+01	  0.021002004	1.183000E+01	  0.021002004	6.144200E+01	  0.021002004	2.686000E+00
7	  0.021202406	-1.950800E+01	  0.021202406	8.936000E+00	  0.021202406	6.163700E+01	  0.021202406	2.049000E+00
8	  0.021402806	-1.942600E+01	  0.021402806	7.305000E+00	  0.021402806	6.182600E+01	  0.021402806	1.699000E+00
9	  0.021603208	-1.936400E+01	  0.021603208	3.821000E+00	  0.021603208	6.201800E+01	  0.021603208	8.990000E-01
10	  0.021803608	-1.926200E+01	  0.021803608	1.434000E+00	  0.021803608	6.221000E+01	  0.021803608	3.430000E-01
11	  0.022004008	-1.927100E+01	  0.022004008	-7.000000E-01	  0.022004008	6.220000E+01	  0.022004008	-1.670000E-01
12	  0.022204408	-1.929700E+01	  0.022204408	-3.810000E+00	  0.022204408	6.212300E+01	  0.022204408	-9.060000E-01
13	  0.022404809	-1.913400E+01	  0.022404809	-6.416000E+00	  0.022404809	6.231100E+01	  0.022404809	-1.557000E+00
14	  0.022605211	-1.913200E+01	  0.022605211	-9.593000E+00	  0.022605211	6.218000E+01	  0.022605211	-2.318000E+00
15	  0.022805611	-1.900900E+01	  0.022805611	-1.269300E+01	  0.022805611	6.219000E+01	  0.022805611	-3.102000E+00
16	  0.023006011	-1.892600E+01	  0.023006011	-1.509700E+01	  0.023006011	6.214100E+01	  0.023006011	-3.710000E+00
17	  0.023206413	-1.897600E+01	  0.023206413	-1.787600E+01	  0.023206413	6.182300E+01	  0.023206413	-4.324000E+00
18	  0.023406813	-1.898200E+01	  0.023406813	-2.152600E+01	  0.023406813	6.144300E+01	  0.023406813	-5.134000E+00
19	  0.023607215	-1.884400E+01	  0.023607215	-2.409400E+01	  0.023607215	6.134000E+01	  0.023607215	-5.796000E+00
20	  0.023807615	-1.886500E+01	  0.023807615	-2.752500E+01	  0.023807615	6.086100E+01	  0.023807615	-6.494000E+00
21	  0.024008015	-1.874500E+01	  0.024008015	-3.046000E+01	  0.024008015	6.059300E+01	  0.024008015	-7.194000E+00
22	  0.024208417	-1.875200E+01	  0.024208417	-3.381000E+01	  0.024208417	6.005400E+01	  0.024208417	-7.820000E+00
23	  0.024408817	-1.874800E+01	  0.024408817	-3.825000E+01	  0.024408817	5.929900E+01	  0.024408817	-8.595000E+00
24	  0.024609219	-1.873600E+01	  0.024609219	-4.141300E+01	  0.024609219	5.873400E+01	  0.024609219	-9.109000E+00
25	  0.024809619	-1.865100E+01	  0.024809619	-4.560200E+01	  0.024809619	5.800600E+01	  0.024809619	-9.814000E+00
26	  0.025010020	-1.863000E+01	  0.025010020	-4.985300E+01	  0.025010020	5.716000E+01	  0.025010020	-1.037200E+01
27	  0.025210422	-1.867200E+01	  0.025210422	-5.386300E+01	  0.025210422	5.629200E+01	  0.025210422	-1.074000E+01
28	  0.025410822	-1.875900E+01	  0.025410822	-5.816800E+01	  0.025410822	5.533100E+01	  0.025410822	-1.099200E+01
29	  0.025611224	-1.880600E+01	  0.025611224	-6.254000E+01	  0.025611224	5.438000E+01	  0.025611224	-1.122000E+01
30	  0.025811624	-1.883100E+01	  0.025811624	-6.750800E+01	  0.025811624	5.331400E+01	  0.025811624	-1.142000E+01
31	  0.026012026	-1.896700E+01	  0.026012026	-7.315900E+01	  0.026012026	5.210500E+01	  0.026012026	-1.137700E+01
32	  0.026212426	-1.917800E+01	  0.026212426	-7.817600E+01	  0.026212426	5.107900E+01	  0.026212426	-1.112400E+01
33	  0.026412826	-1.933700E+01	  0.026412826	-8.430700E+01	  0.026412826	4.990400E+01	  0.026412826	-1.084500E+01
34	  0.026613226	-1.956500E+01	  0.026613226	-8.944800E+01	  0.026613226	4.900400E+01	  0.026613226	-1.041800E+01
35	  0.026813626	-1.988500E+01	  0.026813626	-9.613000E+01	  0.026813626	4.795600E+01	  0.026813626	-9.762000E+00
36	  0.027014028	-2.016200E+01	  0.027014028	-1.022910E+02	  0.027014028	4.709600E+01	  0.027014028	-9.121000E+00
37	  0.027214428	-2.056200E+01	  0.027214428	-1.089810E+02	  0.027214428	4.632800E+01	  0.027214428	-8.285000E+00
38	  0.027414829	-2.115800E+01	  0.027414829	-1.166770E+02	  0.027414829	4.567700E+01	  0.027414829	-7.199000E+00
39	  0.027615231	-2.163000E+01	  0.027615231	-1.229490E+02	  0.027615231	4.526400E+01	  0.027615231	-6.339000E+00
40	  0.027815631	-2.241100E+01	  0.027815631	-1.309770E+02	  0.027815631	4.498500E+01	  0.027815631	-5.175000E+00
41	  0.028016033	-2.331800E+01	  0.028016033	-1.360880E+02	  0.028016033	4.512000E+01	  0.028016033	-4.291000E+00
42	  0.028216433	-2.414700E+01	  0.028216433	-1.447150E+02	  0.028216433	4.506900E+01	  0.028216433	-3.242000E+00
43	  0.028416833	-2.511300E+01	  0.028416833	-1.508170E+02	  0.028416833	4.531400E+01	  0.028416833	-2.460000E+00
44	  0.028617235	-2.626500E+01	  0.028617235	-1.575730E+02	  0.028617235	4.566900E+01	  0.028617235	-1.697000E+00
45	  0.028817635	-2.733500E+01	  0.028817635	-1.641280E+02	  0.028817635	4.601800E+01	  0.028817635	-1.083000E+00
46	  0.029018037	-2.897100E+01	  0.029018037	-1.708750E+02	  0.029018037	4.660100E+01	  0.029018037	-5.260000E-01
47	  0.029218437	-3.017900E+01	  0.029218437	-1.752060E+02	  0.029218437	4.700500E+01	  0.029218437	-2.430000E-01
48	  0.029418837	-3.156200E+01	  0.029418837	1.790740E+02	  0.029418837	4.742600E+01	  0.029418837	4.000000E-02
49	  0.029619239	-3.344300E+01	  0.029619239	1.718410E+02	  0.029619239	4.793600E+01	  0.029619239	2.890000E-01
50	  0.029819639	-3.494800E+01	  0.029819639	1.654930E+02	  0.029819639	4.829500E+01	  0.029819639	4.320000E-01
51	  0.030020041	-3.687900E+01	  0.030020041	1.582890E+02	  0.030020041	4.868400E+01	  0.030020041	5.150000E-01
52	  0.030220442	-3.889800E+01	  0.030220442	1.540860E+02	  0.030220442	4.898600E+01	  0.030220442	4.860000E-01
53	  0.030420844	-4.155600E+01	  0.030420844	1.458390E+02	  0.030420844	4.931000E+01	  0.030420844	4.620000E-01
54	  0.030621244	-4.478500E+01	  0.030621244	1.425980E+02	  0.030621244	4.954200E+01	  0.030621244	3.460000E-01
55	  0.030821644	-4.642000E+01	  0.030821644	1.252150E+02	  0.030821644	4.972300E+01	  0.030821644	3.870000E-01
56	  0.031022044	-4.922700E+01	  0.031022044	1.241830E+02	  0.031022044	4.980500E+01	  0.031022044	2.840000E-01
57	  0.031222444	-4.941300E+01	  0.031222444	8.345500E+01	  0.031222444	5.003700E+01	  0.031222444	3.360000E-01
58	  0.031422846	-5.318500E+01	  0.031422846	5.969000E+01	  0.031422846	5.011000E+01	  0.031422846	1.890000E-01
59	  0.031623244	-4.927800E+01	  0.031623244	3.437600E+01	  0.031623244	5.028400E+01	  0.031623244	1.950000E-01
60	  0.031823646	-5.255300E+01	  0.031823646	2.025200E+01	  0.031823646	5.022100E+01	  0.031823646	8.100000E-02
61	  0.032024048	-4.710000E+01	  0.032024048	2.474300E+01	  0.032024048	5.040200E+01	  0.032024048	1.860000E-01
62	  0.032224450	-4.847700E+01	  0.032224450	-3.691000E+00	  0.032224450	5.037700E+01	  0.032224450	-2.400000E-02
63	  0.032424849	-4.747000E+01	  0.032424849	1.792300E+01	  0.032424849	5.040400E+01	  0.032424849	1.310000E-01
64	  0.032625251	-4.660300E+01	  0.032625251	1.752400E+01	  0.032625251	5.044700E+01	  0.032625251	1.420000E-01
65	  0.032825653	-4.855800E+01	  0.032825653	-6.815000E+00	  0.032825653	5.037200E+01	  0.032825653	-4.400000E-02
66	  0.033026051	-4.700900E+01	  0.033026051	-2.278000E+00	  0.033026051	5.044700E+01	  0.033026051	-1.700000E-02
67	  0.033226453	-4.442600E+01	  0.033226453	-3.818000E+00	  0.033226453	5.060200E+01	  0.033226453	-4.000000E-02
68	  0.033426855	-4.664600E+01	  0.033426855	-2.020000E+00	  0.033426855	5.046700E+01	  0.033426855	-1.600000E-02
69	  0.033627257	-4.629000E+01	  0.033627257	-6.232000E+00	  0.033627257	5.048400E+01	  0.033627257	-5.300000E-02
70	  0.033827655	-4.608900E+01	  0.033827655	-8.870000E-01	  0.033827655	5.049800E+01	  0.033827655	-7.000000E-03
71	  0.034028057	-4.759100E+01	  0.034028057	4.028000E+00	  0.034028057	5.041700E+01	  0.034028057	2.900000E-02
72	  0.034228459	-4.526800E+01	  0.034228459	1.437800E+01	  0.034228459	5.053000E+01	  0.034228459	1.360000E-01
73	  0.034428857	-4.306600E+01	  0.034428857	7.737000E+00	  0.034428857	5.070000E+01	  0.034428857	9.500000E-02
74	  0.034629259	-4.456000E+01	  0.034629259	5.853000E+00	  0.034629259	5.059100E+01	  0.034629259	6.100000E-02
75	  0.034829661	-4.428400E+01	  0.034829661	2.293000E+00	  0.034829661	5.061300E+01	  0.034829661	2.400000E-02
76	  0.035030060	-4.221600E+01	  0.035030060	1.263000E+01	  0.035030060	5.076100E+01	  0.035030060	1.720000E-01
77	  0.035230462	-4.209500E+01	  0.035230462	1.603700E+01	  0.035230462	5.076000E+01	  0.035230462	2.200000E-01
78	  0.035430863	-4.205400E+01	  0.035430863	1.043200E+01	  0.035430863	5.078200E+01	  0.035430863	1.450000E-01
79	  0.035631265	-4.097700E+01	  0.035631265	3.920000E+00	  0.035631265	5.089900E+01	  0.035631265	6.200000E-02
80	  0.035831664	-4.237600E+01	  0.035831664	1.333200E+01	  0.035831664	5.074500E+01	  0.035831664	1.780000E-01
81	  0.036032066	-3.972000E+01	  0.036032066	1.790300E+01	  0.036032066	5.099100E+01	  0.036032066	3.230000E-01
82	  0.036232468	-4.061100E+01	  0.036232468	1.480800E+01	  0.036232468	5.090800E+01	  0.036232468	2.420000E-01
83	  0.036432866	-4.056400E+01	  0.036432866	1.106300E+01	  0.036432866	5.092700E+01	  0.036432866	1.830000E-01
84	  0.036633268	-4.036700E+01	  0.036633268	1.421100E+01	  0.036633268	5.093700E+01	  0.036633268	2.390000E-01
85	  0.036833670	-3.909700E+01	  0.036833670	1.454200E+01	  0.036833670	5.108400E+01	  0.036833670	2.840000E-01
86	  0.037034072	-3.871100E+01	  0.037034072	1.149100E+01	  0.037034072	5.114900E+01	  0.037034072	2.360000E-01
87	  0.037234470	-3.858500E+01	  0.037234470	1.722600E+01	  0.037234470	5.113500E+01	  0.037234470	3.560000E-01
88	  0.037434869	-3.825200E+01	  0.037434869	8.948000E+00	  0.037434869	5.122200E+01	  0.037434869	1.940000E-01
89	  0.037635271	-3.876400E+01	  0.037635271	5.728000E+00	  0.037635271	5.116000E+01	  0.037635271	1.170000E-01
90	  0.037835669	-3.898600E+01	  0.037835669	9.712000E+00	  0.037835669	5.111900E+01	  0.037835669	1.930000E-01
91	  0.038036071	-3.814800E+01	  0.038036071	4.727000E+00	  0.038036071	5.124800E+01	  0.038036071	1.040000E-01
92	  0.038236473	-3.781100E+01	  0.038236473	7.266000E+00	  0.038236473	5.129200E+01	  0.038236473	1.660000E-01
93	  0.038436871	-3.811000E+01	  0.038436871	3.400000E+00	  0.038436871	5.125600E+01	  0.038436871	7.500000E-02
94	  0.038637273	-3.794200E+01	  0.038637273	9.878000E+00	  0.038637273	5.126300E+01	  0.038637273	2.220000E-01
95	  0.038837675	-3.773400E+01	  0.038837675	2.165000E+00	  0.038837675	5.131400E+01	  0.038837675	5.000000E-02
96	  0.039038073	-3.693400E+01	  0.039038073	3.480000E-01	  0.039038073	5.144300E+01	  0.039038073	8.000000E-03
97	  0.039238475	-3.730600E+01	  0.039238475	2.395000E+00	  0.039238475	5.138100E+01	  0.039238475	5.800000E-02
98	  0.039438877	-3.685200E+01	  0.039438877	6.340000E-01	  0.039438877	5.145700E+01	  0.039438877	1.600000E-02
99	  0.039639279	-3.725100E+01	  0.039639279	-3.126000E+00	  0.039639279	5.138900E+01	  0.039639279	-7.600000E-02
100	  0.039839678	-3.745600E+01	  0.039839678	-2.847000E+00	  0.039839678	5.135600E+01	  0.039839678	-6.800000E-02
101	  0.040040080	-3.749000E+01	  0.040040080	-1.080000E-01	  0.040040080	5.135300E+01	  0.040040080	-2.000000E-03
102	  0.040240481	-3.729000E+01	  0.040240481	-1.976000E+00	  0.040240481	5.138400E+01	  0.040240481	-4.800000E-02
103	  0.040440880	-3.819500E+01	  0.040440880	4.330000E-01	  0.040440880	5.124600E+01	  0.040440880	9.000000E-03
104	  0.040641282	-3.759900E+01	  0.040641282	-5.389000E+00	  0.040641282	5.132900E+01	  0.040641282	-1.270000E-01
105	  0.040841684	-3.777200E+01	  0.040841684	-4.326000E+00	  0.040841684	5.130500E+01	  0.040841684	-1.000000E-01
106	  0.041042086	-3.762900E+01	  0.041042086	-7.353000E+00	  0.041042086	5.131900E+01	  0.041042086	-1.720000E-01
107	  0.041242484	-3.702600E+01	  0.041242484	-6.925000E+00	  0.041242484	5.141700E+01	  0.041242484	-1.740000E-01
108	  0.041442886	-3.668500E+01	  0.041442886	-1.273700E+01	  0.041442886	5.144800E+01	  0.041442886	-3.320000E-01
109	  0.041643288	-3.789900E+01	  0.041643288	-9.900000E+00	  0.041643288	5.127000E+01	  0.041643288	-2.240000E-01
110	  0.041843686	-3.748800E+01	  0.041843686	-8.652000E+00	  0.041843686	5.133700E+01	  0.041843686	-2.060000E-01
111	  0.042044088	-3.740400E+01	  0.042044088	-9.494000E+00	  0.042044088	5.134700E+01	  0.042044088	-2.280000E-01
112	  0.042244490	-3.780700E+01	  0.042244490	-1.259000E+01	  0.042244490	5.127100E+01	  0.042244490	-2.870000E-01
113	  0.042444889	-3.717000E+01	  0.042444889	-1.410400E+01	  0.042444889	5.136000E+01	  0.042444889	-3.460000E-01
114	  0.042645290	-3.777000E+01	  0.042645290	-1.306300E+01	  0.042645290	5.127400E+01	  0.042645290	-2.990000E-01
115	  0.042845692	-3.904700E+01	  0.042845692	-8.731000E+00	  0.042845692	5.111400E+01	  0.042845692	-1.730000E-01
116	  0.043046094	-3.777200E+01	  0.043046094	-1.737900E+01	  0.043046094	5.124700E+01	  0.043046094	-3.950000E-01
117	  0.043246493	-3.765500E+01	  0.043246493	-1.798100E+01	  0.043246493	5.125900E+01	  0.043246493	-4.140000E-01
118	  0.043446895	-3.808400E+01	  0.043446895	-1.601700E+01	  0.043446895	5.121100E+01	  0.043446895	-3.520000E-01
119	  0.043647297	-3.896700E+01	  0.043647297	-1.397400E+01	  0.043647297	5.110400E+01	  0.043647297	-2.770000E-01
120	  0.043847695	-3.958400E+01	  0.043847695	-9.108000E+00	  0.043847695	5.104600E+01	  0.043847695	-1.690000E-01
121	  0.044048097	-4.017800E+01	  0.044048097	-6.582000E+00	  0.044048097	5.098200E+01	  0.044048097	-1.140000E-01
122	  0.044248499	-3.850300E+01	  0.044248499	-1.513500E+01	  0.044248499	5.115900E+01	  0.044248499	-3.170000E-01
123	  0.044448901	-3.940500E+01	  0.044448901	-1.089800E+01	  0.044448901	5.106200E+01	  0.044448901	-2.060000E-01
124	  0.044649299	-3.953700E+01	  0.044649299	-1.509300E+01	  0.044649299	5.102700E+01	  0.044649299	-2.800000E-01
125	  0.044849701	-3.965200E+01	  0.044849701	-1.561300E+01	  0.044849701	5.101100E+01	  0.044849701	-2.850000E-01
126	  0.045050103	-3.971200E+01	  0.045050103	-1.444100E+01	  0.045050103	5.101000E+01	  0.045050103	-2.630000E-01
127	  0.045250501	-3.909900E+01	  0.045250501	-1.370200E+01	  0.045250501	5.108800E+01	  0.045250501	-2.680000E-01
128	  0.045450903	-3.891700E+01	  0.045450903	-1.782900E+01	  0.045450903	5.108800E+01	  0.045450903	-3.540000E-01
129	  0.045651305	-3.930600E+01	  0.045651305	-1.668100E+01	  0.045651305	5.104700E+01	  0.045651305	-3.170000E-01
130	  0.045851704	-4.062100E+01	  0.045851704	-1.359200E+01	  0.045851704	5.091200E+01	  0.045851704	-2.220000E-01
131	  0.046052106	-4.011000E+01	  0.046052106	-1.127900E+01	  0.046052106	5.097700E+01	  0.046052106	-1.960000E-01
132	  0.046252504	-4.018500E+01	  0.046252504	-8.783000E+00	  0.046252504	5.097600E+01	  0.046252504	-1.520000E-01
133	  0.046452906	-4.067300E+01	  0.046452906	-9.812000E+00	  0.046452906	5.091900E+01	  0.046452906	-1.600000E-01
134	  0.046653304	-4.097200E+01	  0.046653304	-1.660400E+01	  0.046653304	5.086300E+01	  0.046653304	-2.590000E-01
135	  0.046853706	-4.057400E+01	  0.046853706	-2.935000E+00	  0.046853706	5.094300E+01	  0.046853706	-4.800000E-02
136	  0.047054108	-4.058900E+01	  0.047054108	-4.910000E+00	  0.047054108	5.093900E+01	  0.047054108	-8.100000E-02
137	  0.047254506	-4.127700E+01	  0.047254506	2.242000E+00	  0.047254506	5.087000E+01	  0.047254506	3.400000E-02
138	  0.047454908	-3.978300E+01	  0.047454908	-4.286000E+00	  0.047454908	5.103200E+01	  0.047454908	-7.800000E-02
139	  0.047655310	-4.276600E+01	  0.047655310	2.509000E+00	  0.047655310	5.073100E+01	  0.047655310	3.200000E-02
140	  0.047855709	-4.088600E+01	  0.047855709	1.500000E-01	  0.047855709	5.091100E+01	  0.047855709	2.000000E-03
141	  0.048056111	-4.177000E+01	  0.048056111	7.951000E+00	  0.048056111	5.081400E+01	  0.048056111	1.140000E-01
142	  0.048256513	-4.180500E+01	  0.048256513	7.898000E+00	  0.048256513	5.081100E+01	  0.048256513	1.130000E-01
143	  0.048456915	-4.203100E+01	  0.048456915	1.208800E+01	  0.048456915	5.077900E+01	  0.048456915	1.680000E-01
144	  0.048657313	-4.129800E+01	  0.048657313	1.571700E+01	  0.048657313	5.083500E+01	  0.048657313	2.370000E-01
145	  0.048857715	-4.284500E+01	  0.048857715	1.881600E+01	  0.048857715	5.068600E+01	  0.048857715	2.350000E-01
146	  0.049058117	-4.109200E+01	  0.049058117	1.559500E+01	  0.049058117	5.085600E+01	  0.049058117	2.410000E-01
147	  0.049258515	-4.113800E+01	  0.049258515	1.843500E+01	  0.049258515	5.083800E+01	  0.049258515	2.820000E-01
148	  0.049458917	-4.063100E+01	  0.049458917	1.998600E+01	  0.049458917	5.088000E+01	  0.049458917	3.230000E-01
149	  0.049659319	-4.186100E+01	  0.049659319	2.143000E+01	  0.049659319	5.075600E+01	  0.049659319	2.990000E-01
150	  0.049859721	-4.154800E+01	  0.049859721	1.764900E+01	  0.049859721	5.080300E+01	  0.049859721	2.570000E-01
151	  0.050060119	-4.011700E+01	  0.050060119	2.820200E+01	  0.050060119	5.087400E+01	  0.050060119	4.740000E-01
152	  0.050260521	-4.056100E+01	  0.050260521	2.503000E+01	  0.050260521	5.085500E+01	  0.050260521	4.030000E-01
153	  0.050460923	-4.050800E+01	  0.050460923	1.757000E+01	  0.050460923	5.090600E+01	  0.050460923	2.890000E-01
154	  0.050661322	-3.988700E+01	  0.050661322	2.978400E+01	  0.050661322	5.088400E+01	  0.050661322	5.120000E-01
155	  0.050861724	-3.844700E+01	  0.050861724	2.749400E+01	  0.050861724	5.106800E+01	  0.050861724	5.630000E-01
156	  0.051062126	-3.931800E+01	  0.051062126	2.867300E+01	  0.051062126	5.095500E+01	  0.051062126	5.280000E-01
157	  0.051262524	-3.883900E+01	  0.051262524	3.034700E+01	  0.051262524	5.099200E+01	  0.051262524	5.890000E-01
158	  0.051462926	-3.855600E+01	  0.051462926	2.829300E+01	  0.051462926	5.104700E+01	  0.051462926	5.710000E-01
159	  0.051663328	-3.892600E+01	  0.051663328	2.544100E+01	  0.051663328	5.102900E+01	  0.051663328	4.960000E-01
160	  0.051863730	-3.789600E+01	  0.051863730	2.575400E+01	  0.051863730	5.115700E+01	  0.051863730	5.660000E-01
161	  0.052064128	-3.883900E+01	  0.052064128	2.962000E+01	  0.052064128	5.100000E+01	  0.052064128	5.760000E-01
162	  0.052264530	-3.764200E+01	  0.052264530	2.730400E+01	  0.052264530	5.117500E+01	  0.052264530	6.160000E-01
163	  0.052464932	-3.819900E+01	  0.052464932	3.332800E+01	  0.052464932	5.103300E+01	  0.052464932	6.900000E-01
164	  0.052665330	-3.743800E+01	  0.052665330	2.955500E+01	  0.052665330	5.117700E+01	  0.052665330	6.780000E-01
165	  0.052865732	-3.717300E+01	  0.052865732	2.730600E+01	  0.052865732	5.124100E+01	  0.052865732	6.510000E-01
166	  0.053066134	-3.717300E+01	  0.053066134	2.724200E+01	  0.053066134	5.124200E+01	  0.053066134	6.490000E-01
167	  0.053266536	-3.618300E+01	  0.053266536	2.278900E+01	  0.053266536	5.144700E+01	  0.053266536	6.180000E-01
168	  0.053466935	-3.609600E+01	  0.053466935	2.801500E+01	  0.053466935	5.139700E+01	  0.053466935	7.570000E-01
169	  0.053667337	-3.731400E+01	  0.053667337	2.316600E+01	  0.053667337	5.126500E+01	  0.053667337	5.490000E-01
170	  0.053867739	-3.618300E+01	  0.053867739	2.079100E+01	  0.053867739	5.146800E+01	  0.053867739	5.670000E-01
171	  0.054068137	-3.610400E+01	  0.054068137	2.257200E+01	  0.054068137	5.146300E+01	  0.054068137	6.180000E-01
172	  0.054268539	-3.627700E+01	  0.054268539	1.540200E+01	  0.054268539	5.150000E+01	  0.054268539	4.200000E-01
173	  0.054468941	-3.546400E+01	  0.054468941	1.680500E+01	  0.054468941	5.163700E+01	  0.054468941	5.030000E-01
174	  0.054669339	-3.635400E+01	  0.054669339	2.310500E+01	  0.054669339	5.141500E+01	  0.054669339	6.140000E-01
175	  0.054869737	-3.560400E+01	  0.054869737	1.844600E+01	  0.054869737	5.159500E+01	  0.054869737	5.410000E-01
176	  0.055070139	-3.578200E+01	  0.055070139	1.758900E+01	  0.055070139	5.157000E+01	  0.055070139	5.060000E-01
177	  0.055270538	-3.570200E+01	  0.055270538	1.552700E+01	  0.055270538	5.160300E+01	  0.055270538	4.530000E-01
178	  0.055470940	-3.509900E+01	  0.055470940	1.953200E+01	  0.055470940	5.168100E+01	  0.055470940	6.070000E-01
179	  0.055671342	-3.445700E+01	  0.055671342	1.519200E+01	  0.055671342	5.185800E+01	  0.055671342	5.140000E-01
180	  0.055871744	-3.478200E+01	  0.055871744	1.312800E+01	  0.055871744	5.180500E+01	  0.055871744	4.290000E-01
181	  0.056072142	-3.483300E+01	  0.056072142	1.472400E+01	  0.056072142	5.178200E+01	  0.056072142	4.770000E-01
182	  0.056272544	-3.455800E+01	  0.056272544	1.373500E+01	  0.056272544	5.184900E+01	  0.056272544	4.600000E-01
183	  0.056472946	-3.477600E+01	  0.056472946	1.489300E+01	  0.056472946	5.179200E+01	  0.056472946	4.850000E-01
184	  0.056673344	-3.464600E+01	  0.056673344	9.032000E+00	  0.056673344	5.186200E+01	  0.056673344	3.010000E-01
185	  0.056873746	-3.464800E+01	  0.056873746	9.539000E+00	  0.056873746	5.185900E+01	  0.056873746	3.180000E-01
186	  0.057074148	-3.472200E+01	  0.057074148	7.507000E+00	  0.057074148	5.185300E+01	  0.057074148	2.480000E-01
187	  0.057274550	-3.414400E+01	  0.057274550	1.088200E+01	  0.057274550	5.196300E+01	  0.057274550	3.850000E-01
188	  0.057474948	-3.458800E+01	  0.057474948	7.050000E+00	  0.057474948	5.188400E+01	  0.057474948	2.370000E-01
189	  0.057675350	-3.432000E+01	  0.057675350	1.003000E+01	  0.057675350	5.192800E+01	  0.057675350	3.470000E-01
190	  0.057875752	-3.441500E+01	  0.057875752	4.520000E+00	  0.057875752	5.193200E+01	  0.057875752	1.550000E-01
191	  0.058076151	-3.436800E+01	  0.058076151	4.528000E+00	  0.058076151	5.194300E+01	  0.058076151	1.560000E-01
192	  0.058276553	-3.423100E+01	  0.058276553	4.282000E+00	  0.058276553	5.197500E+01	  0.058276553	1.500000E-01
193	  0.058476955	-3.437900E+01	  0.058476955	3.668000E+00	  0.058476955	5.194200E+01	  0.058476955	1.270000E-01
194	  0.058677353	-3.411800E+01	  0.058677353	3.018000E+00	  0.058677353	5.200400E+01	  0.058677353	1.070000E-01
195	  0.058877755	-3.417000E+01	  0.058877755	3.812000E+00	  0.058877755	5.199000E+01	  0.058877755	1.350000E-01
196	  0.059078157	-3.396200E+01	  0.059078157	2.229000E+00	  0.059078157	5.204300E+01	  0.059078157	8.100000E-02
197	  0.059278559	-3.436500E+01	  0.059278559	2.353000E+00	  0.059278559	5.194800E+01	  0.059278559	8.100000E-02
198	  0.059478957	-3.419900E+01	  0.059478957	-2.390000E+00	  0.059478957	5.198600E+01	  0.059478957	-8.400000E-02
199	  0.059679359	-3.397400E+01	  0.059679359	-1.398000E+00	  0.059679359	5.204100E+01	  0.059679359	-5.000000E-02
200	  0.059879761	-3.430800E+01	  0.059879761	-1.093000E+00	  0.059879761	5.196300E+01	  0.059879761	-3.800000E-02
201	  0.060080159	-3.399900E+01	  0.060080159	-4.630000E+00	  0.060080159	5.202900E+01	  0.060080159	-1.670000E-01
202	  0.060280561	-3.417300E+01	  0.060280561	-7.479000E+00	  0.060280561	5.197600E+01	  0.060280561	-2.640000E-01
203	  0.060480963	-3.397300E+01	  0.060480963	-6.469000E+00	  0.060480963	5.202800E+01	  0.060480963	-2.340000E-01
204	  0.060681365	-3.420000E+01	  0.060681365	-8.482000E+00	  0.060681365	5.196500E+01	  0.060681365	-2.990000E-01
205	  0.060881764	-3.452700E+01	  0.060881764	-1.265100E+01	  0.060881764	5.186400E+01	  0.060881764	-4.260000E-01
206	  0.061082166	-3.459500E+01	  0.061082166	-1.102100E+01	  0.061082166	5.186100E+01	  0.061082166	-3.690000E-01
207	  0.061282568	-3.433800E+01	  0.061282568	-8.355000E+00	  0.061282568	5.193400E+01	  0.061282568	-2.890000E-01
208	  0.061482966	-3.410300E+01	  0.061482966	-1.140100E+01	  0.061482966	5.196900E+01	  0.061482966	-4.050000E-01
209	  0.061683368	-3.385200E+01	  0.061683368	-1.301800E+01	  0.061683368	5.201500E+01	  0.061683368	-4.750000E-01
210	  0.061883770	-3.443900E+01	  0.061883770	-1.240400E+01	  0.061883770	5.188500E+01	  0.061883770	-4.220000E-01
211	  0.062084168	-3.439300E+01	  0.062084168	-1.562700E+01	  0.062084168	5.186800E+01	  0.062084168	-5.330000E-01
212	  0.062284570	-3.461800E+01	  0.062284570	-1.448100E+01	  0.062284570	5.182900E+01	  0.062284570	-4.810000E-01
213	  0.062484972	-3.421200E+01	  0.062484972	-2.012000E+01	  0.062484972	5.185700E+01	  0.062484972	-6.940000E-01
214	  0.062685370	-3.567600E+01	  0.062685370	-1.747100E+01	  0.062685370	5.159100E+01	  0.062685370	-5.090000E-01
215	  0.062885776	-3.458800E+01	  0.062885776	-2.209300E+01	  0.062885776	5.175200E+01	  0.062885776	-7.260000E-01
216	  0.063086174	-3.487500E+01	  0.063086174	-2.561000E+01	  0.063086174	5.164700E+01	  0.063086174	-8.050000E-01
217	  0.063286573	-3.505700E+01	  0.063286573	-2.849700E+01	  0.063286573	5.156900E+01	  0.063286573	-8.690000E-01
218	  0.063486971	-3.522200E+01	  0.063486971	-2.664100E+01	  0.063486971	5.156700E+01	  0.063486971	-8.010000E-01
219	  0.063687377	-3.586000E+01	  0.063687377	-2.073700E+01	  0.063687377	5.152500E+01	  0.063687377	-5.870000E-01
220	  0.063887775	-3.587100E+01	  0.063887775	-2.617700E+01	  0.063887775	5.145900E+01	  0.063887775	-7.300000E-01
221	  0.064088173	-3.500100E+01	  0.064088173	-2.583700E+01	  0.064088173	5.161900E+01	  0.064088173	-8.000000E-01
222	  0.064288579	-3.548400E+01	  0.064288579	-2.988200E+01	  0.064288579	5.147200E+01	  0.064288579	-8.620000E-01
223	  0.064488977	-3.519700E+01	  0.064488977	-2.972300E+01	  0.064488977	5.152400E+01	  0.064488977	-8.880000E-01
224	  0.064689375	-3.600200E+01	  0.064689375	-2.851100E+01	  0.064689375	5.140500E+01	  0.064689375	-7.770000E-01
225	  0.064889781	-3.613100E+01	  0.064889781	-3.715200E+01	  0.064889781	5.125000E+01	  0.064889781	-9.660000E-01
226	  0.065090179	-3.650400E+01	  0.065090179	-3.328900E+01	  0.065090179	5.125800E+01	  0.065090179	-8.410000E-01
227	  0.065290578	-3.643700E+01	  0.065290578	-3.621000E+01	  0.065290578	5.122200E+01	  0.065290578	-9.120000E-01
228	  0.065490983	-3.745400E+01	  0.065490983	-2.995100E+01	  0.065490983	5.117000E+01	  0.065490983	-6.850000E-01
229	  0.065691382	-3.691300E+01	  0.065691382	-3.710400E+01	  0.065691382	5.114300E+01	  0.065691382	-8.800000E-01
230	  0.065891780	-3.732900E+01	  0.065891780	-3.793300E+01	  0.065891780	5.107700E+01	  0.065891780	-8.540000E-01
231	  0.066092186	-3.661300E+01	  0.066092186	-4.128200E+01	  0.066092186	5.111200E+01	  0.066092186	-9.960000E-01
232	  0.066292584	-3.793200E+01	  0.066292584	-4.197200E+01	  0.066292584	5.094400E+01	  0.066292584	-8.640000E-01
233	  0.066492982	-3.767400E+01	  0.066492982	-4.190300E+01	  0.066492982	5.097400E+01	  0.066492982	-8.900000E-01
234	  0.066693388	-3.768800E+01	  0.066693388	-3.954200E+01	  0.066693388	5.100900E+01	  0.066693388	-8.470000E-01
235	  0.066893786	-3.765500E+01	  0.066893786	-4.098800E+01	  0.066893786	5.099000E+01	  0.066893786	-8.760000E-01
236	  0.067094192	-3.842600E+01	  0.067094192	-4.545900E+01	  0.067094192	5.084000E+01	  0.067094192	-8.680000E-01
237	  0.067294590	-3.843000E+01	  0.067294590	-4.327000E+01	  0.067294590	5.087300E+01	  0.067294590	-8.350000E-01
238	  0.067494988	-3.988000E+01	  0.067494988	-5.060900E+01	  0.067494988	5.064100E+01	  0.067494988	-7.930000E-01
239	  0.067695394	-3.851100E+01	  0.067695394	-4.787700E+01	  0.067695394	5.079400E+01	  0.067695394	-8.940000E-01
240	  0.067895792	-3.850700E+01	  0.067895792	-4.958700E+01	  0.067895792	5.076700E+01	  0.067895792	-9.180000E-01
241	  0.068096191	-4.011400E+01	  0.068096191	-4.175300E+01	  0.068096191	5.073700E+01	  0.068096191	-6.660000E-01
242	  0.068296596	-3.949500E+01	  0.068296596	-4.810400E+01	  0.068296596	5.070600E+01	  0.068296596	-8.000000E-01
243	  0.068496995	-4.009700E+01	  0.068496995	-4.824200E+01	  0.068496995	5.065700E+01	  0.068496995	-7.470000E-01
244	  0.068697393	-4.065700E+01	  0.068697393	-4.854900E+01	  0.068697393	5.061200E+01	  0.068697393	-7.030000E-01
245	  0.068897791	-4.055200E+01	  0.068897791	-5.546700E+01	  0.068897791	5.052800E+01	  0.068897791	-7.810000E-01
246	  0.069098189	-4.232900E+01	  0.069098189	-4.412600E+01	  0.069098189	5.054900E+01	  0.069098189	-5.380000E-01
247	  0.069298595	-4.282700E+01	  0.069298595	-5.383500E+01	  0.069298595	5.042400E+01	  0.069298595	-5.880000E-01
248	  0.069498993	-4.254900E+01	  0.069498993	-5.933700E+01	  0.069498993	5.037700E+01	  0.069498993	-6.460000E-01
249	  0.069699399	-4.152000E+01	  0.069699399	-5.265300E+01	  0.069699399	5.050700E+01	  0.069699399	-6.740000E-01
250	  0.069899797	-4.281500E+01	  0.069899797	-5.620900E+01	  0.069899797	5.040000E+01	  0.069899797	-6.050000E-01
251	  0.070100196	-4.311700E+01	  0.070100196	-6.582900E+01	  0.070100196	5.028200E+01	  0.070100196	-6.400000E-01
252	  0.070300601	-4.323900E+01	  0.070300601	-4.569800E+01	  0.070300601	5.048000E+01	  0.070300601	-4.970000E-01
253	  0.070501000	-4.444300E+01	  0.070501000	-5.625400E+01	  0.070501000	5.033100E+01	  0.070501000	-5.010000E-01
254	  0.070701398	-4.487800E+01	  0.070701398	-6.335200E+01	  0.070701398	5.025300E+01	  0.070701398	-5.120000E-01
255	  0.070901804	-4.424000E+01	  0.070901804	-8.302200E+01	  0.070901804	5.007000E+01	  0.070901804	-6.100000E-01
256	  0.071102202	-4.651600E+01	  0.071102202	-5.273500E+01	  0.071102202	5.028500E+01	  0.071102202	-3.780000E-01
257	  0.071302600	-4.742900E+01	  0.071302600	-5.273800E+01	  0.071302600	5.025600E+01	  0.071302600	-3.400000E-01
258	  0.071503006	-4.942000E+01	  0.071503006	-6.989400E+01	  0.071503006	5.011500E+01	  0.071503006	-3.180000E-01
259	  0.071703404	-5.053100E+01	  0.071703404	-6.832800E+01	  0.071703404	5.010900E+01	  0.071703404	-2.770000E-01
260	  0.071903802	-4.836500E+01	  0.071903802	-6.638800E+01	  0.071903802	5.015100E+01	  0.071903802	-3.500000E-01
261	  0.072104208	-4.793500E+01	  0.072104208	-6.567600E+01	  0.072104208	5.016400E+01	  0.072104208	-3.660000E-01
262	  0.072304606	-5.125900E+01	  0.072304606	-9.509700E+01	  0.072304606	4.997400E+01	  0.072304606	-2.720000E-01
263	  0.072505005	-5.263900E+01	  0.072505005	-7.814200E+01	  0.072505005	5.004700E+01	  0.072505005	-2.280000E-01
264	  0.072705410	-4.902300E+01	  0.072705410	-6.500100E+01	  0.072705410	5.014800E+01	  0.072705410	-3.210000E-01
265	  0.072905809	-5.118400E+01	  0.072905809	-9.518500E+01	  0.072905809	4.997400E+01	  0.072905809	-2.740000E-01
266	  0.073106214	-5.142800E+01	  0.073106214	-8.367400E+01	  0.073106214	5.002800E+01	  0.073106214	-2.660000E-01
267	  0.073306613	-5.436800E+01	  0.073306613	-9.283700E+01	  0.073306613	4.999000E+01	  0.073306613	-1.900000E-01
268	  0.073507011	-6.170100E+01	  0.073507011	-1.018550E+02	  0.073507011	4.998300E+01	  0.073507011	-8.000000E-02
269	  0.073707417	-5.501200E+01	  0.073707417	-7.964500E+01	  0.073707417	5.003100E+01	  0.073707417	-1.740000E-01
270	  0.073907815	-6.057000E+01	  0.073907815	-2.490500E+01	  0.073907815	5.008400E+01	  0.073907815	-3.900000E-02
271	  0.074108213	-7.511900E+01	  0.074108213	1.342300E+01	  0.074108213	5.001700E+01	  0.074108213	4.000000E-03
272	  0.074308619	-5.493300E+01	  0.074308619	-1.021260E+02	  0.074308619	4.996200E+01	  0.074308619	-1.750000E-01
273	  0.074509017	-5.967500E+01	  0.074509017	-1.554220E+02	  0.074509017	4.990500E+01	  0.074509017	-4.300000E-02
274	  0.074709415	-6.072300E+01	  0.074709415	1.375220E+02	  0.074709415	4.993200E+01	  0.074709415	6.200000E-02
275	  0.074909821	-6.038300E+01	  0.074909821	8.512000E+00	  0.074909821	5.009400E+01	  0.074909821	1.400000E-02
276	  0.075110219	-5.492000E+01	  0.075110219	-1.774830E+02	  0.075110219	4.982100E+01	  0.075110219	-7.000000E-03
277	  0.075310618	-7.201500E+01	  0.075310618	1.177730E+02	  0.075310618	4.998800E+01	  0.075310618	2.200000E-02
278	  0.075511023	-5.250700E+01	  0.075511023	1.226840E+02	  0.075511023	4.987100E+01	  0.075511023	1.980000E-01
279	  0.075711422	-5.001500E+01	  0.075711422	-1.790760E+02	  0.075711422	4.968500E+01	  0.075711422	-5.000000E-03
280	  0.075911827	-5.341100E+01	  0.075911827	-1.585720E+02	  0.075911827	4.980100E+01	  0.075911827	-7.700000E-02
281	  0.076112226	-5.492500E+01	  0.076112226	-1.671850E+02	  0.076112226	4.982500E+01	  0.076112226	-3.900000E-02
282	  0.076312624	-5.595100E+01	  0.076312624	1.552490E+02	  0.076312624	4.985500E+01	  0.076312624	6.600000E-02
283	  0.076513030	-5.401000E+01	  0.076513030	1.404050E+02	  0.076513030	4.984600E+01	  0.076513030	1.260000E-01
284	  0.076713428	-5.245200E+01	  0.076713428	1.649810E+02	  0.076713428	4.977000E+01	  0.076713428	6.100000E-02
285	  0.076913826	-4.905900E+01	  0.076913826	1.616700E+02	  0.076913826	4.966600E+01	  0.076913826	1.100000E-01
286	  0.077114232	-4.546900E+01	  0.077114232	1.503750E+02	  0.077114232	4.953800E+01	  0.077114232	2.600000E-01
287	  0.077314630	-4.686000E+01	  0.077314630	-1.737620E+02	  0.077314630	4.955000E+01	  0.077314630	-4.800000E-02
288	  0.077515028	-4.568300E+01	  0.077515028	-1.791660E+02	  0.077515028	4.948200E+01	  0.077515028	-7.000000E-03
289	  0.077715434	-4.375900E+01	  0.077715434	1.536760E+02	  0.077715434	4.942100E+01	  0.077715434	2.840000E-01
290	  0.077915832	-4.236700E+01	  0.077915832	1.586730E+02	  0.077915832	4.929400E+01	  0.077915832	2.730000E-01
291	  0.078116231	-4.230000E+01	  0.078116231	1.561580E+02	  0.078116231	4.930200E+01	  0.078116231	3.050000E-01
292	  0.078316636	-4.167000E+01	  0.078316636	1.583090E+02	  0.078316636	4.923800E+01	  0.078316636	3.000000E-01
293	  0.078517035	-4.063900E+01	  0.078517035	1.567640E+02	  0.078517035	4.915200E+01	  0.078517035	3.600000E-01
294	  0.078717433	-4.000800E+01	  0.078717433	1.485150E+02	  0.078717433	4.915200E+01	  0.078717433	5.120000E-01
295	  0.078917839	-3.980100E+01	  0.078917839	1.519330E+02	  0.078917839	4.910200E+01	  0.078917839	4.720000E-01
296	  0.079118237	-3.885200E+01	  0.079118237	1.510790E+02	  0.079118237	4.900800E+01	  0.079118237	5.410000E-01
297	  0.079318643	-3.786200E+01	  0.079318643	1.541230E+02	  0.079318643	4.885900E+01	  0.079318643	5.450000E-01
298	  0.079519041	-3.758500E+01	  0.079519041	1.536880E+02	  0.079519041	4.882600E+01	  0.079519041	5.710000E-01
299	  0.079719439	-3.759200E+01	  0.079719439	1.526220E+02	  0.079719439	4.883800E+01	  0.079719439	5.920000E-01
300	  0.079919845	-3.560400E+01	  0.079919845	1.553260E+02	  0.079919845	4.851000E+01	  0.079919845	6.710000E-01
301	  0.080120243	-3.558000E+01	  0.080120243	1.541500E+02	  0.080120243	4.852000E+01	  0.080120243	7.030000E-01
302	  0.080320641	-3.440100E+01	  0.080320641	1.535250E+02	  0.080320641	4.831600E+01	  0.080320641	8.210000E-01
303	  0.080521047	-3.444600E+01	  0.080521047	1.465950E+02	  0.080521047	4.843200E+01	  0.080521047	1.011000E+00
304	  0.080721445	-3.371300E+01	  0.080721445	1.459550E+02	  0.080721445	4.830700E+01	  0.080721445	1.115000E+00
305	  0.080921844	-3.287300E+01	  0.080921844	1.455810E+02	  0.080921844	4.814400E+01	  0.080921844	1.237000E+00
306	  0.081122249	-3.241200E+01	  0.081122249	1.436740E+02	  0.081122249	4.808700E+01	  0.081122249	1.365000E+00
307	  0.081322648	-3.153500E+01	  0.081322648	1.414250E+02	  0.081322648	4.794400E+01	  0.081322648	1.585000E+00
308	  0.081523046	-3.157000E+01	  0.081523046	1.376980E+02	  0.081523046	4.805500E+01	  0.081523046	1.708000E+00
309	  0.081723452	-3.053100E+01	  0.081723452	1.348990E+02	  0.081723452	4.790100E+01	  0.081723452	2.020000E+00
310	  0.081923850	-3.046800E+01	  0.081923850	1.354870E+02	  0.081923850	4.786600E+01	  0.081923850	2.012000E+00
311	  0.082124248	-2.954500E+01	  0.082124248	1.327720E+02	  0.082124248	4.773100E+01	  0.082124248	2.337000E+00
312	  0.082324654	-2.989700E+01	  0.082324654	1.310310E+02	  0.082324654	4.788700E+01	  0.082324654	2.314000E+00
313	  0.082525052	-2.913000E+01	  0.082525052	1.304310E+02	  0.082525052	4.771700E+01	  0.082525052	2.542000E+00
314	  0.082725458	-2.844300E+01	  0.082725458	1.285330E+02	  0.082725458	4.761600E+01	  0.082725458	2.822000E+00
315	  0.082925856	-2.796800E+01	  0.082925856	1.265770E+02	  0.082925856	4.757800E+01	  0.082925856	3.058000E+00
316	  0.083126254	-2.752300E+01	  0.083126254	1.231550E+02	  0.083126254	4.763500E+01	  0.083126254	3.360000E+00
317	  0.083326660	-2.751200E+01	  0.083326660	1.219560E+02	  0.083326660	4.770000E+01	  0.083326660	3.414000E+00
318	  0.083527058	-2.712900E+01	  0.083527058	1.200360E+02	  0.083527058	4.770800E+01	  0.083527058	3.642000E+00
319	  0.083727457	-2.648700E+01	  0.083727457	1.171580E+02	  0.083727457	4.771600E+01	  0.083727457	4.032000E+00
320	  0.083927862	-2.641300E+01	  0.083927862	1.149490E+02	  0.083927862	4.784700E+01	  0.083927862	4.155000E+00
321	  0.084128261	-2.585800E+01	  0.084128261	1.139180E+02	  0.084128261	4.777200E+01	  0.084128261	4.461000E+00
322	  0.084328659	-2.572000E+01	  0.084328659	1.115520E+02	  0.084328659	4.791500E+01	  0.084328659	4.625000E+00
323	  0.084529065	-2.547800E+01	  0.084529065	1.098110E+02	  0.084529065	4.799100E+01	  0.084529065	4.819000E+00
324	  0.084729463	-2.502200E+01	  0.084729463	1.068830E+02	  0.084729463	4.812300E+01	  0.084729463	5.181000E+00
325	  0.084929861	-2.478600E+01	  0.084929861	1.049240E+02	  0.084929861	4.824100E+01	  0.084929861	5.390000E+00
326	  0.085130267	-2.454800E+01	  0.085130267	1.025300E+02	  0.085130267	4.841000E+01	  0.085130267	5.618000E+00
327	  0.085330658	-2.425500E+01	  0.085330658	1.012130E+02	  0.085330658	4.847500E+01	  0.085330658	5.848000E+00
328	  0.085531056	-2.412500E+01	  0.085531056	9.844700E+01	  0.085531056	4.872700E+01	  0.085531056	6.018000E+00
329	  0.085731462	-2.357100E+01	  0.085731462	9.763600E+01	  0.085731462	4.870800E+01	  0.085731462	6.428000E+00
330	  0.085931860	-2.356900E+01	  0.085931860	9.433900E+01	  0.085931860	4.907200E+01	  0.085931860	6.517000E+00
331	  0.086132258	-2.346300E+01	  0.086132258	9.195100E+01	  0.086132258	4.932700E+01	  0.086132258	6.647000E+00
332	  0.086332664	-2.321800E+01	  0.086332664	8.982300E+01	  0.086332664	4.954600E+01	  0.086332664	6.874000E+00
333	  0.086533062	-2.296200E+01	  0.086533062	8.798500E+01	  0.086533062	4.974400E+01	  0.086533062	7.105000E+00
334	  0.086733460	-2.277700E+01	  0.086733460	8.735500E+01	  0.086733460	4.980700E+01	  0.086733460	7.265000E+00
335	  0.086933866	-2.248300E+01	  0.086933866	8.389900E+01	  0.086933866	5.023600E+01	  0.086933866	7.548000E+00
336	  0.087134264	-2.265500E+01	  0.087134264	8.270400E+01	  0.087134264	5.039800E+01	  0.087134264	7.404000E+00
337	  0.087334670	-2.231800E+01	  0.087334670	8.109000E+01	  0.087334670	5.061000E+01	  0.087334670	7.702000E+00
338	  0.087535068	-2.224800E+01	  0.087535068	7.912400E+01	  0.087535068	5.088000E+01	  0.087535068	7.760000E+00
339	  0.087735467	-2.206700E+01	  0.087735467	7.682000E+01	  0.087735467	5.121100E+01	  0.087735467	7.909000E+00
340	  0.087935872	-2.194600E+01	  0.087935872	7.563900E+01	  0.087935872	5.138900E+01	  0.087935872	8.008000E+00
341	  0.088136271	-2.172700E+01	  0.088136271	7.420000E+01	  0.088136271	5.162100E+01	  0.088136271	8.197000E+00
342	  0.088336669	-2.162100E+01	  0.088336669	7.252900E+01	  0.088336669	5.188300E+01	  0.088336669	8.269000E+00
343	  0.088537075	-2.136900E+01	  0.088537075	7.029900E+01	  0.088537075	5.226300E+01	  0.088537075	8.466000E+00
344	  0.088737473	-2.113800E+01	  0.088737473	6.969800E+01	  0.088737473	5.240100E+01	  0.088737473	8.688000E+00
345	  0.088937871	-2.105800E+01	  0.088937871	6.792900E+01	  0.088937871	5.270100E+01	  0.088937871	8.715000E+00
346	  0.089138277	-2.083300E+01	  0.089138277	6.657800E+01	  0.089138277	5.297600E+01	  0.089138277	8.905000E+00
347	  0.089338675	-2.061200E+01	  0.089338675	6.539000E+01	  0.089338675	5.323500E+01	  0.089338675	9.099000E+00
348	  0.089539073	-2.053200E+01	  0.089539073	6.268300E+01	  0.089539073	5.371900E+01	  0.089539073	9.058000E+00
349	  0.089739479	-2.028500E+01	  0.089739479	6.167000E+01	  0.089739479	5.398400E+01	  0.089739479	9.283000E+00
350	  0.089939877	-2.017600E+01	  0.089939877	5.947800E+01	  0.089939877	5.441300E+01	  0.089939877	9.275000E+00
351	  0.090140276	-2.007000E+01	  0.090140276	5.830800E+01	  0.090140276	5.466700E+01	  0.090140276	9.319000E+00
352	  0.090340681	-1.966800E+01	  0.090340681	5.618800E+01	  0.090340681	5.525200E+01	  0.090340681	9.643000E+00
353	  0.090541080	-1.965400E+01	  0.090541080	5.392800E+01	  0.090541080	5.567800E+01	  0.090541080	9.468000E+00
354	  0.090741485	-1.948500E+01	  0.090741485	5.110100E+01	  0.090741485	5.630600E+01	  0.090741485	9.404000E+00
355	  0.090941884	-1.924200E+01	  0.090941884	4.916100E+01	  0.090941884	5.683800E+01	  0.090941884	9.497000E+00
356	  0.091142282	-1.931000E+01	  0.091142282	4.694000E+01	  0.091142282	5.719900E+01	  0.091142282	9.156000E+00
357	  0.091342688	-1.913700E+01	  0.091342688	4.490300E+01	  0.091342688	5.771600E+01	  0.091342688	9.110000E+00
358	  0.091543086	-1.910700E+01	  0.091543086	4.305300E+01	  0.091543086	5.807900E+01	  0.091543086	8.897000E+00
359	  0.091743484	-1.900600E+01	  0.091743484	4.100700E+01	  0.091743484	5.854100E+01	  0.091743484	8.722000E+00
360	  0.091943890	-1.886800E+01	  0.091943890	3.874900E+01	  0.091943890	5.908100E+01	  0.091943890	8.535000E+00
361	  0.092144288	-1.883400E+01	  0.092144288	3.718900E+01	  0.092144288	5.939000E+01	  0.092144288	8.319000E+00
362	  0.092344686	-1.883600E+01	  0.092344686	3.456600E+01	  0.092344686	5.982900E+01	  0.092344686	7.864000E+00
363	  0.092545092	-1.873000E+01	  0.092545092	3.338100E+01	  0.092545092	6.015000E+01	  0.092545092	7.764000E+00
364	  0.092745490	-1.870900E+01	  0.092745490	3.096100E+01	  0.092745490	6.056200E+01	  0.092745490	7.328000E+00
365	  0.092945889	-1.871000E+01	  0.092945889	2.914500E+01	  0.092945889	6.083500E+01	  0.092945889	6.967000E+00
366	  0.093146294	-1.870500E+01	  0.093146294	2.711800E+01	  0.093146294	6.113400E+01	  0.093146294	6.557000E+00
367	  0.093346693	-1.868500E+01	  0.093346693	2.594600E+01	  0.093346693	6.132300E+01	  0.093346693	6.328000E+00
368	  0.093547091	-1.863500E+01	  0.093547091	2.434300E+01	  0.093547091	6.160700E+01	  0.093547091	6.025000E+00
369	  0.093747497	-1.870400E+01	  0.093747497	2.216500E+01	  0.093747497	6.177600E+01	  0.093747497	5.485000E+00
370	  0.093947895	-1.866100E+01	  0.093947895	2.082100E+01	  0.093947895	6.199600E+01	  0.093947895	5.213000E+00
371	  0.094148301	-1.856200E+01	  0.094148301	1.876500E+01	  0.094148301	6.237200E+01	  0.094148301	4.802000E+00
372	  0.094348699	-1.866100E+01	  0.094348699	1.787500E+01	  0.094348699	6.230700E+01	  0.094348699	4.523000E+00
373	  0.094549097	-1.858500E+01	  0.094549097	1.607900E+01	  0.094549097	6.259700E+01	  0.094549097	4.137000E+00
374	  0.094749503	-1.856900E+01	  0.094749503	1.442300E+01	  0.094749503	6.276700E+01	  0.094749503	3.738000E+00
375	  0.094949901	-1.859200E+01	  0.094949901	1.352500E+01	  0.094949901	6.280000E+01	  0.094949901	3.502000E+00
376	  0.095150299	-1.857300E+01	  0.095150299	1.149300E+01	  0.095150299	6.297600E+01	  0.095150299	2.999000E+00
377	  0.095350705	-1.859500E+01	  0.095350705	9.943000E+00	  0.095350705	6.303500E+01	  0.095350705	2.594000E+00
378	  0.095551103	-1.856200E+01	  0.095551103	8.174000E+00	  0.095551103	6.318300E+01	  0.095551103	2.150000E+00
379	  0.095751502	-1.849800E+01	  0.095751502	7.133000E+00	  0.095751502	6.334000E+01	  0.095751502	1.896000E+00
380	  0.095951907	-1.858300E+01	  0.095951907	5.474000E+00	  0.095951907	6.325500E+01	  0.095951907	1.440000E+00
381	  0.096152306	-1.863100E+01	  0.096152306	4.552000E+00	  0.096152306	6.319800E+01	  0.096152306	1.190000E+00
382	  0.096352704	-1.860000E+01	  0.096352704	3.511000E+00	  0.096352704	6.327600E+01	  0.096352704	9.230000E-01
383	  0.096553110	-1.862700E+01	  0.096553110	9.000000E-01	  0.096553110	6.326300E+01	  0.096553110	2.360000E-01
384	  0.096753508	-1.861400E+01	  0.096753508	-1.870000E-01	  0.096753508	6.328700E+01	  0.096753508	-4.900000E-02
385	  0.096953906	-1.854700E+01	  0.096953906	-1.964000E+00	  0.096953906	6.339200E+01	  0.096953906	-5.200000E-01
386	  0.097154312	-1.857700E+01	  0.097154312	-3.284000E+00	  0.097154312	6.332100E+01	  0.097154312	-8.660000E-01
387	  0.097354710	-1.859000E+01	  0.097354710	-4.367000E+00	  0.097354710	6.327400E+01	  0.097354710	-1.149000E+00
388	  0.097555116	-1.862400E+01	  0.097555116	-5.357000E+00	  0.097555116	6.318700E+01	  0.097555116	-1.401000E+00
389	  0.097755514	-1.866300E+01	  0.097755514	-6.702000E+00	  0.097755514	6.307500E+01	  0.097755514	-1.741000E+00
390	  0.097955912	-1.874300E+01	  0.097955912	-8.861000E+00	  0.097955912	6.284500E+01	  0.097955912	-2.268000E+00
391	  0.098156318	-1.872700E+01	  0.098156318	-9.044000E+00	  0.098156318	6.286200E+01	  0.098156318	-2.319000E+00
392	  0.098356716	-1.867900E+01	  0.098356716	-1.121200E+01	  0.098356716	6.281700E+01	  0.098356716	-2.882000E+00
393	  0.098557115	-1.861300E+01	  0.098557115	-1.216300E+01	  0.098557115	6.286400E+01	  0.098557115	-3.150000E+00
394	  0.098757520	-1.872100E+01	  0.098757520	-1.312800E+01	  0.098757520	6.261800E+01	  0.098757520	-3.340000E+00
395	  0.098957919	-1.859400E+01	  0.098957919	-1.490500E+01	  0.098957919	6.268500E+01	  0.098957919	-3.844000E+00
396	  0.099158317	-1.871400E+01	  0.099158317	-1.560300E+01	  0.099158317	6.243200E+01	  0.099158317	-3.947000E+00
397	  0.099358723	-1.870800E+01	  0.099358723	-1.662600E+01	  0.099358723	6.235100E+01	  0.099358723	-4.196000E+00
398	  0.099559121	-1.869000E+01	  0.099559121	-1.844800E+01	  0.099559121	6.220500E+01	  0.099559121	-4.640000E+00
399	  0.099759519	-1.873900E+01	  0.099759519	-1.895200E+01	  0.099759519	6.207800E+01	  0.099759519	-4.725000E+00
400	  0.099959925	-1.878200E+01	  0.099959925	-2.004600E+01	  0.099959925	6.189800E+01	  0.099959925	-4.947000E+00
401	  0.100160323	-1.864700E+01	  0.100160323	-2.199600E+01	  0.100160323	6.188100E+01	  0.100160323	-5.491000E+00
402	  0.100360721	-1.893300E+01	  0.100360721	-2.311600E+01	  0.100360721	6.133200E+01	  0.100360721	-5.515000E+00
403	  0.100561127	-1.883600E+01	  0.100561127	-2.366200E+01	  0.100561127	6.140400E+01	  0.100561127	-5.709000E+00
404	  0.100761525	-1.890100E+01	  0.100761525	-2.504000E+01	  0.100761525	6.114100E+01	  0.100761525	-5.950000E+00
405	  0.100961931	-1.885600E+01	  0.100961931	-2.663100E+01	  0.100961931	6.099500E+01	  0.100961931	-6.320000E+00
406	  0.101162329	-1.899100E+01	  0.101162329	-2.756200E+01	  0.101162329	6.068900E+01	  0.101162329	-6.388000E+00
407	  0.101362728	-1.887900E+01	  0.101362728	-2.937900E+01	  0.101362728	6.058000E+01	  0.101362728	-6.850000E+00
408	  0.101563133	-1.885500E+01	  0.101563133	-3.039000E+01	  0.101563133	6.046200E+01	  0.101563133	-7.071000E+00
409	  0.101763532	-1.898900E+01	  0.101763532	-3.175000E+01	  0.101763532	6.009000E+01	  0.101763532	-7.195000E+00
410	  0.101963930	-1.879500E+01	  0.101963930	-3.300500E+01	  0.101963930	6.013200E+01	  0.101963930	-7.626000E+00
411	  0.102164336	-1.885600E+01	  0.102164336	-3.363700E+01	  0.102164336	5.995700E+01	  0.102164336	-7.676000E+00
412	  0.102364734	-1.898800E+01	  0.102364734	-3.545700E+01	  0.102364734	5.950900E+01	  0.102364734	-7.855000E+00
413	  0.102565132	-1.897400E+01	  0.102565132	-3.536100E+01	  0.102565132	5.954100E+01	  0.102565132	-7.854000E+00
414	  0.102765530	-1.884800E+01	  0.102765530	-3.614400E+01	  0.102765530	5.955300E+01	  0.102765530	-8.127000E+00
415	  0.102965929	-1.905300E+01	  0.102965929	-3.800600E+01	  0.102965929	5.901500E+01	  0.102965929	-8.206000E+00
416	  0.103166327	-1.905100E+01	  0.103166327	-3.933200E+01	  0.103166327	5.879100E+01	  0.103166327	-8.417000E+00
417	  0.103366733	-1.903400E+01	  0.103366733	-3.978000E+01	  0.103366733	5.873000E+01	  0.103366733	-8.505000E+00
418	  0.103567131	-1.916700E+01	  0.103567131	-4.110400E+01	  0.103567131	5.836800E+01	  0.103567131	-8.550000E+00
419	  0.103767529	-1.911100E+01	  0.103767529	-4.164700E+01	  0.103767529	5.832600E+01	  0.103767529	-8.693000E+00
420	  0.103967935	-1.925600E+01	  0.103967935	-4.191500E+01	  0.103967935	5.814300E+01	  0.103967935	-8.564000E+00
421	  0.104168333	-1.943000E+01	  0.104168333	-4.402500E+01	  0.104168333	5.762000E+01	  0.104168333	-8.650000E+00
422	  0.104368731	-1.922900E+01	  0.104368731	-4.452300E+01	  0.104368731	5.770500E+01	  0.104368731	-8.950000E+00
423	  0.104569137	-1.934400E+01	  0.104569137	-4.647400E+01	  0.104569137	5.725700E+01	  0.104569137	-9.059000E+00
424	  0.104769535	-1.917100E+01	  0.104769535	-4.765100E+01	  0.104769535	5.717700E+01	  0.104769535	-9.410000E+00
425	  0.104969934	-1.924100E+01	  0.104969934	-4.835500E+01	  0.104969934	5.699000E+01	  0.104969934	-9.406000E+00
426	  0.105170339	-1.933400E+01	  0.105170339	-4.896000E+01	  0.105170339	5.680800E+01	  0.105170339	-9.360000E+00
427	  0.105370738	-1.921800E+01	  0.105370738	-5.074000E+01	  0.105370738	5.655600E+01	  0.105370738	-9.699000E+00
428	  0.105571143	-1.941800E+01	  0.105571143	-5.119400E+01	  0.105571143	5.633300E+01	  0.105571143	-9.496000E+00
429	  0.105771542	-1.935900E+01	  0.105771542	-5.279100E+01	  0.105771542	5.607000E+01	  0.105771542	-9.727000E+00
430	  0.105971940	-1.932600E+01	  0.105971940	-5.306900E+01	  0.105971940	5.603800E+01	  0.105971940	-9.796000E+00
431	  0.106172346	-1.941700E+01	  0.106172346	-5.441400E+01	  0.106172346	5.572600E+01	  0.106172346	-9.804000E+00
432	  0.106372744	-1.942300E+01	  0.106372744	-5.573100E+01	  0.106372744	5.547000E+01	  0.106372744	-9.910000E+00
433	  0.106573142	-1.941700E+01	  0.106573142	-5.686200E+01	  0.106573142	5.525600E+01	  0.106573142	-1.001000E+01
434	  0.106773548	-1.961000E+01	  0.106773548	-5.699500E+01	  0.106773548	5.513100E+01	  0.106773548	-9.777000E+00
435	  0.106973946	-1.969800E+01	  0.106973946	-5.878800E+01	  0.106973946	5.475200E+01	  0.106973946	-9.801000E+00
436	  0.107174344	-1.943800E+01	  0.107174344	-5.984300E+01	  0.107174344	5.466800E+01	  0.107174344	-1.020100E+01
437	  0.107374750	-1.949900E+01	  0.107374750	-6.088800E+01	  0.107374750	5.443900E+01	  0.107374750	-1.019000E+01
438	  0.107575148	-1.954300E+01	  0.107575148	-6.144600E+01	  0.107575148	5.431300E+01	  0.107575148	-1.016800E+01
439	  0.107775547	-1.977600E+01	  0.107775547	-6.316800E+01	  0.107775547	5.389800E+01	  0.107775547	-9.975000E+00
440	  0.107975952	-1.980800E+01	  0.107975952	-6.437900E+01	  0.107975952	5.366000E+01	  0.107975952	-9.997000E+00
441	  0.108176351	-1.978300E+01	  0.108176351	-6.425100E+01	  0.108176351	5.369200E+01	  0.108176351	-1.002200E+01
442	  0.108376749	-1.971100E+01	  0.108376749	-6.537300E+01	  0.108376749	5.350300E+01	  0.108376749	-1.016400E+01
443	  0.108577155	-1.961300E+01	  0.108577155	-6.720600E+01	  0.108577155	5.318000E+01	  0.108577155	-1.036500E+01
444	  0.108777553	-1.985100E+01	  0.108777553	-6.772000E+01	  0.108777553	5.302300E+01	  0.108777553	-1.008700E+01
445	  0.108977959	-1.980600E+01	  0.108977959	-6.899500E+01	  0.108977959	5.279500E+01	  0.108977959	-1.018500E+01
446	  0.109178357	-1.991000E+01	  0.109178357	-7.040700E+01	  0.109178357	5.251100E+01	  0.109178357	-1.010000E+01
447	  0.109378755	-1.992500E+01	  0.109378755	-7.197800E+01	  0.109378755	5.221900E+01	  0.109378755	-1.012000E+01
448	  0.109579161	-2.009000E+01	  0.109579161	-7.155700E+01	  0.109579161	5.227100E+01	  0.109579161	-9.911000E+00
449	  0.109779559	-1.997400E+01	  0.109779559	-7.271000E+01	  0.109779559	5.207700E+01	  0.109779559	-1.007500E+01
450	  0.109979957	-1.988900E+01	  0.109979957	-7.227700E+01	  0.109979957	5.216800E+01	  0.109979957	-1.016900E+01
451	  0.110180363	-2.007200E+01	  0.110180363	-7.391400E+01	  0.110180363	5.184700E+01	  0.110180363	-9.978000E+00
452	  0.110380761	-1.997800E+01	  0.110380761	-7.598300E+01	  0.110380761	5.148000E+01	  0.110380761	-1.011600E+01
453	  0.110581160	-2.004300E+01	  0.110581160	-7.775100E+01	  0.110581160	5.115800E+01	  0.110581160	-1.004700E+01
454	  0.110781565	-2.001300E+01	  0.110781565	-7.731900E+01	  0.110781565	5.123600E+01	  0.110781565	-1.008200E+01
455	  0.110981964	-2.012600E+01	  0.110981964	-7.940200E+01	  0.110981964	5.086400E+01	  0.110981964	-9.951000E+00
456	  0.111182362	-2.004000E+01	  0.111182362	-7.931500E+01	  0.111182362	5.087800E+01	  0.111182362	-1.005100E+01
457	  0.111382768	-2.005800E+01	  0.111382768	-8.040800E+01	  0.111382768	5.068400E+01	  0.111382768	-1.002700E+01
458	  0.111583166	-2.004400E+01	  0.111583166	-8.166800E+01	  0.111583166	5.046000E+01	  0.111583166	-1.003400E+01
459	  0.111783572	-2.008600E+01	  0.111783572	-8.308000E+01	  0.111783572	5.021500E+01	  0.111783572	-9.968000E+00
460	  0.111983970	-2.016900E+01	  0.111983970	-8.322200E+01	  0.111983970	5.019800E+01	  0.111983970	-9.871000E+00
461	  0.112184368	-2.014400E+01	  0.112184368	-8.502200E+01	  0.112184368	4.988500E+01	  0.112184368	-9.870000E+00
462	  0.112384774	-2.016700E+01	  0.112384774	-8.365000E+01	  0.112384774	5.012400E+01	  0.112384774	-9.867000E+00
463	  0.112585172	-2.026800E+01	  0.112585172	-8.698800E+01	  0.112585172	4.956900E+01	  0.112585172	-9.690000E+00
464	  0.112785570	-2.024800E+01	  0.112785570	-8.727800E+01	  0.112785570	4.951700E+01	  0.112785570	-9.705000E+00
465	  0.112985976	-2.024400E+01	  0.112985976	-8.824800E+01	  0.112985976	4.935400E+01	  0.112985976	-9.683000E+00
466	  0.113186374	-2.018900E+01	  0.113186374	-8.938600E+01	  0.113186374	4.915300E+01	  0.113186374	-9.710000E+00
467	  0.113386773	-2.023600E+01	  0.113386773	-9.057600E+01	  0.113386773	4.896600E+01	  0.113386773	-9.620000E+00
468	  0.113587178	-2.030300E+01	  0.113587178	-9.193700E+01	  0.113587178	4.876000E+01	  0.113587178	-9.499000E+00
469	  0.113787577	-2.035300E+01	  0.113787577	-9.204500E+01	  0.113787577	4.875500E+01	  0.113787577	-9.443000E+00
470	  0.113987975	-2.056800E+01	  0.113987975	-9.229100E+01	  0.113987975	4.876800E+01	  0.113987975	-9.209000E+00
471	  0.114188381	-2.063800E+01	  0.114188381	-9.343100E+01	  0.114188381	4.860800E+01	  0.114188381	-9.094000E+00
472	  0.114388779	-2.041400E+01	  0.114388779	-9.504000E+01	  0.114388779	4.829700E+01	  0.114388779	-9.257000E+00
473	  0.114589177	-2.046100E+01	  0.114589177	-9.562900E+01	  0.114589177	4.821900E+01	  0.114589177	-9.183000E+00
474	  0.114789583	-2.053200E+01	  0.114789583	-9.709300E+01	  0.114789583	4.801700E+01	  0.114789583	-9.043000E+00
475	  0.114989981	-2.070600E+01	  0.114989981	-9.763900E+01	  0.114989981	4.799000E+01	  0.114989981	-8.845000E+00
476	  0.115190387	-2.047900E+01	  0.115190387	-9.864400E+01	  0.115190387	4.776500E+01	  0.115190387	-9.017000E+00
477	  0.115390785	-2.053300E+01	  0.115390785	-9.861400E+01	  0.115390785	4.778800E+01	  0.115390785	-8.966000E+00
478	  0.115591183	-2.064600E+01	  0.115591183	-1.006270E+02	  0.115591183	4.753200E+01	  0.115591183	-8.748000E+00
479	  0.115791589	-2.061300E+01	  0.115791589	-1.008330E+02	  0.115791589	4.749000E+01	  0.115791589	-8.768000E+00
480	  0.115991987	-2.053200E+01	  0.115991987	-1.018560E+02	  0.115991987	4.731000E+01	  0.115991987	-8.787000E+00
481	  0.116192386	-2.060800E+01	  0.116192386	-1.026740E+02	  0.116192386	4.722200E+01	  0.116192386	-8.666000E+00
482	  0.116392791	-2.072100E+01	  0.116392791	-1.037990E+02	  0.116392791	4.710900E+01	  0.116392791	-8.492000E+00
483	  0.116593190	-2.074600E+01	  0.116593190	-1.056210E+02	  0.116593190	4.686800E+01	  0.116593190	-8.354000E+00
484	  0.116793588	-2.073400E+01	  0.116793588	-1.064480E+02	  0.116793588	4.675000E+01	  0.116793588	-8.310000E+00
485	  0.116993994	-2.079900E+01	  0.116993994	-1.068030E+02	  0.116993994	4.673000E+01	  0.116993994	-8.229000E+00
486	  0.117194392	-2.079900E+01	  0.117194392	-1.080660E+02	  0.117194392	4.656200E+01	  0.117194392	-8.142000E+00
487	  0.117394790	-2.080600E+01	  0.117394790	-1.092790E+02	  0.117394790	4.640600E+01	  0.117394790	-8.051000E+00
488	  0.117595196	-2.074700E+01	  0.117595196	-1.101010E+02	  0.117595196	4.627100E+01	  0.117595196	-8.041000E+00
489	  0.117795594	-2.086300E+01	  0.117795594	-1.109250E+02	  0.117795594	4.622100E+01	  0.117795594	-7.882000E+00
490	  0.117995992	-2.095300E+01	  0.117995992	-1.116540E+02	  0.117995992	4.617400E+01	  0.117995992	-7.753000E+00
491	  0.118196398	-2.073000E+01	  0.118196398	-1.131140E+02	  0.118196398	4.587800E+01	  0.118196398	-7.824000E+00
492	  0.118396796	-2.084600E+01	  0.118396796	-1.126430E+02	  0.118396796	4.599700E+01	  0.118396796	-7.765000E+00
493	  0.118597202	-2.096600E+01	  0.118597202	-1.149910E+02	  0.118597202	4.577300E+01	  0.118597202	-7.483000E+00
494	  0.118797600	-2.095600E+01	  0.118797600	-1.153780E+02	  0.118797600	4.572100E+01	  0.118797600	-7.460000E+00
495	  0.118997999	-2.095400E+01	  0.118997999	-1.165080E+02	  0.118997999	4.558600E+01	  0.118997999	-7.368000E+00
496	  0.119198404	-2.099200E+01	  0.119198404	-1.172590E+02	  0.119198404	4.552000E+01	  0.119198404	-7.276000E+00
497	  0.119398803	-2.106000E+01	  0.119398803	-1.184620E+02	  0.119398803	4.542000E+01	  0.119398803	-7.124000E+00
498	  0.119599201	-2.109100E+01	  0.119599201	-1.196750E+02	  0.119599201	4.530200E+01	  0.119599201	-6.996000E+00
499	  0.119799607	-2.093200E+01	  0.119799607	-1.196080E+02	  0.119799607	4.521800E+01	  0.119799607	-7.120000E+00
500	  0.120000005	-2.110200E+01	  0.120000005	-1.210800E+02	  0.120000005	4.515500E+01	  0.120000005	-6.865000E+00
