! Anritsu VNA Master:             	Model: MS2036C/10/77
! SN:             	1601066
! /card0/usr/18may12.lna.rl/254b.lna.rl.txt
! Existing Calibration Information:
! TYPE:             	Current Settings	Active Cal Settings
! TIME:             	05/13/2018 11:09:57 AM	05/13/2018 11:05:29 AM
! INTERNAL TEMP:    	46.8 C	46.3 C
! # POINTS:         	500	500
! START FREQ:       	20.000 MHz	20.000 MHz
! STOP FREQ:        	120.000 MHz	120.000 MHz
! SOURCE POWER:     	Low	Low
! IFBW:             	10 Hz	10 Hz
! AVG FACTOR:       	  1 	  1 
! REF PLANE 1:      	0 mm	0 mm
! REF PLANE 2:      	0 mm	0 mm
! CAL TYPE:         	Full S22	Full S22
! CAL METHOD:       	SOLT	SOLT
! CAL LINE TYPE:    	Coax	Coax
! DUT PORT 1:       	K-Conn(M)	K-Conn(M)
! DUT PORT 2:       	K-Conn(M)	K-Conn(M)
! CAL STATUS:       	OK: Accuracy High	--
! PROP-V:       	0.700
! CABLE LOSS:       	0.000 dB/m
! REF IMPEDANCE:       	50.0
! Trace Specific Parameters:	TR1	TR2	TR3	TR4
! TRACE.#.Y (GRAPH TYPE)	LOG MAG	PHASE	REAL IMPEDANCE	IMAGINARY IMPEDANCE
! TRACE.#.X 	FREQ.GHZ	FREQ.GHZ	FREQ.GHZ	FREQ.GHZ
! S-PARAMETER	S22	S22	S22	S22
! SMOOTH/APERTURE %	0	0	0	0
! WINDOW	NSL	NSL	NSL	NSL
! GATING	OFF	OFF	OFF	OFF
! FGTD	OFF	OFF	OFF	OFF
Marker Information per Trace:	TR1	TR2	TR3	TR4
!MK1	--	"MK1 TR2:  12.184 368 MHz,##.##"	--	--
!MK2	--	--	"MK2 TR3:  12.184 368 MHz,##.##"	--
!MK3	--	--	--	--
!MK4	--	--	--	--
!MK5	--	--	--	--
!MK6	--	--	--	--
!MK7	--	--	--	--
!MK8	--	--	--	--
PNT	TR1.FREQ.GHZ	TR1.LOG MAG.dB	TR2.FREQ.GHZ	TR2.PHASE.deg	TR3.FREQ.GHZ	TR3.REAL IMPEDANCE.ohm	TR4.FREQ.GHZ	TR4.IMAGINARY IMPEDANCE.ohm
1	  0.020000000	-2.057800E+01	  0.020000000	3.200700E+01	  0.020000000	5.830200E+01	  0.020000000	5.833000E+00
2	  0.020200402	-2.056000E+01	  0.020200402	2.905400E+01	  0.020200402	5.865900E+01	  0.020200402	5.388000E+00
3	  0.020400802	-2.053300E+01	  0.020400802	2.646500E+01	  0.020400802	5.896400E+01	  0.020400802	4.986000E+00
4	  0.020601204	-2.053200E+01	  0.020601204	2.543100E+01	  0.020601204	5.906900E+01	  0.020601204	4.813000E+00
5	  0.020801604	-2.041800E+01	  0.020801604	2.150900E+01	  0.020801604	5.956700E+01	  0.020801604	4.201000E+00
6	  0.021002004	-2.039500E+01	  0.021002004	1.979000E+01	  0.021002004	5.974000E+01	  0.021002004	3.900000E+00
7	  0.021202406	-2.032600E+01	  0.021202406	1.693100E+01	  0.021202406	6.004300E+01	  0.021202406	3.400000E+00
8	  0.021402806	-2.026600E+01	  0.021402806	1.393900E+01	  0.021402806	6.031700E+01	  0.021402806	2.845000E+00
9	  0.021603208	-2.030300E+01	  0.021603208	1.211700E+01	  0.021603208	6.037000E+01	  0.021603208	2.470000E+00
10	  0.021803608	-2.028700E+01	  0.021803608	1.014300E+01	  0.021803608	6.048600E+01	  0.021803608	2.080000E+00
11	  0.022004008	-2.021900E+01	  0.022004008	7.154000E+00	  0.022004008	6.069000E+01	  0.022004008	1.488000E+00
12	  0.022204408	-2.024000E+01	  0.022204408	4.263000E+00	  0.022204408	6.073500E+01	  0.022204408	8.860000E-01
13	  0.022404809	-2.013900E+01	  0.022404809	1.059000E+00	  0.022404809	6.091100E+01	  0.022404809	2.230000E-01
14	  0.022605211	-2.006900E+01	  0.022605211	-8.030000E-01	  0.022605211	6.101100E+01	  0.022605211	-1.710000E-01
15	  0.022805611	-2.006600E+01	  0.022805611	-3.366000E+00	  0.022805611	6.099100E+01	  0.022805611	-7.170000E-01
16	  0.023006011	-2.008600E+01	  0.023006011	-7.135000E+00	  0.023006011	6.087300E+01	  0.023006011	-1.512000E+00
17	  0.023206413	-1.995200E+01	  0.023206413	-1.037000E+01	  0.023206413	6.093100E+01	  0.023206413	-2.228000E+00
18	  0.023406813	-1.994100E+01	  0.023406813	-1.273000E+01	  0.023406813	6.082200E+01	  0.023406813	-2.726000E+00
19	  0.023607215	-1.996800E+01	  0.023607215	-1.569100E+01	  0.023607215	6.059600E+01	  0.023607215	-3.323000E+00
20	  0.023807615	-1.988100E+01	  0.023807615	-1.879600E+01	  0.023807615	6.047000E+01	  0.023807615	-3.991000E+00
21	  0.024008015	-1.985900E+01	  0.024008015	-2.206900E+01	  0.024008015	6.020100E+01	  0.024008015	-4.645000E+00
22	  0.024208417	-1.984700E+01	  0.024208417	-2.561000E+01	  0.024208417	5.984700E+01	  0.024208417	-5.320000E+00
23	  0.024408817	-1.976900E+01	  0.024408817	-2.918700E+01	  0.024408817	5.951600E+01	  0.024408817	-6.024000E+00
24	  0.024609219	-1.984300E+01	  0.024609219	-3.331700E+01	  0.024609219	5.889200E+01	  0.024609219	-6.656000E+00
25	  0.024809619	-1.978500E+01	  0.024809619	-3.715400E+01	  0.024809619	5.840300E+01	  0.024809619	-7.307000E+00
26	  0.025010020	-1.976600E+01	  0.025010020	-4.062400E+01	  0.025010020	5.788700E+01	  0.025010020	-7.825000E+00
27	  0.025210422	-1.980700E+01	  0.025210422	-4.554800E+01	  0.025210422	5.705000E+01	  0.025210422	-8.415000E+00
28	  0.025410822	-1.984900E+01	  0.025410822	-4.975400E+01	  0.025410822	5.630100E+01	  0.025410822	-8.836000E+00
29	  0.025611224	-1.972000E+01	  0.025611224	-5.417400E+01	  0.025611224	5.559400E+01	  0.025611224	-9.410000E+00
30	  0.025811624	-1.980200E+01	  0.025811624	-5.907800E+01	  0.025811624	5.465000E+01	  0.025811624	-9.694000E+00
31	  0.026012026	-1.990600E+01	  0.026012026	-6.396100E+01	  0.026012026	5.370600E+01	  0.026012026	-9.856000E+00
32	  0.026212426	-2.001400E+01	  0.026212426	-6.915700E+01	  0.026212426	5.272100E+01	  0.026212426	-9.937000E+00
33	  0.026412826	-2.007700E+01	  0.026412826	-7.483300E+01	  0.026412826	5.168100E+01	  0.026412826	-9.986000E+00
34	  0.026613226	-2.027700E+01	  0.026613226	-8.098300E+01	  0.026613226	5.059200E+01	  0.026613226	-9.770000E+00
35	  0.026813626	-2.050500E+01	  0.026813626	-8.773400E+01	  0.026813626	4.948300E+01	  0.026813626	-9.413000E+00
36	  0.027014028	-2.076000E+01	  0.027014028	-9.341300E+01	  0.027014028	4.864100E+01	  0.027014028	-8.972000E+00
37	  0.027214428	-2.109500E+01	  0.027214428	-9.980400E+01	  0.027214428	4.780400E+01	  0.027214428	-8.369000E+00
38	  0.027414829	-2.151500E+01	  0.027414829	-1.058110E+02	  0.027414829	4.715600E+01	  0.027414829	-7.675000E+00
39	  0.027615231	-2.209200E+01	  0.027615231	-1.136290E+02	  0.027615231	4.647500E+01	  0.027615231	-6.734000E+00
40	  0.027815631	-2.268300E+01	  0.027815631	-1.199790E+02	  0.027815631	4.609900E+01	  0.027815631	-5.895000E+00
41	  0.028016033	-2.334600E+01	  0.028016033	-1.270470E+02	  0.028016033	4.580200E+01	  0.028016033	-4.996000E+00
42	  0.028216433	-2.408500E+01	  0.028216433	-1.333890E+02	  0.028216433	4.570300E+01	  0.028216433	-4.166000E+00
43	  0.028416833	-2.496600E+01	  0.028416833	-1.390570E+02	  0.028416833	4.578900E+01	  0.028416833	-3.398000E+00
44	  0.028617235	-2.575500E+01	  0.028617235	-1.454420E+02	  0.028617235	4.585200E+01	  0.028617235	-2.688000E+00
45	  0.028817635	-2.673800E+01	  0.028817635	-1.496560E+02	  0.028817635	4.613000E+01	  0.028817635	-2.150000E+00
46	  0.029018037	-2.793200E+01	  0.029018037	-1.555300E+02	  0.029018037	4.645100E+01	  0.029018037	-1.546000E+00
47	  0.029218437	-2.904600E+01	  0.029218437	-1.590620E+02	  0.029218437	4.679400E+01	  0.029218437	-1.181000E+00
48	  0.029418837	-3.017700E+01	  0.029418837	-1.646820E+02	  0.029418837	4.709200E+01	  0.029418837	-7.710000E-01
49	  0.029619239	-3.106000E+01	  0.029619239	-1.659590E+02	  0.029619239	4.735200E+01	  0.029619239	-6.430000E-01
50	  0.029819639	-3.243600E+01	  0.029819639	-1.690660E+02	  0.029819639	4.770600E+01	  0.029819639	-4.320000E-01
51	  0.030020041	-3.401500E+01	  0.030020041	-1.714700E+02	  0.030020041	4.806700E+01	  0.030020041	-2.840000E-01
52	  0.030220442	-3.476600E+01	  0.030220442	-1.730780E+02	  0.030220442	4.821800E+01	  0.030220442	-2.120000E-01
53	  0.030420844	-3.564300E+01	  0.030420844	-1.782180E+02	  0.030420844	4.837600E+01	  0.030420844	-4.900000E-02
54	  0.030621244	-3.724600E+01	  0.030621244	-1.760990E+02	  0.030621244	4.864800E+01	  0.030621244	-9.000000E-02
55	  0.030821644	-3.893200E+01	  0.030821644	-1.778800E+02	  0.030821644	4.888200E+01	  0.030821644	-4.000000E-02
56	  0.031022044	-3.853200E+01	  0.031022044	-1.752790E+02	  0.031022044	4.883300E+01	  0.031022044	-9.500000E-02
57	  0.031222444	-3.958700E+01	  0.031222444	1.772930E+02	  0.031222444	4.896300E+01	  0.031222444	4.800000E-02
58	  0.031422846	-4.002500E+01	  0.031422846	-1.767640E+02	  0.031422846	4.901400E+01	  0.031422846	-5.500000E-02
59	  0.031623244	-4.142600E+01	  0.031623244	-1.745540E+02	  0.031623244	4.916200E+01	  0.031623244	-7.900000E-02
60	  0.031823646	-4.184100E+01	  0.031823646	-1.744220E+02	  0.031823646	4.920100E+01	  0.031823646	-7.700000E-02
61	  0.032024048	-4.360000E+01	  0.032024048	-1.778690E+02	  0.032024048	4.934400E+01	  0.032024048	-2.400000E-02
62	  0.032224450	-4.310400E+01	  0.032224450	-1.753130E+02	  0.032224450	4.930700E+01	  0.032224450	-5.600000E-02
63	  0.032424849	-4.331000E+01	  0.032424849	-1.790530E+02	  0.032424849	4.932100E+01	  0.032424849	-1.100000E-02
64	  0.032625251	-4.409700E+01	  0.032625251	-1.760200E+02	  0.032625251	4.938100E+01	  0.032625251	-4.200000E-02
65	  0.032825653	-4.544300E+01	  0.032825653	1.770880E+02	  0.032825653	4.946900E+01	  0.032825653	2.600000E-02
66	  0.033026051	-4.420900E+01	  0.033026051	1.749150E+02	  0.033026051	4.939000E+01	  0.033026051	5.300000E-02
67	  0.033226453	-4.511100E+01	  0.033226453	-1.775880E+02	  0.033226453	4.944800E+01	  0.033226453	-2.300000E-02
68	  0.033426855	-4.413200E+01	  0.033426855	1.718850E+02	  0.033426855	4.938800E+01	  0.033426855	8.600000E-02
69	  0.033627257	-4.423100E+01	  0.033627257	1.695420E+02	  0.033627257	4.939900E+01	  0.033627257	1.100000E-01
70	  0.033827655	-4.828400E+01	  0.033827655	1.480360E+02	  0.033827655	4.967300E+01	  0.033827655	2.020000E-01
71	  0.034028057	-4.538900E+01	  0.034028057	1.467050E+02	  0.034028057	4.955100E+01	  0.034028057	2.920000E-01
72	  0.034228459	-4.427300E+01	  0.034228459	1.531790E+02	  0.034228459	4.945600E+01	  0.034228459	2.720000E-01
73	  0.034428857	-4.590900E+01	  0.034428857	1.385920E+02	  0.034428857	4.962000E+01	  0.034428857	3.320000E-01
74	  0.034629259	-4.702200E+01	  0.034629259	1.432420E+02	  0.034629259	4.964300E+01	  0.034629259	2.640000E-01
75	  0.034829661	-4.808900E+01	  0.034829661	1.334690E+02	  0.034829661	4.972800E+01	  0.034829661	2.840000E-01
76	  0.035030060	-4.755600E+01	  0.035030060	1.249240E+02	  0.035030060	4.975900E+01	  0.035030060	3.410000E-01
77	  0.035230462	-4.585100E+01	  0.035230462	1.243290E+02	  0.035230462	4.971100E+01	  0.035230462	4.180000E-01
78	  0.035430863	-4.855600E+01	  0.035430863	1.215550E+02	  0.035430863	4.980300E+01	  0.035430863	3.160000E-01
79	  0.035631265	-4.784200E+01	  0.035631265	9.363000E+01	  0.035631265	4.997200E+01	  0.035631265	4.040000E-01
80	  0.035831664	-4.592200E+01	  0.035831664	1.079590E+02	  0.035831664	4.984200E+01	  0.035831664	4.790000E-01
81	  0.036032066	-4.553000E+01	  0.036032066	9.904800E+01	  0.036032066	4.991400E+01	  0.036032066	5.210000E-01
82	  0.036232468	-4.827700E+01	  0.036232468	1.083940E+02	  0.036232468	4.987700E+01	  0.036232468	3.640000E-01
83	  0.036432866	-4.506400E+01	  0.036432866	1.046850E+02	  0.036432866	4.985500E+01	  0.036432866	5.380000E-01
84	  0.036633268	-4.585400E+01	  0.036633268	8.221300E+01	  0.036633268	5.006600E+01	  0.036633268	5.050000E-01
85	  0.036833670	-4.548000E+01	  0.036833670	7.915900E+01	  0.036833670	5.009700E+01	  0.036833670	5.230000E-01
86	  0.037034072	-4.445000E+01	  0.037034072	7.619300E+01	  0.037034072	5.013900E+01	  0.037034072	5.830000E-01
87	  0.037234470	-4.380600E+01	  0.037234470	6.626500E+01	  0.037234470	5.025600E+01	  0.037234470	5.930000E-01
88	  0.037434869	-4.441800E+01	  0.037434869	7.327500E+01	  0.037434869	5.017000E+01	  0.037434869	5.770000E-01
89	  0.037635271	-4.427700E+01	  0.037635271	7.368600E+01	  0.037635271	5.016800E+01	  0.037635271	5.880000E-01
90	  0.037835669	-4.457100E+01	  0.037835669	7.105900E+01	  0.037835669	5.018800E+01	  0.037835669	5.600000E-01
91	  0.038036071	-4.406700E+01	  0.038036071	6.905700E+01	  0.038036071	5.022000E+01	  0.038036071	5.870000E-01
92	  0.038236473	-4.400500E+01	  0.038236473	5.767500E+01	  0.038236473	5.033500E+01	  0.038236473	5.360000E-01
93	  0.038436871	-4.414300E+01	  0.038436871	4.785200E+01	  0.038436871	5.041600E+01	  0.038436871	4.630000E-01
94	  0.038637273	-4.412300E+01	  0.038637273	5.386400E+01	  0.038637273	5.036500E+01	  0.038637273	5.060000E-01
95	  0.038837675	-4.450600E+01	  0.038837675	5.678800E+01	  0.038837675	5.032400E+01	  0.038837675	5.010000E-01
96	  0.039038073	-4.475400E+01	  0.039038073	4.807500E+01	  0.039038073	5.038600E+01	  0.039038073	4.330000E-01
97	  0.039238475	-4.503200E+01	  0.039238475	5.603200E+01	  0.039238475	5.031100E+01	  0.039238475	4.670000E-01
98	  0.039438877	-4.677900E+01	  0.039438877	4.455200E+01	  0.039438877	5.032600E+01	  0.039438877	3.230000E-01
99	  0.039639279	-4.456500E+01	  0.039639279	5.735900E+01	  0.039639279	5.031700E+01	  0.039639279	5.010000E-01
100	  0.039839678	-4.567600E+01	  0.039839678	4.660700E+01	  0.039839678	5.035700E+01	  0.039839678	3.800000E-01
101	  0.040040080	-4.678100E+01	  0.040040080	3.688000E+01	  0.040040080	5.036600E+01	  0.040040080	2.760000E-01
102	  0.040240481	-4.392500E+01	  0.040240481	4.090500E+01	  0.040240481	5.048100E+01	  0.040240481	4.200000E-01
103	  0.040440880	-4.464500E+01	  0.040440880	3.313500E+01	  0.040440880	5.049100E+01	  0.040440880	3.230000E-01
104	  0.040641282	-4.412500E+01	  0.040641282	4.177200E+01	  0.040641282	5.046400E+01	  0.040641282	4.180000E-01
105	  0.040841684	-4.617000E+01	  0.040841684	3.146300E+01	  0.040841684	5.042000E+01	  0.040841684	2.580000E-01
106	  0.041042086	-4.335000E+01	  0.041042086	4.639500E+01	  0.041042086	5.046800E+01	  0.041042086	4.960000E-01
107	  0.041242484	-4.478400E+01	  0.041242484	4.225900E+01	  0.041242484	5.042600E+01	  0.041242484	3.900000E-01
108	  0.041442886	-4.608400E+01	  0.041442886	4.549400E+01	  0.041442886	5.034700E+01	  0.041442886	3.560000E-01
109	  0.041643288	-4.689100E+01	  0.041643288	1.560200E+01	  0.041643288	5.043700E+01	  0.041643288	1.220000E-01
110	  0.041843686	-4.897100E+01	  0.041843686	3.385600E+01	  0.041843686	5.029600E+01	  0.041843686	1.990000E-01
111	  0.042044088	-4.817000E+01	  0.042044088	4.045700E+01	  0.042044088	5.029700E+01	  0.042044088	2.540000E-01
112	  0.042244490	-4.797500E+01	  0.042244490	3.633800E+01	  0.042244490	5.032200E+01	  0.042244490	2.380000E-01
113	  0.042444889	-4.856800E+01	  0.042444889	3.248900E+01	  0.042444889	5.031500E+01	  0.042444889	2.010000E-01
114	  0.042645290	-4.777800E+01	  0.042645290	4.480800E+01	  0.042645290	5.028900E+01	  0.042645290	2.890000E-01
115	  0.042845692	-4.982900E+01	  0.042845692	3.659100E+01	  0.042845692	5.025900E+01	  0.042845692	1.930000E-01
116	  0.043046094	-4.802900E+01	  0.043046094	4.566200E+01	  0.043046094	5.027700E+01	  0.043046094	2.850000E-01
117	  0.043246493	-5.186800E+01	  0.043246493	4.506100E+01	  0.043246493	5.018000E+01	  0.043246493	1.810000E-01
118	  0.043446895	-5.189000E+01	  0.043446895	7.223100E+01	  0.043446895	5.007700E+01	  0.043446895	2.420000E-01
119	  0.043647297	-5.199100E+01	  0.043647297	4.858100E+01	  0.043647297	5.016600E+01	  0.043647297	1.890000E-01
120	  0.043847695	-5.086200E+01	  0.043847695	4.920100E+01	  0.043847695	5.018600E+01	  0.043847695	2.170000E-01
121	  0.044048097	-4.959300E+01	  0.044048097	7.465500E+01	  0.044048097	5.008600E+01	  0.044048097	3.200000E-01
122	  0.044248499	-5.103100E+01	  0.044248499	5.413900E+01	  0.044248499	5.016400E+01	  0.044248499	2.280000E-01
123	  0.044448901	-5.519000E+01	  0.044448901	7.647100E+01	  0.044448901	5.004000E+01	  0.044448901	1.690000E-01
124	  0.044649299	-4.991200E+01	  0.044649299	7.784800E+01	  0.044649299	5.006600E+01	  0.044649299	3.120000E-01
125	  0.044849701	-5.130800E+01	  0.044849701	7.667700E+01	  0.044849701	5.006200E+01	  0.044849701	2.650000E-01
126	  0.045050103	-4.948600E+01	  0.045050103	9.960500E+01	  0.045050103	4.994200E+01	  0.045050103	3.300000E-01
127	  0.045250501	-4.890600E+01	  0.045250501	8.732000E+01	  0.045250501	5.001500E+01	  0.045250501	3.580000E-01
128	  0.045450903	-4.781900E+01	  0.045450903	9.101800E+01	  0.045450903	4.999100E+01	  0.045450903	4.060000E-01
129	  0.045651305	-4.720600E+01	  0.045651305	1.106400E+02	  0.045651305	4.984400E+01	  0.045651305	4.060000E-01
130	  0.045851704	-4.612500E+01	  0.045851704	9.834700E+01	  0.045851704	4.992500E+01	  0.045851704	4.880000E-01
131	  0.046052106	-4.820900E+01	  0.046052106	9.602600E+01	  0.046052106	4.995700E+01	  0.046052106	3.860000E-01
132	  0.046252504	-4.580800E+01	  0.046252504	1.104580E+02	  0.046252504	4.981800E+01	  0.046252504	4.780000E-01
133	  0.046452906	-4.421700E+01	  0.046452906	1.011330E+02	  0.046452906	4.987700E+01	  0.046452906	6.020000E-01
134	  0.046653304	-4.357100E+01	  0.046653304	9.638600E+01	  0.046653304	4.992100E+01	  0.046653304	6.570000E-01
135	  0.046853706	-4.637800E+01	  0.046853706	1.081200E+02	  0.046853706	4.984800E+01	  0.046853706	4.540000E-01
136	  0.047054108	-4.289200E+01	  0.047054108	1.036240E+02	  0.047054108	4.982600E+01	  0.047054108	6.940000E-01
137	  0.047254506	-4.344500E+01	  0.047254506	1.043540E+02	  0.047254506	4.982900E+01	  0.047254506	6.490000E-01
138	  0.047454908	-4.209300E+01	  0.047454908	9.750000E+01	  0.047454908	4.989100E+01	  0.047454908	7.770000E-01
139	  0.047655310	-4.267700E+01	  0.047655310	1.047010E+02	  0.047655310	4.980800E+01	  0.047655310	7.080000E-01
140	  0.047855709	-4.183000E+01	  0.047855709	1.019490E+02	  0.047855709	4.982600E+01	  0.047855709	7.890000E-01
141	  0.048056111	-4.099300E+01	  0.048056111	9.646700E+01	  0.048056111	4.989100E+01	  0.048056111	8.840000E-01
142	  0.048256513	-4.150300E+01	  0.048256513	9.496200E+01	  0.048256513	4.992000E+01	  0.048256513	8.360000E-01
143	  0.048456915	-4.074800E+01	  0.048456915	1.055340E+02	  0.048456915	4.974700E+01	  0.048456915	8.790000E-01
144	  0.048657313	-4.077400E+01	  0.048657313	9.759000E+01	  0.048657313	4.987100E+01	  0.048657313	9.040000E-01
145	  0.048857715	-3.938000E+01	  0.048857715	9.820800E+01	  0.048857715	4.983500E+01	  0.048857715	1.059000E+00
146	  0.049058117	-3.907400E+01	  0.049058117	9.625900E+01	  0.049058117	4.986600E+01	  0.049058117	1.102000E+00
147	  0.049258515	-3.832500E+01	  0.049258515	9.748000E+01	  0.049258515	4.982700E+01	  0.049258515	1.198000E+00
148	  0.049458917	-3.843900E+01	  0.049458917	9.428800E+01	  0.049458917	4.989600E+01	  0.049458917	1.191000E+00
149	  0.049659319	-3.912000E+01	  0.049659319	9.791600E+01	  0.049659319	4.983500E+01	  0.049659319	1.092000E+00
150	  0.049859721	-3.794300E+01	  0.049859721	9.441300E+01	  0.049859721	4.988600E+01	  0.049859721	1.260000E+00
151	  0.050060119	-3.799300E+01	  0.050060119	9.681400E+01	  0.050060119	4.983500E+01	  0.050060119	1.247000E+00
152	  0.050260521	-3.850300E+01	  0.050260521	9.492400E+01	  0.050260521	4.988400E+01	  0.050260521	1.181000E+00
153	  0.050460923	-3.844800E+01	  0.050460923	8.709200E+01	  0.050460923	5.004600E+01	  0.050460923	1.195000E+00
154	  0.050661322	-3.732100E+01	  0.050661322	9.078300E+01	  0.050661322	4.996200E+01	  0.050661322	1.360000E+00
155	  0.050861724	-3.751200E+01	  0.050861724	8.500300E+01	  0.050861724	5.009800E+01	  0.050861724	1.329000E+00
156	  0.051062126	-3.792800E+01	  0.051062126	8.836100E+01	  0.051062126	5.002000E+01	  0.051062126	1.269000E+00
157	  0.051262524	-3.706300E+01	  0.051262524	8.768800E+01	  0.051262524	5.003600E+01	  0.051262524	1.402000E+00
158	  0.051462926	-3.630400E+01	  0.051462926	8.781600E+01	  0.051462926	5.003400E+01	  0.051462926	1.530000E+00
159	  0.051663328	-3.628300E+01	  0.051663328	8.437100E+01	  0.051663328	5.012700E+01	  0.051663328	1.530000E+00
160	  0.051863730	-3.575900E+01	  0.051863730	7.954500E+01	  0.051863730	5.027000E+01	  0.051863730	1.611000E+00
161	  0.052064128	-3.626700E+01	  0.052064128	8.556400E+01	  0.052064128	5.009500E+01	  0.052064128	1.535000E+00
162	  0.052264530	-3.621400E+01	  0.052264530	8.061900E+01	  0.052264530	5.022900E+01	  0.052264530	1.533000E+00
163	  0.052464932	-3.579100E+01	  0.052464932	7.841200E+01	  0.052464932	5.030100E+01	  0.052464932	1.600000E+00
164	  0.052665330	-3.609400E+01	  0.052665330	7.959000E+01	  0.052665330	5.026000E+01	  0.052665330	1.550000E+00
165	  0.052865732	-3.571800E+01	  0.052865732	7.851500E+01	  0.052865732	5.030100E+01	  0.052865732	1.614000E+00
166	  0.053066134	-3.598300E+01	  0.053066134	7.798000E+01	  0.053066134	5.030700E+01	  0.053066134	1.563000E+00
167	  0.053266536	-3.528600E+01	  0.053266536	7.398900E+01	  0.053266536	5.044900E+01	  0.053266536	1.669000E+00
168	  0.053466935	-3.567700E+01	  0.053466935	7.317200E+01	  0.053466935	5.045300E+01	  0.053466935	1.589000E+00
169	  0.053667337	-3.555200E+01	  0.053667337	7.094200E+01	  0.053667337	5.052200E+01	  0.053667337	1.594000E+00
170	  0.053867739	-3.504100E+01	  0.053867739	7.468500E+01	  0.053867739	5.044000E+01	  0.053867739	1.722000E+00
171	  0.054068137	-3.507700E+01	  0.054068137	7.174000E+01	  0.054068137	5.052600E+01	  0.054068137	1.691000E+00
172	  0.054268539	-3.502300E+01	  0.054268539	7.212100E+01	  0.054268539	5.051800E+01	  0.054268539	1.705000E+00
173	  0.054468941	-3.500500E+01	  0.054468941	6.955300E+01	  0.054468941	5.059600E+01	  0.054468941	1.685000E+00
174	  0.054669339	-3.462700E+01	  0.054669339	7.236600E+01	  0.054669339	5.053300E+01	  0.054669339	1.788000E+00
175	  0.054869737	-3.526800E+01	  0.054869737	6.687200E+01	  0.054869737	5.065600E+01	  0.054869737	1.606000E+00
176	  0.055070139	-3.445100E+01	  0.055070139	6.252500E+01	  0.055070139	5.085200E+01	  0.055070139	1.709000E+00
177	  0.055270538	-3.451800E+01	  0.055270538	6.505500E+01	  0.055270538	5.076900E+01	  0.055270538	1.731000E+00
178	  0.055470940	-3.450300E+01	  0.055470940	6.395100E+01	  0.055470940	5.080400E+01	  0.055470940	1.719000E+00
179	  0.055671342	-3.449400E+01	  0.055671342	6.061600E+01	  0.055671342	5.090500E+01	  0.055671342	1.672000E+00
180	  0.055871744	-3.475400E+01	  0.055871744	6.213500E+01	  0.055871744	5.083500E+01	  0.055871744	1.644000E+00
181	  0.056072142	-3.421900E+01	  0.056072142	6.090400E+01	  0.056072142	5.092500E+01	  0.056072142	1.731000E+00
182	  0.056272544	-3.446600E+01	  0.056272544	5.961300E+01	  0.056272544	5.093800E+01	  0.056272544	1.662000E+00
183	  0.056472946	-3.416000E+01	  0.056472946	5.520400E+01	  0.056472946	5.110300E+01	  0.056472946	1.644000E+00
184	  0.056673344	-3.430100E+01	  0.056673344	6.037900E+01	  0.056673344	5.093200E+01	  0.056673344	1.707000E+00
185	  0.056873746	-3.458400E+01	  0.056873746	5.516700E+01	  0.056873746	5.105200E+01	  0.056873746	1.564000E+00
186	  0.057074148	-3.397800E+01	  0.057074148	5.388100E+01	  0.057074148	5.116600E+01	  0.057074148	1.654000E+00
187	  0.057274550	-3.425700E+01	  0.057274550	5.343700E+01	  0.057274550	5.114200E+01	  0.057274550	1.592000E+00
188	  0.057474948	-3.462100E+01	  0.057474948	4.966300E+01	  0.057474948	5.119600E+01	  0.057474948	1.450000E+00
189	  0.057675350	-3.447900E+01	  0.057675350	5.113300E+01	  0.057675350	5.117600E+01	  0.057675350	1.505000E+00
190	  0.057875752	-3.432900E+01	  0.057875752	5.158900E+01	  0.057875752	5.118400E+01	  0.057875752	1.541000E+00
191	  0.058076151	-3.422000E+01	  0.058076151	4.913200E+01	  0.058076151	5.126600E+01	  0.058076151	1.508000E+00
192	  0.058276553	-3.400000E+01	  0.058276553	4.798700E+01	  0.058276553	5.133000E+01	  0.058276553	1.522000E+00
193	  0.058476955	-3.487800E+01	  0.058476955	4.434100E+01	  0.058476955	5.129000E+01	  0.058476955	1.293000E+00
194	  0.058677353	-3.508800E+01	  0.058677353	4.840900E+01	  0.058677353	5.116400E+01	  0.058677353	1.347000E+00
195	  0.058877755	-3.477200E+01	  0.058877755	4.759100E+01	  0.058877755	5.122700E+01	  0.058877755	1.381000E+00
196	  0.059078157	-3.457400E+01	  0.059078157	4.035800E+01	  0.059078157	5.142800E+01	  0.059078157	1.244000E+00
197	  0.059278559	-3.444400E+01	  0.059278559	4.560900E+01	  0.059278559	5.132400E+01	  0.059278559	1.391000E+00
198	  0.059478957	-3.503100E+01	  0.059478957	4.343900E+01	  0.059478957	5.128700E+01	  0.059478957	1.250000E+00
199	  0.059679359	-3.457900E+01	  0.059679359	3.966000E+01	  0.059679359	5.144200E+01	  0.059679359	1.226000E+00
200	  0.059879761	-3.499200E+01	  0.059879761	4.296700E+01	  0.059879761	5.130400E+01	  0.059879761	1.245000E+00
201	  0.060080159	-3.479200E+01	  0.060080159	3.739800E+01	  0.060080159	5.145500E+01	  0.060080159	1.138000E+00
202	  0.060280561	-3.476900E+01	  0.060280561	4.021500E+01	  0.060280561	5.139900E+01	  0.060280561	1.212000E+00
203	  0.060480963	-3.535100E+01	  0.060480963	3.985200E+01	  0.060480963	5.131500E+01	  0.060480963	1.123000E+00
204	  0.060681365	-3.580700E+01	  0.060681365	3.738000E+01	  0.060681365	5.129400E+01	  0.060681365	1.009000E+00
205	  0.060881764	-3.496700E+01	  0.060881764	3.507400E+01	  0.060881764	5.147100E+01	  0.060881764	1.056000E+00
206	  0.061082166	-3.536700E+01	  0.061082166	3.474900E+01	  0.061082166	5.141000E+01	  0.061082166	9.990000E-01
207	  0.061282568	-3.579200E+01	  0.061282568	3.513400E+01	  0.061282568	5.133600E+01	  0.061282568	9.590000E-01
208	  0.061482966	-3.560500E+01	  0.061482966	3.840300E+01	  0.061482966	5.130500E+01	  0.061482966	1.057000E+00
209	  0.061683368	-3.561700E+01	  0.061683368	3.422400E+01	  0.061683368	5.137900E+01	  0.061683368	9.570000E-01
210	  0.061883770	-3.598200E+01	  0.061883770	3.524000E+01	  0.061883770	5.130500E+01	  0.061883770	9.400000E-01
211	  0.062084168	-3.654600E+01	  0.062084168	3.358300E+01	  0.062084168	5.124800E+01	  0.062084168	8.430000E-01
212	  0.062284570	-3.618400E+01	  0.062284570	2.905000E+01	  0.062284570	5.136900E+01	  0.062284570	7.740000E-01
213	  0.062484972	-3.624700E+01	  0.062484972	3.551400E+01	  0.062484972	5.126100E+01	  0.062484972	9.170000E-01
214	  0.062685370	-3.588900E+01	  0.062685370	4.056000E+01	  0.062685370	5.122300E+01	  0.062685370	1.069000E+00
215	  0.062885776	-3.746500E+01	  0.062885776	4.142300E+01	  0.062885776	5.100500E+01	  0.062885776	9.030000E-01
216	  0.063086174	-3.750400E+01	  0.063086174	3.090600E+01	  0.063086174	5.115100E+01	  0.063086174	7.000000E-01
217	  0.063286573	-3.708400E+01	  0.063286573	3.460000E+01	  0.063286573	5.115800E+01	  0.063286573	8.120000E-01
218	  0.063486971	-3.721500E+01	  0.063486971	3.102800E+01	  0.063486971	5.118900E+01	  0.063486971	7.270000E-01
219	  0.063687377	-3.859700E+01	  0.063687377	3.006100E+01	  0.063687377	5.102400E+01	  0.063687377	6.000000E-01
220	  0.063887775	-3.763300E+01	  0.063887775	3.038000E+01	  0.063887775	5.114100E+01	  0.063887775	6.790000E-01
221	  0.064088173	-3.828200E+01	  0.064088173	3.512400E+01	  0.064088173	5.100100E+01	  0.064088173	7.150000E-01
222	  0.064288579	-3.802400E+01	  0.064288579	3.340400E+01	  0.064288579	5.105400E+01	  0.064288579	7.050000E-01
223	  0.064488977	-3.859000E+01	  0.064488977	3.727000E+01	  0.064488977	5.093900E+01	  0.064488977	7.250000E-01
224	  0.064689375	-3.897400E+01	  0.064689375	3.383300E+01	  0.064689375	5.093900E+01	  0.064689375	6.380000E-01
225	  0.064889781	-3.996000E+01	  0.064889781	3.357300E+01	  0.064889781	5.084000E+01	  0.064889781	5.640000E-01
226	  0.065090179	-3.843200E+01	  0.065090179	3.754300E+01	  0.065090179	5.095300E+01	  0.065090179	7.430000E-01
227	  0.065290578	-3.991000E+01	  0.065290578	3.974600E+01	  0.065290578	5.077800E+01	  0.065290578	6.560000E-01
228	  0.065490983	-3.877600E+01	  0.065490983	3.745100E+01	  0.065490983	5.091700E+01	  0.065490983	7.120000E-01
229	  0.065691382	-3.909900E+01	  0.065691382	3.492600E+01	  0.065691382	5.091300E+01	  0.065691382	6.460000E-01
230	  0.065891780	-4.057800E+01	  0.065891780	4.445900E+01	  0.065891780	5.066700E+01	  0.065891780	6.640000E-01
231	  0.066092186	-4.034600E+01	  0.066092186	4.568000E+01	  0.066092186	5.067100E+01	  0.066092186	6.960000E-01
232	  0.066292584	-4.013600E+01	  0.066292584	4.197500E+01	  0.066292584	5.073200E+01	  0.066292584	6.680000E-01
233	  0.066492982	-3.983900E+01	  0.066492982	4.447900E+01	  0.066492982	5.072600E+01	  0.066492982	7.240000E-01
234	  0.066693388	-4.197200E+01	  0.066693388	4.830900E+01	  0.066693388	5.052900E+01	  0.066693388	6.010000E-01
235	  0.066893786	-3.842300E+01	  0.066893786	4.847500E+01	  0.066893786	5.079200E+01	  0.066893786	9.120000E-01
236	  0.067094192	-4.253500E+01	  0.067094192	4.943900E+01	  0.067094192	5.048400E+01	  0.067094192	5.720000E-01
237	  0.067294590	-3.990200E+01	  0.067294590	5.072400E+01	  0.067294590	5.063800E+01	  0.067294590	7.920000E-01
238	  0.067494988	-4.137600E+01	  0.067494988	5.216000E+01	  0.067494988	5.052100E+01	  0.067494988	6.810000E-01
239	  0.067695394	-4.134000E+01	  0.067695394	6.238200E+01	  0.067695394	5.039300E+01	  0.067695394	7.650000E-01
240	  0.067895792	-4.045600E+01	  0.067895792	6.782200E+01	  0.067895792	5.035100E+01	  0.067895792	8.840000E-01
241	  0.068096191	-4.044000E+01	  0.068096191	6.797100E+01	  0.068096191	5.034900E+01	  0.068096191	8.870000E-01
242	  0.068296596	-4.016600E+01	  0.068296596	7.124900E+01	  0.068296596	5.030700E+01	  0.068296596	9.340000E-01
243	  0.068496995	-4.050800E+01	  0.068496995	6.215000E+01	  0.068496995	5.043500E+01	  0.068496995	8.410000E-01
244	  0.068697393	-3.849800E+01	  0.068697393	6.766800E+01	  0.068697393	5.044100E+01	  0.068697393	1.109000E+00
245	  0.068897791	-3.927300E+01	  0.068897791	7.401500E+01	  0.068897791	5.028900E+01	  0.068897791	1.051000E+00
246	  0.069098189	-3.959700E+01	  0.069098189	6.723400E+01	  0.069098189	5.039700E+01	  0.069098189	9.730000E-01
247	  0.069298595	-4.025900E+01	  0.069298595	7.567800E+01	  0.069298595	5.023100E+01	  0.069298595	9.440000E-01
248	  0.069498993	-3.906300E+01	  0.069498993	8.399900E+01	  0.069498993	5.010400E+01	  0.069498993	1.110000E+00
249	  0.069699399	-3.955900E+01	  0.069699399	7.121900E+01	  0.069699399	5.032900E+01	  0.069699399	1.002000E+00
250	  0.069899797	-3.824900E+01	  0.069899797	7.405400E+01	  0.069899797	5.032300E+01	  0.069899797	1.183000E+00
251	  0.070100196	-3.899500E+01	  0.070100196	8.147600E+01	  0.070100196	5.015400E+01	  0.070100196	1.113000E+00
252	  0.070300601	-3.791500E+01	  0.070300601	7.841200E+01	  0.070300601	5.024000E+01	  0.070300601	1.251000E+00
253	  0.070501000	-3.860600E+01	  0.070501000	7.817800E+01	  0.070501000	5.022700E+01	  0.070501000	1.154000E+00
254	  0.070701398	-3.697200E+01	  0.070701398	7.705300E+01	  0.070701398	5.029900E+01	  0.070701398	1.389000E+00
255	  0.070901804	-3.801300E+01	  0.070901804	8.380500E+01	  0.070901804	5.012000E+01	  0.070901804	1.252000E+00
256	  0.071102202	-3.662600E+01	  0.071102202	7.611300E+01	  0.071102202	5.033400E+01	  0.071102202	1.441000E+00
257	  0.071302600	-3.675200E+01	  0.071302600	8.204500E+01	  0.071302600	5.018000E+01	  0.071302600	1.444000E+00
258	  0.071503006	-3.649200E+01	  0.071503006	8.310400E+01	  0.071503006	5.015700E+01	  0.071503006	1.491000E+00
259	  0.071703404	-3.656700E+01	  0.071703404	7.992400E+01	  0.071703404	5.023800E+01	  0.071703404	1.469000E+00
260	  0.071903802	-3.644000E+01	  0.071903802	7.880000E+01	  0.071903802	5.027100E+01	  0.071903802	1.486000E+00
261	  0.072104208	-3.642500E+01	  0.072104208	7.976100E+01	  0.072104208	5.024600E+01	  0.072104208	1.492000E+00
262	  0.072304606	-3.564800E+01	  0.072304606	8.522600E+01	  0.072304606	5.011000E+01	  0.072304606	1.648000E+00
263	  0.072505005	-3.557200E+01	  0.072505005	7.993300E+01	  0.072505005	5.026400E+01	  0.072505005	1.648000E+00
264	  0.072705410	-3.554000E+01	  0.072705410	7.997300E+01	  0.072705410	5.026400E+01	  0.072705410	1.654000E+00
265	  0.072905809	-3.570100E+01	  0.072905809	7.737400E+01	  0.072905809	5.033300E+01	  0.072905809	1.611000E+00
266	  0.073106214	-3.538400E+01	  0.073106214	7.944700E+01	  0.073106214	5.028400E+01	  0.073106214	1.682000E+00
267	  0.073306613	-3.522900E+01	  0.073306613	7.929700E+01	  0.073306613	5.029300E+01	  0.073306613	1.712000E+00
268	  0.073507011	-3.479100E+01	  0.073507011	7.832700E+01	  0.073507011	5.033700E+01	  0.073507011	1.796000E+00
269	  0.073707417	-3.440700E+01	  0.073707417	7.505100E+01	  0.073707417	5.045900E+01	  0.073707417	1.856000E+00
270	  0.073907815	-3.459600E+01	  0.073907815	7.860800E+01	  0.073907815	5.033500E+01	  0.073907815	1.839000E+00
271	  0.074108213	-3.496300E+01	  0.074108213	7.370200E+01	  0.074108213	5.047300E+01	  0.074108213	1.730000E+00
272	  0.074308619	-3.397800E+01	  0.074308619	7.630000E+01	  0.074308619	5.043700E+01	  0.074308619	1.961000E+00
273	  0.074509017	-3.439300E+01	  0.074509017	7.566900E+01	  0.074509017	5.043900E+01	  0.074509017	1.864000E+00
274	  0.074709415	-3.409300E+01	  0.074709415	7.316100E+01	  0.074709415	5.053800E+01	  0.074709415	1.910000E+00
275	  0.074909821	-3.411100E+01	  0.074909821	7.820200E+01	  0.074909821	5.036600E+01	  0.074909821	1.943000E+00
276	  0.075110219	-3.402100E+01	  0.075110219	7.912700E+01	  0.075110219	5.033800E+01	  0.075110219	1.968000E+00
277	  0.075310618	-3.455300E+01	  0.075310618	7.795600E+01	  0.075310618	5.035800E+01	  0.075310618	1.844000E+00
278	  0.075511023	-3.419000E+01	  0.075511023	7.352100E+01	  0.075511023	5.052100E+01	  0.075511023	1.892000E+00
279	  0.075711422	-3.385900E+01	  0.075711422	7.147500E+01	  0.075711422	5.061000E+01	  0.075711422	1.947000E+00
280	  0.075911827	-3.442300E+01	  0.075911827	7.621400E+01	  0.075911827	5.042000E+01	  0.075911827	1.861000E+00
281	  0.076112226	-3.392100E+01	  0.076112226	7.784900E+01	  0.076112226	5.038600E+01	  0.076112226	1.984000E+00
282	  0.076312624	-3.393300E+01	  0.076312624	7.296100E+01	  0.076312624	5.055500E+01	  0.076312624	1.944000E+00
283	  0.076513030	-3.398600E+01	  0.076513030	7.035000E+01	  0.076513030	5.064000E+01	  0.076513030	1.906000E+00
284	  0.076713428	-3.418200E+01	  0.076713428	7.300800E+01	  0.076713428	5.053800E+01	  0.076713428	1.889000E+00
285	  0.076913826	-3.332600E+01	  0.076913826	7.297500E+01	  0.076913826	5.059100E+01	  0.076913826	2.086000E+00
286	  0.077114232	-3.460300E+01	  0.077114232	7.532200E+01	  0.077114232	5.044000E+01	  0.077114232	1.817000E+00
287	  0.077314630	-3.396900E+01	  0.077314630	7.144600E+01	  0.077314630	5.060400E+01	  0.077314630	1.921000E+00
288	  0.077515028	-3.374800E+01	  0.077515028	7.318200E+01	  0.077515028	5.055800E+01	  0.077515028	1.988000E+00
289	  0.077715434	-3.469300E+01	  0.077715434	7.092200E+01	  0.077715434	5.057400E+01	  0.077715434	1.761000E+00
290	  0.077915832	-3.369200E+01	  0.077915832	7.335100E+01	  0.077915832	5.055500E+01	  0.077915832	2.003000E+00
291	  0.078116231	-3.395300E+01	  0.078116231	7.300700E+01	  0.078116231	5.055200E+01	  0.078116231	1.940000E+00
292	  0.078316636	-3.408700E+01	  0.078316636	7.430300E+01	  0.078316636	5.050000E+01	  0.078316636	1.921000E+00
293	  0.078517035	-3.420800E+01	  0.078517035	7.469900E+01	  0.078517035	5.048000E+01	  0.078517035	1.897000E+00
294	  0.078717433	-3.411600E+01	  0.078717433	7.336500E+01	  0.078717433	5.053000E+01	  0.078717433	1.907000E+00
295	  0.078917839	-3.381500E+01	  0.078917839	7.873300E+01	  0.078917839	5.035900E+01	  0.078917839	2.013000E+00
296	  0.079118237	-3.366300E+01	  0.079118237	7.303100E+01	  0.079118237	5.056800E+01	  0.079118237	2.007000E+00
297	  0.079318643	-3.332700E+01	  0.079318643	8.264600E+01	  0.079318643	5.023000E+01	  0.079318643	2.149000E+00
298	  0.079519041	-3.400000E+01	  0.079519041	7.716600E+01	  0.079519041	5.040600E+01	  0.079519041	1.961000E+00
299	  0.079719439	-3.435300E+01	  0.079719439	8.253400E+01	  0.079719439	5.021300E+01	  0.079719439	1.908000E+00
300	  0.079919845	-3.411700E+01	  0.079919845	8.400600E+01	  0.079919845	5.016700E+01	  0.079919845	1.965000E+00
301	  0.080120243	-3.391900E+01	  0.080120243	8.474000E+01	  0.080120243	5.014400E+01	  0.080120243	2.011000E+00
302	  0.080320641	-3.348400E+01	  0.080320641	8.961200E+01	  0.080320641	4.996900E+01	  0.080320641	2.116000E+00
303	  0.080521047	-3.316100E+01	  0.080521047	8.867600E+01	  0.080521047	5.000200E+01	  0.080521047	2.198000E+00
304	  0.080721445	-3.311600E+01	  0.080721445	9.176600E+01	  0.080721445	4.988300E+01	  0.080721445	2.203000E+00
305	  0.080921844	-3.324600E+01	  0.080921844	9.583100E+01	  0.080921844	4.973200E+01	  0.080921844	2.154000E+00
306	  0.081122249	-3.256800E+01	  0.081122249	9.337800E+01	  0.081122249	4.980600E+01	  0.081122249	2.340000E+00
307	  0.081322648	-3.269100E+01	  0.081322648	9.506500E+01	  0.081322648	4.974200E+01	  0.081322648	2.299000E+00
308	  0.081523046	-3.180100E+01	  0.081523046	9.611400E+01	  0.081523046	4.966200E+01	  0.081523046	2.539000E+00
309	  0.081723452	-3.176100E+01	  0.081723452	1.002820E+02	  0.081723452	4.947700E+01	  0.081723452	2.515000E+00
310	  0.081923850	-3.133400E+01	  0.081923850	9.891500E+01	  0.081923850	4.951000E+01	  0.081923850	2.654000E+00
311	  0.082124248	-3.081900E+01	  0.082124248	9.865000E+01	  0.082124248	4.948900E+01	  0.082124248	2.818000E+00
312	  0.082324654	-3.053000E+01	  0.082324654	1.002000E+02	  0.082324654	4.939100E+01	  0.082324654	2.894000E+00
313	  0.082525052	-3.037000E+01	  0.082525052	1.019230E+02	  0.082525052	4.929100E+01	  0.082525052	2.925000E+00
314	  0.082725458	-2.994600E+01	  0.082725458	1.011520E+02	  0.082725458	4.929200E+01	  0.082725458	3.080000E+00
315	  0.082925856	-2.911700E+01	  0.082925856	9.913900E+01	  0.082925856	4.932900E+01	  0.082925856	3.413000E+00
316	  0.083126254	-2.862900E+01	  0.083126254	1.030570E+02	  0.083126254	4.904300E+01	  0.083126254	3.542000E+00
317	  0.083326660	-2.890900E+01	  0.083326660	9.927400E+01	  0.083326660	4.930200E+01	  0.083326660	3.493000E+00
318	  0.083527058	-2.818900E+01	  0.083527058	9.985900E+01	  0.083527058	4.919300E+01	  0.083527058	3.781000E+00
319	  0.083727457	-2.775800E+01	  0.083727457	9.872400E+01	  0.083727457	4.922200E+01	  0.083727457	3.989000E+00
320	  0.083927862	-2.746900E+01	  0.083927862	9.751800E+01	  0.083927862	4.927600E+01	  0.083927862	4.142000E+00
321	  0.084128261	-2.742800E+01	  0.084128261	9.666000E+01	  0.084128261	4.933300E+01	  0.084128261	4.174000E+00
322	  0.084328659	-2.708700E+01	  0.084328659	9.595600E+01	  0.084328659	4.935200E+01	  0.084328659	4.349000E+00
323	  0.084529065	-2.677400E+01	  0.084529065	9.655000E+01	  0.084529065	4.927500E+01	  0.084529065	4.497000E+00
324	  0.084729463	-2.629400E+01	  0.084729463	9.538800E+01	  0.084729463	4.931800E+01	  0.084729463	4.769000E+00
325	  0.084929861	-2.593300E+01	  0.084929861	9.496000E+01	  0.084929861	4.931600E+01	  0.084929861	4.975000E+00
326	  0.085130267	-2.576600E+01	  0.085130267	9.328900E+01	  0.085130267	4.944400E+01	  0.085130267	5.096000E+00
327	  0.085330658	-2.547000E+01	  0.085330658	9.191700E+01	  0.085330658	4.954000E+01	  0.085330658	5.290000E+00
328	  0.085531056	-2.514400E+01	  0.085531056	8.908800E+01	  0.085531056	4.978200E+01	  0.085531056	5.522000E+00
329	  0.085731462	-2.496800E+01	  0.085731462	8.909400E+01	  0.085731462	4.977100E+01	  0.085731462	5.635000E+00
330	  0.085931860	-2.467800E+01	  0.085931860	8.869000E+01	  0.085931860	4.979200E+01	  0.085931860	5.829000E+00
331	  0.086132258	-2.446500E+01	  0.086132258	8.610300E+01	  0.086132258	5.004900E+01	  0.086132258	5.993000E+00
332	  0.086332664	-2.430900E+01	  0.086332664	8.660500E+01	  0.086332664	4.998900E+01	  0.086332664	6.099000E+00
333	  0.086533062	-2.411500E+01	  0.086533062	8.448400E+01	  0.086533062	5.021200E+01	  0.086533062	6.247000E+00
334	  0.086733460	-2.394400E+01	  0.086733460	8.323300E+01	  0.086733460	5.034800E+01	  0.086733460	6.375000E+00
335	  0.086933866	-2.371300E+01	  0.086933866	8.309200E+01	  0.086933866	5.036300E+01	  0.086933866	6.548000E+00
336	  0.087134264	-2.355600E+01	  0.087134264	8.234300E+01	  0.087134264	5.044900E+01	  0.087134264	6.669000E+00
337	  0.087334670	-2.324100E+01	  0.087334670	8.061400E+01	  0.087334670	5.066000E+01	  0.087334670	6.915000E+00
338	  0.087535068	-2.300300E+01	  0.087535068	8.054300E+01	  0.087535068	5.067400E+01	  0.087535068	7.110000E+00
339	  0.087735467	-2.298000E+01	  0.087735467	8.003900E+01	  0.087735467	5.073800E+01	  0.087735467	7.127000E+00
340	  0.087935872	-2.273800E+01	  0.087935872	7.881100E+01	  0.087935872	5.090400E+01	  0.087935872	7.325000E+00
341	  0.088136271	-2.247900E+01	  0.088136271	7.778100E+01	  0.088136271	5.105300E+01	  0.088136271	7.543000E+00
342	  0.088336669	-2.233500E+01	  0.088336669	7.739000E+01	  0.088336669	5.111400E+01	  0.088336669	7.668000E+00
343	  0.088537075	-2.190300E+01	  0.088537075	7.565200E+01	  0.088537075	5.139100E+01	  0.088537075	8.049000E+00
344	  0.088737473	-2.170000E+01	  0.088737473	7.495400E+01	  0.088737473	5.151200E+01	  0.088737473	8.235000E+00
345	  0.088937871	-2.135700E+01	  0.088937871	7.479700E+01	  0.088937871	5.157000E+01	  0.088937871	8.576000E+00
346	  0.089138277	-2.106500E+01	  0.089138277	7.271400E+01	  0.089138277	5.193200E+01	  0.089138277	8.841000E+00
347	  0.089338675	-2.069000E+01	  0.089338675	7.097800E+01	  0.089338675	5.227400E+01	  0.089338675	9.207000E+00
348	  0.089539073	-2.032400E+01	  0.089539073	7.048000E+01	  0.089539073	5.242400E+01	  0.089539073	9.609000E+00
349	  0.089739479	-2.010400E+01	  0.089739479	6.686600E+01	  0.089739479	5.311700E+01	  0.089739479	9.747000E+00
350	  0.089939877	-1.986200E+01	  0.089939877	6.576100E+01	  0.089939877	5.338600E+01	  0.089939877	9.994000E+00
351	  0.090140276	-1.952800E+01	  0.090140276	6.343100E+01	  0.090140276	5.393500E+01	  0.090140276	1.030000E+01
352	  0.090340681	-1.933500E+01	  0.090340681	6.147600E+01	  0.090340681	5.439100E+01	  0.090340681	1.043900E+01
353	  0.090541080	-1.912600E+01	  0.090541080	5.913200E+01	  0.090541080	5.495100E+01	  0.090541080	1.056000E+01
354	  0.090741485	-1.909500E+01	  0.090741485	5.699200E+01	  0.090741485	5.540000E+01	  0.090741485	1.043900E+01
355	  0.090941884	-1.880800E+01	  0.090941884	5.441500E+01	  0.090941884	5.609100E+01	  0.090941884	1.060300E+01
356	  0.091142282	-1.869900E+01	  0.091142282	5.168600E+01	  0.091142282	5.673000E+01	  0.091142282	1.048100E+01
357	  0.091342688	-1.859300E+01	  0.091342688	4.918800E+01	  0.091342688	5.732600E+01	  0.091342688	1.034500E+01
358	  0.091543086	-1.851300E+01	  0.091543086	4.722100E+01	  0.091543086	5.779800E+01	  0.091543086	1.021100E+01
359	  0.091743484	-1.850200E+01	  0.091743484	4.456100E+01	  0.091743484	5.834900E+01	  0.091743484	9.868000E+00
360	  0.091943890	-1.847300E+01	  0.091943890	4.249500E+01	  0.091943890	5.878800E+01	  0.091943890	9.604000E+00
361	  0.092144288	-1.830700E+01	  0.092144288	4.056800E+01	  0.092144288	5.934000E+01	  0.092144288	9.520000E+00
362	  0.092344686	-1.830900E+01	  0.092344686	3.830600E+01	  0.092344686	5.977700E+01	  0.092344686	9.138000E+00
363	  0.092545092	-1.823000E+01	  0.092545092	3.628000E+01	  0.092545092	6.025100E+01	  0.092545092	8.875000E+00
364	  0.092745490	-1.821500E+01	  0.092745490	3.412600E+01	  0.092745490	6.066500E+01	  0.092745490	8.487000E+00
365	  0.092945889	-1.819900E+01	  0.092945889	3.208000E+01	  0.092945889	6.104700E+01	  0.092945889	8.101000E+00
366	  0.093146294	-1.816600E+01	  0.093146294	3.005200E+01	  0.093146294	6.143500E+01	  0.093146294	7.717000E+00
367	  0.093346693	-1.817400E+01	  0.093346693	2.812400E+01	  0.093346693	6.173500E+01	  0.093346693	7.292000E+00
368	  0.093547091	-1.819100E+01	  0.093547091	2.637700E+01	  0.093547091	6.197700E+01	  0.093547091	6.886000E+00
369	  0.093747497	-1.817100E+01	  0.093747497	2.475300E+01	  0.093747497	6.224400E+01	  0.093747497	6.533000E+00
370	  0.093947895	-1.819800E+01	  0.093947895	2.260000E+01	  0.093947895	6.249500E+01	  0.093947895	6.001000E+00
371	  0.094148301	-1.807500E+01	  0.094148301	2.137900E+01	  0.094148301	6.285000E+01	  0.094148301	5.809000E+00
372	  0.094348699	-1.813200E+01	  0.094348699	2.013400E+01	  0.094348699	6.291100E+01	  0.094348699	5.454000E+00
373	  0.094549097	-1.826600E+01	  0.094549097	1.853900E+01	  0.094549097	6.287200E+01	  0.094549097	4.955000E+00
374	  0.094749503	-1.817700E+01	  0.094749503	1.679900E+01	  0.094749503	6.320400E+01	  0.094749503	4.576000E+00
375	  0.094949901	-1.827200E+01	  0.094949901	1.461200E+01	  0.094949901	6.324700E+01	  0.094949901	3.952000E+00
376	  0.095150299	-1.827300E+01	  0.095150299	1.282600E+01	  0.095150299	6.339300E+01	  0.095150299	3.485000E+00
377	  0.095350705	-1.820900E+01	  0.095350705	1.154100E+01	  0.095350705	6.360000E+01	  0.095350705	3.175000E+00
378	  0.095551103	-1.829500E+01	  0.095551103	1.043900E+01	  0.095551103	6.352100E+01	  0.095551103	2.843000E+00
379	  0.095751502	-1.823900E+01	  0.095751502	8.518000E+00	  0.095751502	6.373100E+01	  0.095751502	2.347000E+00
380	  0.095951907	-1.824600E+01	  0.095951907	7.155000E+00	  0.095951907	6.378500E+01	  0.095951907	1.974000E+00
381	  0.096152306	-1.817100E+01	  0.096152306	6.358000E+00	  0.096152306	6.395400E+01	  0.096152306	1.775000E+00
382	  0.096352704	-1.821900E+01	  0.096352704	4.566000E+00	  0.096352704	6.392800E+01	  0.096352704	1.268000E+00
383	  0.096553110	-1.837900E+01	  0.096553110	2.974000E+00	  0.096553110	6.367600E+01	  0.096553110	8.080000E-01
384	  0.096753508	-1.829400E+01	  0.096753508	1.606000E+00	  0.096753508	6.384700E+01	  0.096753508	4.420000E-01
385	  0.096953906	-1.840500E+01	  0.096953906	1.200000E-01	  0.096953906	6.365500E+01	  0.096953906	3.200000E-02
386	  0.097154312	-1.835400E+01	  0.097154312	-1.609000E+00	  0.097154312	6.373800E+01	  0.097154312	-4.390000E-01
387	  0.097354710	-1.836100E+01	  0.097354710	-2.630000E+00	  0.097354710	6.371300E+01	  0.097354710	-7.160000E-01
388	  0.097555116	-1.839500E+01	  0.097555116	-4.397000E+00	  0.097555116	6.361500E+01	  0.097555116	-1.190000E+00
389	  0.097755514	-1.839000E+01	  0.097755514	-5.324000E+00	  0.097755514	6.359600E+01	  0.097755514	-1.441000E+00
390	  0.097955912	-1.845300E+01	  0.097955912	-7.188000E+00	  0.097955912	6.341600E+01	  0.097955912	-1.923000E+00
391	  0.098156318	-1.848800E+01	  0.098156318	-7.751000E+00	  0.098156318	6.333100E+01	  0.098156318	-2.062000E+00
392	  0.098356716	-1.857100E+01	  0.098356716	-9.795000E+00	  0.098356716	6.308400E+01	  0.098356716	-2.565000E+00
393	  0.098557115	-1.856900E+01	  0.098557115	-1.079200E+01	  0.098557115	6.302900E+01	  0.098557115	-2.822000E+00
394	  0.098757520	-1.860300E+01	  0.098757520	-1.151900E+01	  0.098757520	6.292500E+01	  0.098757520	-2.992000E+00
395	  0.098957919	-1.862100E+01	  0.098957919	-1.421800E+01	  0.098957919	6.269800E+01	  0.098957919	-3.659000E+00
396	  0.099158317	-1.872600E+01	  0.099158317	-1.533000E+01	  0.099158317	6.243800E+01	  0.099158317	-3.875000E+00
397	  0.099358723	-1.875200E+01	  0.099358723	-1.602600E+01	  0.099358723	6.233600E+01	  0.099358723	-4.027000E+00
398	  0.099559121	-1.875200E+01	  0.099559121	-1.731800E+01	  0.099559121	6.221900E+01	  0.099559121	-4.334000E+00
399	  0.099759519	-1.865000E+01	  0.099759519	-1.845800E+01	  0.099759519	6.226500E+01	  0.099759519	-4.669000E+00
400	  0.099959925	-1.881400E+01	  0.099959925	-1.986900E+01	  0.099959925	6.186900E+01	  0.099959925	-4.884000E+00
401	  0.100160323	-1.882600E+01	  0.100160323	-2.134800E+01	  0.100160323	6.169000E+01	  0.100160323	-5.209000E+00
402	  0.100360721	-1.891000E+01	  0.100360721	-2.159200E+01	  0.100360721	6.154000E+01	  0.100360721	-5.201000E+00
403	  0.100561127	-1.885700E+01	  0.100561127	-2.333600E+01	  0.100561127	6.141400E+01	  0.100561127	-5.622000E+00
404	  0.100761525	-1.885800E+01	  0.100761525	-2.522500E+01	  0.100761525	6.117600E+01	  0.100761525	-6.025000E+00
405	  0.100961931	-1.882200E+01	  0.100961931	-2.669800E+01	  0.100961931	6.103100E+01	  0.100961931	-6.363000E+00
406	  0.101162329	-1.892500E+01	  0.101162329	-2.780400E+01	  0.101162329	6.074200E+01	  0.101162329	-6.496000E+00
407	  0.101362728	-1.890400E+01	  0.101362728	-2.780300E+01	  0.101362728	6.077000E+01	  0.101362728	-6.514000E+00
408	  0.101563133	-1.908300E+01	  0.101563133	-2.892600E+01	  0.101563133	6.038300E+01	  0.101563133	-6.572000E+00
409	  0.101763532	-1.913900E+01	  0.101763532	-3.008300E+01	  0.101763532	6.015100E+01	  0.101763532	-6.740000E+00
410	  0.101963930	-1.900300E+01	  0.101963930	-3.141300E+01	  0.101963930	6.012400E+01	  0.101963930	-7.118000E+00
411	  0.102164336	-1.910200E+01	  0.102164336	-3.399900E+01	  0.102164336	5.961200E+01	  0.102164336	-7.484000E+00
412	  0.102364734	-1.903300E+01	  0.102364734	-3.232900E+01	  0.102364734	5.995000E+01	  0.102364734	-7.257000E+00
413	  0.102565132	-1.930500E+01	  0.102565132	-3.570500E+01	  0.102565132	5.912000E+01	  0.102565132	-7.564000E+00
414	  0.102765530	-1.914200E+01	  0.102765530	-3.568100E+01	  0.102765530	5.930200E+01	  0.102765530	-7.730000E+00
415	  0.102965929	-1.926100E+01	  0.102965929	-3.625100E+01	  0.102965929	5.908100E+01	  0.102965929	-7.698000E+00
416	  0.103166327	-1.930800E+01	  0.103166327	-3.810500E+01	  0.103166327	5.873300E+01	  0.103166327	-7.942000E+00
417	  0.103366733	-1.940700E+01	  0.103366733	-3.834500E+01	  0.103366733	5.859500E+01	  0.103366733	-7.874000E+00
418	  0.103567131	-1.936400E+01	  0.103567131	-4.072400E+01	  0.103567131	5.824500E+01	  0.103567131	-8.272000E+00
419	  0.103767529	-1.943500E+01	  0.103767529	-4.120500E+01	  0.103767529	5.809800E+01	  0.103767529	-8.262000E+00
420	  0.103967935	-1.948600E+01	  0.103967935	-4.228000E+01	  0.103967935	5.787000E+01	  0.103967935	-8.354000E+00
421	  0.104168333	-1.957900E+01	  0.104168333	-4.474700E+01	  0.104168333	5.737000E+01	  0.104168333	-8.573000E+00
422	  0.104368731	-1.945900E+01	  0.104368731	-4.411700E+01	  0.104368731	5.757900E+01	  0.104368731	-8.628000E+00
423	  0.104569137	-1.950600E+01	  0.104569137	-4.653300E+01	  0.104569137	5.711700E+01	  0.104569137	-8.875000E+00
424	  0.104769535	-1.975900E+01	  0.104769535	-4.658800E+01	  0.104769535	5.691200E+01	  0.104769535	-8.591000E+00
425	  0.104969934	-1.976400E+01	  0.104969934	-4.843300E+01	  0.104969934	5.659000E+01	  0.104969934	-8.793000E+00
426	  0.105170339	-1.969500E+01	  0.105170339	-5.001300E+01	  0.105170339	5.636100E+01	  0.105170339	-9.042000E+00
427	  0.105370738	-1.966700E+01	  0.105370738	-5.078500E+01	  0.105370738	5.624200E+01	  0.105370738	-9.154000E+00
428	  0.105571143	-1.974200E+01	  0.105571143	-5.201200E+01	  0.105571143	5.597300E+01	  0.105571143	-9.186000E+00
429	  0.105771542	-1.962300E+01	  0.105771542	-5.260500E+01	  0.105771542	5.593900E+01	  0.105771542	-9.384000E+00
430	  0.105971940	-1.998900E+01	  0.105971940	-5.386400E+01	  0.105971940	5.549500E+01	  0.105971940	-9.065000E+00
431	  0.106172346	-1.983700E+01	  0.106172346	-5.535400E+01	  0.106172346	5.531400E+01	  0.106172346	-9.370000E+00
432	  0.106372744	-1.986900E+01	  0.106372744	-5.572200E+01	  0.106372744	5.523100E+01	  0.106372744	-9.362000E+00
433	  0.106573142	-1.999700E+01	  0.106573142	-5.744700E+01	  0.106573142	5.485500E+01	  0.106573142	-9.343000E+00
434	  0.106773548	-2.021300E+01	  0.106773548	-5.736400E+01	  0.106773548	5.476600E+01	  0.106773548	-9.086000E+00
435	  0.106973946	-1.987400E+01	  0.106973946	-5.784800E+01	  0.106973946	5.484200E+01	  0.106973946	-9.519000E+00
436	  0.107174344	-2.018900E+01	  0.107174344	-6.074400E+01	  0.107174344	5.418400E+01	  0.107174344	-9.339000E+00
437	  0.107374750	-2.022300E+01	  0.107374750	-6.137700E+01	  0.107374750	5.405900E+01	  0.107374750	-9.338000E+00
438	  0.107575148	-2.020400E+01	  0.107575148	-6.235600E+01	  0.107575148	5.389300E+01	  0.107575148	-9.416000E+00
439	  0.107775547	-2.041000E+01	  0.107775547	-6.195100E+01	  0.107775547	5.388800E+01	  0.107775547	-9.156000E+00
440	  0.107975952	-2.022600E+01	  0.107975952	-6.400300E+01	  0.107975952	5.359300E+01	  0.107975952	-9.475000E+00
441	  0.108176351	-2.019300E+01	  0.108176351	-6.597600E+01	  0.108176351	5.325200E+01	  0.108176351	-9.605000E+00
442	  0.108376749	-2.037500E+01	  0.108376749	-6.686200E+01	  0.108376749	5.304700E+01	  0.108376749	-9.429000E+00
443	  0.108577155	-2.045700E+01	  0.108577155	-6.766700E+01	  0.108577155	5.288700E+01	  0.108577155	-9.366000E+00
444	  0.108777553	-2.049000E+01	  0.108777553	-6.863500E+01	  0.108777553	5.271200E+01	  0.108777553	-9.362000E+00
445	  0.108977959	-2.056000E+01	  0.108977959	-6.907600E+01	  0.108977959	5.262100E+01	  0.108977959	-9.297000E+00
446	  0.109178357	-2.046400E+01	  0.109178357	-7.002800E+01	  0.109178357	5.247700E+01	  0.109178357	-9.435000E+00
447	  0.109378755	-2.061700E+01	  0.109378755	-7.151700E+01	  0.109378755	5.219500E+01	  0.109378755	-9.301000E+00
448	  0.109579161	-2.069300E+01	  0.109579161	-7.378200E+01	  0.109579161	5.180300E+01	  0.109579161	-9.263000E+00
449	  0.109779559	-2.073100E+01	  0.109779559	-7.352500E+01	  0.109779559	5.184200E+01	  0.109779559	-9.217000E+00
450	  0.109979957	-2.073400E+01	  0.109979957	-7.396900E+01	  0.109979957	5.176800E+01	  0.109979957	-9.222000E+00
451	  0.110180363	-2.071300E+01	  0.110180363	-7.568800E+01	  0.110180363	5.148300E+01	  0.110180363	-9.268000E+00
452	  0.110380761	-2.073600E+01	  0.110380761	-7.802000E+01	  0.110380761	5.109500E+01	  0.110380761	-9.262000E+00
453	  0.110581160	-2.085200E+01	  0.110581160	-7.845800E+01	  0.110581160	5.102000E+01	  0.110581160	-9.138000E+00
454	  0.110781565	-2.087500E+01	  0.110781565	-7.787000E+01	  0.110781565	5.111500E+01	  0.110781565	-9.111000E+00
455	  0.110981964	-2.095700E+01	  0.110981964	-7.996600E+01	  0.110981964	5.077600E+01	  0.110981964	-9.028000E+00
456	  0.111182362	-2.101500E+01	  0.111182362	-7.971300E+01	  0.111182362	5.081600E+01	  0.111182362	-8.967000E+00
457	  0.111382768	-2.101200E+01	  0.111382768	-8.227000E+01	  0.111382768	5.041100E+01	  0.111382768	-8.962000E+00
458	  0.111583166	-2.109300E+01	  0.111583166	-8.374200E+01	  0.111583166	5.018500E+01	  0.111583166	-8.865000E+00
459	  0.111783572	-2.091800E+01	  0.111783572	-8.197200E+01	  0.111783572	5.045400E+01	  0.111783572	-9.063000E+00
460	  0.111983970	-2.105400E+01	  0.111983970	-8.481800E+01	  0.111983970	5.001500E+01	  0.111983970	-8.893000E+00
461	  0.112184368	-2.104100E+01	  0.112184368	-8.561800E+01	  0.112184368	4.989000E+01	  0.112184368	-8.894000E+00
462	  0.112384774	-2.132800E+01	  0.112384774	-8.862300E+01	  0.112384774	4.947100E+01	  0.112384774	-8.551000E+00
463	  0.112585172	-2.112700E+01	  0.112585172	-8.652300E+01	  0.112585172	4.976000E+01	  0.112585172	-8.792000E+00
464	  0.112785570	-2.104200E+01	  0.112785570	-8.897400E+01	  0.112785570	4.937500E+01	  0.112785570	-8.826000E+00
465	  0.112985976	-2.138500E+01	  0.112985976	-9.048300E+01	  0.112985976	4.920800E+01	  0.112985976	-8.451000E+00
466	  0.113186374	-2.137200E+01	  0.113186374	-8.977000E+01	  0.113186374	4.930900E+01	  0.113186374	-8.482000E+00
467	  0.113386773	-2.153500E+01	  0.113386773	-9.174300E+01	  0.113386773	4.905400E+01	  0.113386773	-8.275000E+00
468	  0.113587178	-2.144400E+01	  0.113587178	-9.281400E+01	  0.113587178	4.888400E+01	  0.113587178	-8.328000E+00
469	  0.113787577	-2.161300E+01	  0.113787577	-9.397500E+01	  0.113787577	4.875700E+01	  0.113787577	-8.134000E+00
470	  0.113987975	-2.139600E+01	  0.113987975	-9.427800E+01	  0.113987975	4.866600E+01	  0.113987975	-8.324000E+00
471	  0.114188381	-2.130500E+01	  0.114188381	-9.665100E+01	  0.114188381	4.830900E+01	  0.114188381	-8.318000E+00
472	  0.114388779	-2.170900E+01	  0.114388779	-9.649400E+01	  0.114388779	4.843500E+01	  0.114388779	-7.959000E+00
473	  0.114589177	-2.152400E+01	  0.114589177	-9.778000E+01	  0.114589177	4.821300E+01	  0.114589177	-8.072000E+00
474	  0.114789583	-2.176000E+01	  0.114789583	-9.874800E+01	  0.114789583	4.814900E+01	  0.114789583	-7.823000E+00
475	  0.114989981	-2.164800E+01	  0.114989981	-1.003740E+02	  0.114989981	4.790300E+01	  0.114989981	-7.848000E+00
476	  0.115190387	-2.159400E+01	  0.115190387	-1.014010E+02	  0.115190387	4.775100E+01	  0.115190387	-7.845000E+00
477	  0.115390785	-2.174100E+01	  0.115390785	-1.020500E+02	  0.115390785	4.771500E+01	  0.115390785	-7.689000E+00
478	  0.115591183	-2.165900E+01	  0.115591183	-1.023850E+02	  0.115591183	4.764500E+01	  0.115591183	-7.741000E+00
479	  0.115791589	-2.177100E+01	  0.115791589	-1.036110E+02	  0.115791589	4.752700E+01	  0.115791589	-7.584000E+00
480	  0.115991987	-2.180100E+01	  0.115991987	-1.042640E+02	  0.115991987	4.745500E+01	  0.115991987	-7.525000E+00
481	  0.116192386	-2.201000E+01	  0.116192386	-1.063480E+02	  0.116192386	4.727600E+01	  0.116192386	-7.244000E+00
482	  0.116392791	-2.191100E+01	  0.116392791	-1.066900E+02	  0.116392791	4.719800E+01	  0.116392791	-7.303000E+00
483	  0.116593190	-2.177700E+01	  0.116593190	-1.087020E+02	  0.116593190	4.690500E+01	  0.116593190	-7.289000E+00
484	  0.116793588	-2.199000E+01	  0.116793588	-1.097230E+02	  0.116793588	4.687100E+01	  0.116793588	-7.061000E+00
485	  0.116993994	-2.200800E+01	  0.116993994	-1.106750E+02	  0.116993994	4.676900E+01	  0.116993994	-6.988000E+00
486	  0.117194392	-2.214100E+01	  0.117194392	-1.116900E+02	  0.117194392	4.671100E+01	  0.117194392	-6.825000E+00
487	  0.117394790	-2.202600E+01	  0.117394790	-1.119990E+02	  0.117394790	4.662700E+01	  0.117394790	-6.890000E+00
488	  0.117595196	-2.206400E+01	  0.117595196	-1.131320E+02	  0.117595196	4.651800E+01	  0.117595196	-6.788000E+00
489	  0.117795594	-2.197100E+01	  0.117795594	-1.140590E+02	  0.117795594	4.637400E+01	  0.117795594	-6.792000E+00
490	  0.117995992	-2.210500E+01	  0.117995992	-1.152890E+02	  0.117995992	4.630200E+01	  0.117995992	-6.611000E+00
491	  0.118196398	-2.208500E+01	  0.118196398	-1.160660E+02	  0.118196398	4.621000E+01	  0.118196398	-6.570000E+00
492	  0.118396796	-2.233300E+01	  0.118396796	-1.181560E+02	  0.118396796	4.611100E+01	  0.118396796	-6.251000E+00
493	  0.118597202	-2.237900E+01	  0.118597202	-1.188050E+02	  0.118597202	4.606800E+01	  0.118597202	-6.174000E+00
494	  0.118797600	-2.229800E+01	  0.118797600	-1.192400E+02	  0.118797600	4.598600E+01	  0.118797600	-6.196000E+00
495	  0.118997999	-2.213300E+01	  0.118997999	-1.205960E+02	  0.118997999	4.576900E+01	  0.118997999	-6.201000E+00
496	  0.119198404	-2.237900E+01	  0.119198404	-1.218260E+02	  0.119198404	4.577500E+01	  0.119198404	-5.948000E+00
497	  0.119398803	-2.233200E+01	  0.119398803	-1.224430E+02	  0.119398803	4.569200E+01	  0.119398803	-5.930000E+00
498	  0.119599201	-2.248800E+01	  0.119599201	-1.232360E+02	  0.119599201	4.569900E+01	  0.119599201	-5.772000E+00
499	  0.119799607	-2.240700E+01	  0.119799607	-1.252640E+02	  0.119799607	4.547200E+01	  0.119799607	-5.660000E+00
500	  0.120000005	-2.256000E+01	  0.120000005	-1.261040E+02	  0.120000005	4.547800E+01	  0.120000005	-5.503000E+00
