! Anritsu VNA Master:             	Model: MS2036C/10/77
! SN:             	1601066
! /card0/usr/18may12.lna.rl/255a.lna.rl.txt
! Existing Calibration Information:
! TYPE:             	Current Settings	Active Cal Settings
! TIME:             	05/12/2018 06:05:52 PM	05/12/2018 05:58:24 PM
! INTERNAL TEMP:    	48.0 C	48.5 C
! # POINTS:         	500	500
! START FREQ:       	20.000 MHz	20.000 MHz
! STOP FREQ:        	120.000 MHz	120.000 MHz
! SOURCE POWER:     	Low	Low
! IFBW:             	10 Hz	10 Hz
! AVG FACTOR:       	  1 	  1 
! REF PLANE 1:      	0 mm	0 mm
! REF PLANE 2:      	0 mm	0 mm
! CAL TYPE:         	Full S22	Full S22
! CAL METHOD:       	SOLT	SOLT
! CAL LINE TYPE:    	Coax	Coax
! DUT PORT 1:       	K-Conn(M)	K-Conn(M)
! DUT PORT 2:       	K-Conn(M)	K-Conn(M)
! CAL STATUS:       	OK: Accuracy High	--
! PROP-V:       	0.700
! CABLE LOSS:       	0.000 dB/m
! REF IMPEDANCE:       	50.0
! Trace Specific Parameters:	TR1	TR2	TR3	TR4
! TRACE.#.Y (GRAPH TYPE)	LOG MAG	PHASE	REAL IMPEDANCE	IMAGINARY IMPEDANCE
! TRACE.#.X 	FREQ.GHZ	FREQ.GHZ	FREQ.GHZ	FREQ.GHZ
! S-PARAMETER	S22	S22	S22	S22
! SMOOTH/APERTURE %	0	0	0	0
! WINDOW	NSL	NSL	NSL	NSL
! GATING	OFF	OFF	OFF	OFF
! FGTD	OFF	OFF	OFF	OFF
Marker Information per Trace:	TR1	TR2	TR3	TR4
!MK1	--	"MK1 TR2:  12.184 368 MHz,##.##"	--	--
!MK2	--	--	"MK2 TR3:  12.184 368 MHz,##.##"	--
!MK3	--	--	--	--
!MK4	--	--	--	--
!MK5	--	--	--	--
!MK6	--	--	--	--
!MK7	--	--	--	--
!MK8	--	--	--	--
PNT	TR1.FREQ.GHZ	TR1.LOG MAG.dB	TR2.FREQ.GHZ	TR2.PHASE.deg	TR3.FREQ.GHZ	TR3.REAL IMPEDANCE.ohm	TR4.FREQ.GHZ	TR4.IMAGINARY IMPEDANCE.ohm
1	  0.020000000	-2.031300E+01	  0.020000000	2.592900E+01	  0.020000000	5.926500E+01	  0.020000000	5.046000E+00
2	  0.020200402	-2.036600E+01	  0.020200402	2.335500E+01	  0.020200402	5.946000E+01	  0.020200402	4.561000E+00
3	  0.020400802	-2.025600E+01	  0.020400802	2.127200E+01	  0.020400802	5.978200E+01	  0.020400802	4.251000E+00
4	  0.020601204	-2.029100E+01	  0.020601204	1.817400E+01	  0.020601204	5.999500E+01	  0.020601204	3.653000E+00
5	  0.020801604	-2.018100E+01	  0.020801604	1.588200E+01	  0.020801604	6.030100E+01	  0.020801604	3.263000E+00
6	  0.021002004	-2.019700E+01	  0.021002004	1.346900E+01	  0.021002004	6.043500E+01	  0.021002004	2.778000E+00
7	  0.021202406	-2.014700E+01	  0.021202406	1.100200E+01	  0.021202406	6.063400E+01	  0.021202406	2.297000E+00
8	  0.021402806	-2.009400E+01	  0.021402806	9.076000E+00	  0.021402806	6.079200E+01	  0.021402806	1.916000E+00
9	  0.021603208	-2.004600E+01	  0.021603208	6.469000E+00	  0.021603208	6.095000E+01	  0.021603208	1.379000E+00
10	  0.021803608	-1.989300E+01	  0.021803608	3.190000E+00	  0.021803608	6.124000E+01	  0.021803608	6.970000E-01
11	  0.022004008	-1.991200E+01	  0.022004008	3.170000E-01	  0.022004008	6.123500E+01	  0.022004008	6.900000E-02
12	  0.022204408	-1.981100E+01	  0.022204408	-2.598000E+00	  0.022204408	6.136600E+01	  0.022204408	-5.740000E-01
13	  0.022404809	-1.979600E+01	  0.022404809	-4.953000E+00	  0.022404809	6.134500E+01	  0.022404809	-1.095000E+00
14	  0.022605211	-1.976800E+01	  0.022605211	-7.706000E+00	  0.022605211	6.130400E+01	  0.022605211	-1.706000E+00
15	  0.022805611	-1.975200E+01	  0.022805611	-1.082800E+01	  0.022805611	6.119100E+01	  0.022805611	-2.391000E+00
16	  0.023006011	-1.963100E+01	  0.023006011	-1.314000E+01	  0.023006011	6.123100E+01	  0.023006011	-2.936000E+00
17	  0.023206413	-1.963400E+01	  0.023206413	-1.681000E+01	  0.023206413	6.096600E+01	  0.023206413	-3.718000E+00
18	  0.023406813	-1.962000E+01	  0.023406813	-2.038500E+01	  0.023406813	6.067500E+01	  0.023406813	-4.464000E+00
19	  0.023607215	-1.945600E+01	  0.023607215	-2.290400E+01	  0.023607215	6.063800E+01	  0.023607215	-5.082000E+00
20	  0.023807615	-1.951900E+01	  0.023807615	-2.649000E+01	  0.023807615	6.014800E+01	  0.023807615	-5.734000E+00
21	  0.024008015	-1.952900E+01	  0.024008015	-3.009900E+01	  0.024008015	5.967800E+01	  0.024008015	-6.389000E+00
22	  0.024208417	-1.945000E+01	  0.024208417	-3.332500E+01	  0.024208417	5.931900E+01	  0.024208417	-7.023000E+00
23	  0.024408817	-1.946800E+01	  0.024408817	-3.704300E+01	  0.024408817	5.873900E+01	  0.024408817	-7.609000E+00
24	  0.024609219	-1.942400E+01	  0.024609219	-4.150300E+01	  0.024609219	5.805800E+01	  0.024609219	-8.316000E+00
25	  0.024809619	-1.928900E+01	  0.024809619	-4.515200E+01	  0.024809619	5.754100E+01	  0.024809619	-8.960000E+00
26	  0.025010020	-1.936400E+01	  0.025010020	-4.944300E+01	  0.025010020	5.669700E+01	  0.025010020	-9.378000E+00
27	  0.025210422	-1.946900E+01	  0.025210422	-5.394100E+01	  0.025210422	5.578500E+01	  0.025210422	-9.697000E+00
28	  0.025410822	-1.939000E+01	  0.025410822	-5.847200E+01	  0.025410822	5.495700E+01	  0.025410822	-1.016600E+01
29	  0.025611224	-1.952400E+01	  0.025611224	-6.341200E+01	  0.025611224	5.394000E+01	  0.025611224	-1.030400E+01
30	  0.025811624	-1.939100E+01	  0.025811624	-6.820700E+01	  0.025811624	5.303800E+01	  0.025811624	-1.068700E+01
31	  0.026012026	-1.951100E+01	  0.026012026	-7.372500E+01	  0.026012026	5.193800E+01	  0.026012026	-1.066800E+01
32	  0.026212426	-1.965400E+01	  0.026212426	-7.876500E+01	  0.026212426	5.097300E+01	  0.026212426	-1.051800E+01
33	  0.026412826	-1.967900E+01	  0.026412826	-8.517700E+01	  0.026412826	4.979400E+01	  0.026412826	-1.040800E+01
34	  0.026613226	-1.987400E+01	  0.026613226	-9.149200E+01	  0.026613226	4.872600E+01	  0.026613226	-9.986000E+00
35	  0.026813626	-2.012100E+01	  0.026813626	-9.762100E+01	  0.026813626	4.779800E+01	  0.026813626	-9.435000E+00
36	  0.027014028	-2.033300E+01	  0.027014028	-1.045090E+02	  0.027014028	4.684400E+01	  0.027014028	-8.809000E+00
37	  0.027214428	-2.068600E+01	  0.027214428	-1.114140E+02	  0.027214428	4.607100E+01	  0.027214428	-7.994000E+00
38	  0.027414829	-2.114900E+01	  0.027414829	-1.186680E+02	  0.027414829	4.544700E+01	  0.027414829	-7.040000E+00
39	  0.027615231	-2.166300E+01	  0.027615231	-1.263570E+02	  0.027615231	4.495200E+01	  0.027615231	-6.019000E+00
40	  0.027815631	-2.223500E+01	  0.027815631	-1.344260E+02	  0.027815631	4.460600E+01	  0.027815631	-4.954000E+00
41	  0.028016033	-2.286400E+01	  0.028016033	-1.414890E+02	  0.028016033	4.450300E+01	  0.028016033	-4.005000E+00
42	  0.028216433	-2.362500E+01	  0.028216433	-1.499350E+02	  0.028216433	4.451400E+01	  0.028216433	-2.950000E+00
43	  0.028416833	-2.451300E+01	  0.028416833	-1.566430E+02	  0.028416833	4.477500E+01	  0.028416833	-2.118000E+00
44	  0.028617235	-2.552300E+01	  0.028617235	-1.647850E+02	  0.028617235	4.512200E+01	  0.028617235	-1.257000E+00
45	  0.028817635	-2.652800E+01	  0.028817635	-1.713980E+02	  0.028817635	4.554000E+01	  0.028817635	-6.430000E-01
46	  0.029018037	-2.775400E+01	  0.029018037	-1.795190E+02	  0.029018037	4.606600E+01	  0.029018037	-3.100000E-02
47	  0.029218437	-2.866500E+01	  0.029218437	1.733150E+02	  0.029218437	4.646500E+01	  0.029218437	3.990000E-01
48	  0.029418837	-3.002200E+01	  0.029418837	1.675180E+02	  0.029418837	4.700800E+01	  0.029418837	6.410000E-01
49	  0.029619239	-3.116100E+01	  0.029619239	1.616810E+02	  0.029619239	4.743400E+01	  0.029619239	8.250000E-01
50	  0.029819639	-3.243200E+01	  0.029819639	1.561920E+02	  0.029819639	4.785100E+01	  0.029819639	9.230000E-01
51	  0.030020041	-3.413700E+01	  0.030020041	1.461370E+02	  0.030020041	4.838300E+01	  0.030020041	1.059000E+00
52	  0.030220442	-3.574000E+01	  0.030220442	1.389100E+02	  0.030220442	4.877300E+01	  0.030220442	1.047000E+00
53	  0.030420844	-3.799400E+01	  0.030420844	1.347000E+02	  0.030420844	4.911300E+01	  0.030420844	8.790000E-01
54	  0.030621244	-3.938900E+01	  0.030621244	1.281570E+02	  0.030621244	4.933400E+01	  0.030621244	8.320000E-01
55	  0.030821644	-4.115300E+01	  0.030821644	1.186710E+02	  0.030821644	4.957500E+01	  0.030821644	7.610000E-01
56	  0.031022044	-4.272000E+01	  0.031022044	1.110910E+02	  0.031022044	4.973200E+01	  0.031022044	6.780000E-01
57	  0.031222444	-4.316600E+01	  0.031222444	1.112390E+02	  0.031222444	4.974400E+01	  0.031222444	6.440000E-01
58	  0.031422846	-4.718300E+01	  0.031422846	1.146950E+02	  0.031422846	4.981600E+01	  0.031422846	3.950000E-01
59	  0.031623244	-4.747800E+01	  0.031623244	8.910100E+01	  0.031623244	5.000400E+01	  0.031623244	4.220000E-01
60	  0.031823646	-5.010000E+01	  0.031823646	4.095200E+01	  0.031823646	5.023600E+01	  0.031823646	2.050000E-01
61	  0.032024048	-5.075000E+01	  0.032024048	5.949800E+01	  0.032024048	5.014600E+01	  0.032024048	2.500000E-01
62	  0.032224450	-5.109500E+01	  0.032224450	1.535500E+01	  0.032224450	5.026900E+01	  0.032224450	7.400000E-02
63	  0.032424849	-5.517900E+01	  0.032424849	3.832600E+01	  0.032424849	5.013600E+01	  0.032424849	1.080000E-01
64	  0.032625251	-5.176000E+01	  0.032625251	2.513900E+01	  0.032625251	5.023400E+01	  0.032625251	1.100000E-01
65	  0.032825653	-5.171600E+01	  0.032825653	3.930000E+00	  0.032825653	5.025900E+01	  0.032825653	1.700000E-02
66	  0.033026051	-5.834300E+01	  0.033026051	3.084600E+01	  0.033026051	5.010300E+01	  0.033026051	6.200000E-02
67	  0.033226453	-5.115900E+01	  0.033226453	-7.579000E+00	  0.033226453	5.027500E+01	  0.033226453	-3.600000E-02
68	  0.033426855	-5.366000E+01	  0.033426855	-4.100000E-02	  0.033426855	5.020700E+01	  0.033426855	0.000000E+00
69	  0.033627257	-5.507700E+01	  0.033627257	-1.278400E+01	  0.033627257	5.017200E+01	  0.033627257	-3.900000E-02
70	  0.033827655	-6.616900E+01	  0.033827655	-6.192800E+01	  0.033827655	5.002300E+01	  0.033827655	-4.300000E-02
71	  0.034028057	-5.333200E+01	  0.034028057	3.539200E+01	  0.034028057	5.017500E+01	  0.034028057	1.250000E-01
72	  0.034228459	-6.122600E+01	  0.034228459	5.736500E+01	  0.034228459	5.004600E+01	  0.034228459	7.300000E-02
73	  0.034428857	-6.171200E+01	  0.034428857	-1.776200E+01	  0.034428857	5.007800E+01	  0.034428857	-2.500000E-02
74	  0.034629259	-5.658700E+01	  0.034629259	1.138900E+01	  0.034629259	5.014500E+01	  0.034629259	2.900000E-02
75	  0.034829661	-5.587500E+01	  0.034829661	3.018900E+01	  0.034829661	5.013900E+01	  0.034829661	8.100000E-02
76	  0.035030060	-5.735700E+01	  0.035030060	1.250600E+02	  0.035030060	4.992200E+01	  0.035030060	1.100000E-01
77	  0.035230462	-7.650100E+01	  0.035230462	-8.320600E+01	  0.035230462	5.000100E+01	  0.035230462	-1.400000E-02
78	  0.035430863	-5.422600E+01	  0.035430863	4.379700E+01	  0.035430863	5.014000E+01	  0.035430863	1.340000E-01
79	  0.035631265	-5.308700E+01	  0.035631265	7.038400E+01	  0.035631265	5.007400E+01	  0.035631265	2.090000E-01
80	  0.035831664	-5.647800E+01	  0.035831664	6.295600E+01	  0.035831664	5.006800E+01	  0.035831664	1.330000E-01
81	  0.036032066	-5.249800E+01	  0.036032066	6.302500E+01	  0.036032066	5.010700E+01	  0.036032066	2.110000E-01
82	  0.036232468	-4.881800E+01	  0.036232468	6.830500E+01	  0.036232468	5.013200E+01	  0.036232468	3.370000E-01
83	  0.036432866	-4.877300E+01	  0.036432866	5.491600E+01	  0.036432866	5.020800E+01	  0.036432866	2.990000E-01
84	  0.036633268	-5.174600E+01	  0.036633268	5.807700E+01	  0.036633268	5.013600E+01	  0.036633268	2.200000E-01
85	  0.036833670	-4.990900E+01	  0.036833670	4.625600E+01	  0.036833670	5.022000E+01	  0.036833670	2.310000E-01
86	  0.037034072	-4.618900E+01	  0.037034072	5.705700E+01	  0.037034072	5.026500E+01	  0.037034072	4.130000E-01
87	  0.037234470	-4.905700E+01	  0.037234470	8.096300E+01	  0.037234470	5.005400E+01	  0.037234470	3.480000E-01
88	  0.037434869	-4.687600E+01	  0.037434869	7.425100E+01	  0.037434869	5.012100E+01	  0.037434869	4.370000E-01
89	  0.037635271	-4.631400E+01	  0.037635271	5.052400E+01	  0.037635271	5.030600E+01	  0.037635271	3.750000E-01
90	  0.037835669	-4.702400E+01	  0.037835669	5.122500E+01	  0.037835669	5.027800E+01	  0.037835669	3.490000E-01
91	  0.038036071	-4.751300E+01	  0.038036071	5.317700E+01	  0.038036071	5.025100E+01	  0.038036071	3.380000E-01
92	  0.038236473	-4.824600E+01	  0.038236473	6.380100E+01	  0.038236473	5.016900E+01	  0.038236473	3.480000E-01
93	  0.038436871	-4.780300E+01	  0.038436871	5.305600E+01	  0.038436871	5.024400E+01	  0.038436871	3.270000E-01
94	  0.038637273	-4.630300E+01	  0.038637273	4.317300E+01	  0.038637273	5.035300E+01	  0.038637273	3.330000E-01
95	  0.038837675	-4.519500E+01	  0.038837675	6.002300E+01	  0.038837675	5.027300E+01	  0.038837675	4.780000E-01
96	  0.039038073	-4.616700E+01	  0.039038073	4.981900E+01	  0.039038073	5.031600E+01	  0.039038073	3.770000E-01
97	  0.039238475	-4.703900E+01	  0.039238475	4.943600E+01	  0.039238475	5.028800E+01	  0.039238475	3.390000E-01
98	  0.039438877	-4.550700E+01	  0.039438877	4.834900E+01	  0.039438877	5.035200E+01	  0.039438877	3.990000E-01
99	  0.039639279	-4.532300E+01	  0.039639279	5.367400E+01	  0.039639279	5.032000E+01	  0.039639279	4.390000E-01
100	  0.039839678	-4.616100E+01	  0.039839678	5.110800E+01	  0.039839678	5.030800E+01	  0.039839678	3.850000E-01
101	  0.040040080	-4.530600E+01	  0.040040080	4.578100E+01	  0.040040080	5.037800E+01	  0.040040080	3.910000E-01
102	  0.040240481	-4.618900E+01	  0.040240481	5.533100E+01	  0.040240481	5.027800E+01	  0.040240481	4.050000E-01
103	  0.040440880	-4.634400E+01	  0.040440880	5.060900E+01	  0.040440880	5.030500E+01	  0.040440880	3.740000E-01
104	  0.040641282	-4.741700E+01	  0.040641282	5.189300E+01	  0.040641282	5.026200E+01	  0.040641282	3.360000E-01
105	  0.040841684	-4.614000E+01	  0.040841684	3.566700E+01	  0.040841684	5.040100E+01	  0.040841684	2.890000E-01
106	  0.041042086	-4.665700E+01	  0.041042086	5.733300E+01	  0.041042086	5.024900E+01	  0.041042086	3.930000E-01
107	  0.041242484	-4.718700E+01	  0.041242484	6.094400E+01	  0.041242484	5.021100E+01	  0.041242484	3.830000E-01
108	  0.041442886	-4.607300E+01	  0.041442886	4.503300E+01	  0.041442886	5.035100E+01	  0.041442886	3.540000E-01
109	  0.041643288	-4.765100E+01	  0.041643288	4.558900E+01	  0.041643288	5.028900E+01	  0.041643288	2.970000E-01
110	  0.041843686	-4.639500E+01	  0.041843686	3.654600E+01	  0.041843686	5.038500E+01	  0.041843686	2.870000E-01
111	  0.042044088	-4.563200E+01	  0.042044088	5.186700E+01	  0.042044088	5.032200E+01	  0.042044088	4.130000E-01
112	  0.042244490	-4.549300E+01	  0.042244490	5.743700E+01	  0.042244490	5.028400E+01	  0.042244490	4.500000E-01
113	  0.042444889	-4.653100E+01	  0.042444889	5.193700E+01	  0.042444889	5.029000E+01	  0.042444889	3.730000E-01
114	  0.042645290	-4.638100E+01	  0.042645290	6.255900E+01	  0.042645290	5.021900E+01	  0.042645290	4.270000E-01
115	  0.042845692	-4.597800E+01	  0.042845692	5.034900E+01	  0.042845692	5.032000E+01	  0.042845692	3.890000E-01
116	  0.043046094	-4.731700E+01	  0.043046094	3.888200E+01	  0.043046094	5.033500E+01	  0.043046094	2.720000E-01
117	  0.043246493	-4.875500E+01	  0.043246493	6.345300E+01	  0.043246493	5.016200E+01	  0.043246493	3.270000E-01
118	  0.043446895	-4.628200E+01	  0.043446895	6.573000E+01	  0.043446895	5.019700E+01	  0.043446895	4.440000E-01
119	  0.043647297	-4.604900E+01	  0.043647297	6.437900E+01	  0.043647297	5.021300E+01	  0.043647297	4.510000E-01
120	  0.043847695	-4.579600E+01	  0.043847695	6.198700E+01	  0.043847695	5.023900E+01	  0.043847695	4.550000E-01
121	  0.044048097	-4.912900E+01	  0.044048097	6.157900E+01	  0.044048097	5.016500E+01	  0.044048097	3.080000E-01
122	  0.044248499	-4.580600E+01	  0.044248499	7.453700E+01	  0.044248499	5.013400E+01	  0.044248499	4.950000E-01
123	  0.044448901	-4.443400E+01	  0.044448901	7.307700E+01	  0.044448901	5.017100E+01	  0.044448901	5.760000E-01
124	  0.044649299	-4.356800E+01	  0.044649299	6.929000E+01	  0.044649299	5.023100E+01	  0.044649299	6.230000E-01
125	  0.044849701	-4.719200E+01	  0.044849701	7.085300E+01	  0.044849701	5.014100E+01	  0.044849701	4.130000E-01
126	  0.045050103	-4.381700E+01	  0.045050103	8.712900E+01	  0.045050103	5.002800E+01	  0.045050103	6.430000E-01
127	  0.045250501	-4.231900E+01	  0.045250501	7.777800E+01	  0.045250501	5.015600E+01	  0.045250501	7.500000E-01
128	  0.045450903	-4.383400E+01	  0.045450903	8.397900E+01	  0.045450903	5.006300E+01	  0.045450903	6.400000E-01
129	  0.045651305	-4.321800E+01	  0.045651305	8.117800E+01	  0.045651305	5.010100E+01	  0.045651305	6.830000E-01
130	  0.045851704	-4.307400E+01	  0.045851704	8.212300E+01	  0.045851704	5.009100E+01	  0.045851704	6.960000E-01
131	  0.046052106	-4.460700E+01	  0.046052106	8.802200E+01	  0.046052106	5.001600E+01	  0.046052106	5.880000E-01
132	  0.046252504	-4.315200E+01	  0.046252504	8.599100E+01	  0.046252504	5.004300E+01	  0.046252504	6.940000E-01
133	  0.046452906	-4.234700E+01	  0.046452906	8.395300E+01	  0.046452906	5.007400E+01	  0.046452906	7.600000E-01
134	  0.046653304	-4.156900E+01	  0.046653304	8.402800E+01	  0.046653304	5.007900E+01	  0.046653304	8.310000E-01
135	  0.046853706	-4.124400E+01	  0.046853706	8.312900E+01	  0.046853706	5.009600E+01	  0.046853706	8.620000E-01
136	  0.047054108	-4.045400E+01	  0.047054108	8.481500E+01	  0.047054108	5.007600E+01	  0.047054108	9.460000E-01
137	  0.047254506	-4.052900E+01	  0.047254506	8.632200E+01	  0.047254506	5.005100E+01	  0.047254506	9.390000E-01
138	  0.047454908	-4.089500E+01	  0.047454908	8.692000E+01	  0.047454908	5.004000E+01	  0.047454908	9.010000E-01
139	  0.047655310	-3.953100E+01	  0.047655310	8.049700E+01	  0.047655310	5.016300E+01	  0.047655310	1.044000E+00
140	  0.047855709	-3.882000E+01	  0.047855709	8.527500E+01	  0.047855709	5.008100E+01	  0.047855709	1.143000E+00
141	  0.048056111	-3.967500E+01	  0.048056111	8.585000E+01	  0.048056111	5.006400E+01	  0.048056111	1.036000E+00
142	  0.048256513	-3.890400E+01	  0.048256513	8.249900E+01	  0.048256513	5.013500E+01	  0.048256513	1.127000E+00
143	  0.048456915	-3.937200E+01	  0.048456915	9.247800E+01	  0.048456915	4.994200E+01	  0.048456915	1.072000E+00
144	  0.048657313	-3.864800E+01	  0.048657313	9.104700E+01	  0.048657313	4.996500E+01	  0.048657313	1.167000E+00
145	  0.048857715	-3.874000E+01	  0.048857715	8.996900E+01	  0.048857715	4.998700E+01	  0.048857715	1.155000E+00
146	  0.049058117	-3.756800E+01	  0.049058117	8.239700E+01	  0.049058117	5.015800E+01	  0.049058117	1.315000E+00
147	  0.049258515	-3.771600E+01	  0.049258515	7.963400E+01	  0.049258515	5.021800E+01	  0.049258515	1.285000E+00
148	  0.049458917	-3.713600E+01	  0.049458917	7.810700E+01	  0.049458917	5.026800E+01	  0.049458917	1.368000E+00
149	  0.049659319	-3.715900E+01	  0.049659319	8.252600E+01	  0.049659319	5.016100E+01	  0.049659319	1.379000E+00
150	  0.049859721	-3.674800E+01	  0.049859721	8.282400E+01	  0.049859721	5.016100E+01	  0.049859721	1.447000E+00
151	  0.050060119	-3.710400E+01	  0.050060119	7.888400E+01	  0.050060119	5.025000E+01	  0.050060119	1.376000E+00
152	  0.050260521	-3.684300E+01	  0.050260521	8.130600E+01	  0.050260521	5.019700E+01	  0.050260521	1.427000E+00
153	  0.050460923	-3.664400E+01	  0.050460923	8.230600E+01	  0.050460923	5.017500E+01	  0.050460923	1.463000E+00
154	  0.050661322	-3.619900E+01	  0.050661322	7.391800E+01	  0.050661322	5.040800E+01	  0.050661322	1.500000E+00
155	  0.050861724	-3.632600E+01	  0.050861724	7.881900E+01	  0.050861724	5.027400E+01	  0.050861724	1.506000E+00
156	  0.051062126	-3.613500E+01	  0.051062126	7.713200E+01	  0.051062126	5.032500E+01	  0.051062126	1.531000E+00
157	  0.051262524	-3.556300E+01	  0.051262524	7.646900E+01	  0.051262524	5.036400E+01	  0.051262524	1.632000E+00
158	  0.051462926	-3.583200E+01	  0.051462926	7.224800E+01	  0.051462926	5.047100E+01	  0.051462926	1.553000E+00
159	  0.051663328	-3.555500E+01	  0.051663328	7.529900E+01	  0.051663328	5.039800E+01	  0.051663328	1.626000E+00
160	  0.051863730	-3.554800E+01	  0.051863730	6.999200E+01	  0.051863730	5.054900E+01	  0.051863730	1.586000E+00
161	  0.052064128	-3.489400E+01	  0.052064128	7.235900E+01	  0.052064128	5.051800E+01	  0.052064128	1.733000E+00
162	  0.052264530	-3.530300E+01	  0.052264530	6.665900E+01	  0.052264530	5.065900E+01	  0.052264530	1.597000E+00
163	  0.052464932	-3.498900E+01	  0.052464932	6.953600E+01	  0.052464932	5.059800E+01	  0.052464932	1.688000E+00
164	  0.052665330	-3.483800E+01	  0.052665330	6.829000E+01	  0.052665330	5.064500E+01	  0.052665330	1.705000E+00
165	  0.052865732	-3.465800E+01	  0.052865732	6.584000E+01	  0.052865732	5.073300E+01	  0.052865732	1.712000E+00
166	  0.053066134	-3.476300E+01	  0.053066134	6.707300E+01	  0.053066134	5.068700E+01	  0.053066134	1.706000E+00
167	  0.053266536	-3.454500E+01	  0.053266536	6.648300E+01	  0.053266536	5.072300E+01	  0.053266536	1.743000E+00
168	  0.053466935	-3.473400E+01	  0.053466935	6.586700E+01	  0.053466935	5.072600E+01	  0.053466935	1.698000E+00
169	  0.053667337	-3.407400E+01	  0.053667337	6.354100E+01	  0.053667337	5.085700E+01	  0.053667337	1.802000E+00
170	  0.053867739	-3.424400E+01	  0.053867739	5.930000E+01	  0.053867739	5.097100E+01	  0.053867739	1.700000E+00
171	  0.054068137	-3.419300E+01	  0.054068137	5.793900E+01	  0.054068137	5.101800E+01	  0.054068137	1.687000E+00
172	  0.054268539	-3.445700E+01	  0.054268539	5.679900E+01	  0.054268539	5.102100E+01	  0.054268539	1.616000E+00
173	  0.054468941	-3.429000E+01	  0.054468941	5.599800E+01	  0.054468941	5.106400E+01	  0.054468941	1.634000E+00
174	  0.054669339	-3.401900E+01	  0.054669339	5.961300E+01	  0.054669339	5.098600E+01	  0.054669339	1.751000E+00
175	  0.054869737	-3.374400E+01	  0.054869737	5.655600E+01	  0.054869737	5.111500E+01	  0.054869737	1.753000E+00
176	  0.055070139	-3.405700E+01	  0.055070139	5.607300E+01	  0.055070139	5.109000E+01	  0.055070139	1.681000E+00
177	  0.055270538	-3.403500E+01	  0.055270538	5.622200E+01	  0.055270538	5.108800E+01	  0.055270538	1.688000E+00
178	  0.055470940	-3.396800E+01	  0.055470940	5.348000E+01	  0.055470940	5.117900E+01	  0.055470940	1.647000E+00
179	  0.055671342	-3.387900E+01	  0.055671342	5.014700E+01	  0.055671342	5.128800E+01	  0.055671342	1.593000E+00
180	  0.055871744	-3.376700E+01	  0.055871744	5.115500E+01	  0.055871744	5.127500E+01	  0.055871744	1.637000E+00
181	  0.056072142	-3.328500E+01	  0.056072142	5.003900E+01	  0.056072142	5.138200E+01	  0.056072142	1.707000E+00
182	  0.056272544	-3.355700E+01	  0.056272544	4.929200E+01	  0.056272544	5.136100E+01	  0.056272544	1.635000E+00
183	  0.056472946	-3.408700E+01	  0.056472946	4.828000E+01	  0.056472946	5.130900E+01	  0.056472946	1.513000E+00
184	  0.056673344	-3.387700E+01	  0.056673344	4.882400E+01	  0.056673344	5.132600E+01	  0.056673344	1.564000E+00
185	  0.056873746	-3.361700E+01	  0.056873746	4.432500E+01	  0.056873746	5.149100E+01	  0.056873746	1.500000E+00
186	  0.057074148	-3.409000E+01	  0.057074148	4.370900E+01	  0.057074148	5.142800E+01	  0.057074148	1.404000E+00
187	  0.057274550	-3.364600E+01	  0.057274550	4.350100E+01	  0.057274550	5.150900E+01	  0.057274550	1.474000E+00
188	  0.057474948	-3.321100E+01	  0.057474948	3.971800E+01	  0.057474948	5.168800E+01	  0.057474948	1.444000E+00
189	  0.057675350	-3.390300E+01	  0.057675350	4.209200E+01	  0.057675350	5.150000E+01	  0.057675350	1.393000E+00
190	  0.057875752	-3.373500E+01	  0.057875752	3.898100E+01	  0.057875752	5.160700E+01	  0.057875752	1.336000E+00
191	  0.058076151	-3.371000E+01	  0.058076151	3.927000E+01	  0.058076151	5.160500E+01	  0.058076151	1.348000E+00
192	  0.058276553	-3.326900E+01	  0.058276553	3.775000E+01	  0.058276553	5.172700E+01	  0.058276553	1.375000E+00
193	  0.058476955	-3.377400E+01	  0.058476955	3.841900E+01	  0.058476955	5.161300E+01	  0.058476955	1.314000E+00
194	  0.058677353	-3.361800E+01	  0.058677353	3.619300E+01	  0.058677353	5.169500E+01	  0.058677353	1.273000E+00
195	  0.058877755	-3.412200E+01	  0.058877755	3.522600E+01	  0.058877755	5.161900E+01	  0.058877755	1.172000E+00
196	  0.059078157	-3.367100E+01	  0.059078157	3.472500E+01	  0.059078157	5.171700E+01	  0.059078157	1.221000E+00
197	  0.059278559	-3.393300E+01	  0.059278559	3.444300E+01	  0.059278559	5.167200E+01	  0.059278559	1.175000E+00
198	  0.059478957	-3.398300E+01	  0.059478957	3.137100E+01	  0.059478957	5.172500E+01	  0.059478957	1.077000E+00
199	  0.059679359	-3.443100E+01	  0.059679359	3.181800E+01	  0.059679359	5.162900E+01	  0.059679359	1.033000E+00
200	  0.059879761	-3.409200E+01	  0.059879761	2.901700E+01	  0.059879761	5.174600E+01	  0.059879761	9.910000E-01
201	  0.060080159	-3.453900E+01	  0.060080159	2.839400E+01	  0.060080159	5.166800E+01	  0.060080159	9.210000E-01
202	  0.060280561	-3.398700E+01	  0.060280561	2.879800E+01	  0.060280561	5.177200E+01	  0.060280561	9.970000E-01
203	  0.060480963	-3.472600E+01	  0.060480963	2.196400E+01	  0.060480963	5.172600E+01	  0.060480963	7.100000E-01
204	  0.060681365	-3.446100E+01	  0.060681365	2.761800E+01	  0.060681365	5.169600E+01	  0.060681365	9.070000E-01
205	  0.060881764	-3.476900E+01	  0.060881764	2.481900E+01	  0.060881764	5.167900E+01	  0.060881764	7.920000E-01
206	  0.061082166	-3.483000E+01	  0.061082166	2.394700E+01	  0.061082166	5.167900E+01	  0.061082166	7.610000E-01
207	  0.061282568	-3.509400E+01	  0.061282568	2.065000E+01	  0.061282568	5.166900E+01	  0.061282568	6.410000E-01
208	  0.061482966	-3.569400E+01	  0.061482966	2.495200E+01	  0.061482966	5.150500E+01	  0.061482966	7.130000E-01
209	  0.061683368	-3.598200E+01	  0.061683368	2.091000E+01	  0.061683368	5.150200E+01	  0.061683368	5.830000E-01
210	  0.061883770	-3.572600E+01	  0.061883770	2.008700E+01	  0.061883770	5.155600E+01	  0.061883770	5.790000E-01
211	  0.062084168	-3.602100E+01	  0.062084168	2.154900E+01	  0.062084168	5.148800E+01	  0.062084168	5.980000E-01
212	  0.062284570	-3.602400E+01	  0.062284570	1.680300E+01	  0.062284570	5.153300E+01	  0.062284570	4.710000E-01
213	  0.062484972	-3.620200E+01	  0.062484972	2.011500E+01	  0.062484972	5.147200E+01	  0.062484972	5.480000E-01
214	  0.062685370	-3.646900E+01	  0.062685370	1.759200E+01	  0.062685370	5.144900E+01	  0.062685370	4.670000E-01
215	  0.062885776	-3.630400E+01	  0.062885776	1.924100E+01	  0.062885776	5.146300E+01	  0.062885776	5.190000E-01
216	  0.063086174	-3.701700E+01	  0.063086174	1.425600E+01	  0.063086174	5.138400E+01	  0.063086174	3.560000E-01
217	  0.063286573	-3.803500E+01	  0.063286573	1.421100E+01	  0.063286573	5.122900E+01	  0.063286573	3.150000E-01
218	  0.063486971	-3.711900E+01	  0.063486971	1.536300E+01	  0.063486971	5.136000E+01	  0.063486971	3.790000E-01
219	  0.063687377	-3.792300E+01	  0.063687377	1.607100E+01	  0.063687377	5.123400E+01	  0.063687377	3.600000E-01
220	  0.063887775	-3.895300E+01	  0.063887775	1.034800E+01	  0.063887775	5.112100E+01	  0.063887775	2.070000E-01
221	  0.064088173	-3.801100E+01	  0.064088173	8.749000E+00	  0.064088173	5.125700E+01	  0.064088173	1.960000E-01
222	  0.064288579	-3.879100E+01	  0.064288579	8.091000E+00	  0.064288579	5.115000E+01	  0.064288579	1.650000E-01
223	  0.064488977	-3.838400E+01	  0.064488977	1.028900E+01	  0.064488977	5.119800E+01	  0.064488977	2.200000E-01
224	  0.064689375	-3.913600E+01	  0.064689375	9.678000E+00	  0.064689375	5.110000E+01	  0.064689375	1.890000E-01
225	  0.064889781	-4.073600E+01	  0.064889781	7.842000E+00	  0.064889781	5.091800E+01	  0.064889781	1.270000E-01
226	  0.065090179	-4.025800E+01	  0.065090179	6.901000E+00	  0.065090179	5.097200E+01	  0.065090179	1.180000E-01
227	  0.065290578	-4.005500E+01	  0.065290578	1.532300E+01	  0.065290578	5.096600E+01	  0.065290578	2.670000E-01
228	  0.065490983	-4.016900E+01	  0.065490983	2.298400E+01	  0.065490983	5.090900E+01	  0.065490983	3.890000E-01
229	  0.065691382	-4.263200E+01	  0.065691382	8.153000E+00	  0.065691382	5.073600E+01	  0.065691382	1.060000E-01
230	  0.065891780	-4.152900E+01	  0.065891780	1.147200E+01	  0.065891780	5.082800E+01	  0.065891780	1.690000E-01
231	  0.066092186	-4.247900E+01	  0.066092186	1.101600E+01	  0.066092186	5.074300E+01	  0.066092186	1.450000E-01
232	  0.066292584	-4.434500E+01	  0.066292584	3.204100E+01	  0.066292584	5.051500E+01	  0.066292584	3.250000E-01
233	  0.066492982	-4.435400E+01	  0.066492982	1.695700E+01	  0.066492982	5.058200E+01	  0.066492982	1.780000E-01
234	  0.066693388	-4.294400E+01	  0.066693388	2.635300E+01	  0.066693388	5.064100E+01	  0.066693388	3.200000E-01
235	  0.066893786	-4.539300E+01	  0.066893786	2.938700E+01	  0.066893786	5.046900E+01	  0.066893786	2.660000E-01
236	  0.067094192	-4.416600E+01	  0.067094192	3.023400E+01	  0.067094192	5.053600E+01	  0.067094192	3.150000E-01
237	  0.067294590	-4.979100E+01	  0.067294590	3.339600E+01	  0.067294590	5.027000E+01	  0.067294590	1.790000E-01
238	  0.067494988	-4.321700E+01	  0.067494988	5.084700E+01	  0.067494988	5.043400E+01	  0.067494988	5.400000E-01
239	  0.067695394	-4.519800E+01	  0.067695394	4.874500E+01	  0.067695394	5.036200E+01	  0.067695394	4.160000E-01
240	  0.067895792	-4.602400E+01	  0.067895792	5.128100E+01	  0.067895792	5.031200E+01	  0.067895792	3.920000E-01
241	  0.068096191	-4.598900E+01	  0.068096191	5.607100E+01	  0.068096191	5.027900E+01	  0.068096191	4.180000E-01
242	  0.068296596	-4.577500E+01	  0.068296596	6.604700E+01	  0.068296596	5.020700E+01	  0.068296596	4.710000E-01
243	  0.068496995	-4.633900E+01	  0.068496995	5.677800E+01	  0.068496995	5.026300E+01	  0.068496995	4.050000E-01
244	  0.068697393	-4.533000E+01	  0.068697393	7.346500E+01	  0.068697393	5.015100E+01	  0.068697393	5.200000E-01
245	  0.068897791	-4.569600E+01	  0.068897791	8.570000E+01	  0.068897791	5.003600E+01	  0.068897791	5.170000E-01
246	  0.069098189	-4.460400E+01	  0.069098189	6.875800E+01	  0.069098189	5.021000E+01	  0.069098189	5.500000E-01
247	  0.069298595	-4.252500E+01	  0.069298595	8.817900E+01	  0.069298595	5.001800E+01	  0.069298595	7.470000E-01
248	  0.069498993	-4.382800E+01	  0.069498993	9.076900E+01	  0.069498993	4.998700E+01	  0.069498993	6.430000E-01
249	  0.069699399	-4.225600E+01	  0.069699399	9.175200E+01	  0.069699399	4.997000E+01	  0.069699399	7.700000E-01
250	  0.069899797	-4.053900E+01	  0.069899797	9.940400E+01	  0.069899797	4.983800E+01	  0.069899797	9.240000E-01
251	  0.070100196	-4.255400E+01	  0.070100196	8.836100E+01	  0.070100196	5.001500E+01	  0.070100196	7.450000E-01
252	  0.070300601	-4.090900E+01	  0.070300601	9.931100E+01	  0.070300601	4.984600E+01	  0.070300601	8.860000E-01
253	  0.070501000	-4.186000E+01	  0.070501000	1.024150E+02	  0.070501000	4.982000E+01	  0.070501000	7.850000E-01
254	  0.070701398	-4.040800E+01	  0.070701398	1.017780E+02	  0.070701398	4.979600E+01	  0.070701398	9.300000E-01
255	  0.070901804	-3.824400E+01	  0.070901804	9.584600E+01	  0.070901804	4.986000E+01	  0.070901804	1.214000E+00
256	  0.071102202	-3.924400E+01	  0.071102202	1.024230E+02	  0.071102202	4.975400E+01	  0.071102202	1.060000E+00
257	  0.071302600	-3.857800E+01	  0.071302600	1.017230E+02	  0.071302600	4.974800E+01	  0.071302600	1.147000E+00
258	  0.071503006	-3.763500E+01	  0.071503006	9.633500E+01	  0.071503006	4.983800E+01	  0.071503006	1.300000E+00
259	  0.071703404	-3.736300E+01	  0.071703404	9.921700E+01	  0.071703404	4.976500E+01	  0.071703404	1.331000E+00
260	  0.071903802	-3.690100E+01	  0.071903802	9.905700E+01	  0.071903802	4.975500E+01	  0.071903802	1.404000E+00
261	  0.072104208	-3.657600E+01	  0.072104208	9.521000E+01	  0.072104208	4.984300E+01	  0.072104208	1.472000E+00
262	  0.072304606	-3.756200E+01	  0.072304606	1.001020E+02	  0.072304606	4.975100E+01	  0.072304606	1.297000E+00
263	  0.072505005	-3.542900E+01	  0.072505005	9.878800E+01	  0.072505005	4.971400E+01	  0.072505005	1.663000E+00
264	  0.072705410	-3.554500E+01	  0.072705410	9.256200E+01	  0.072705410	4.989700E+01	  0.072705410	1.665000E+00
265	  0.072905809	-3.485900E+01	  0.072905809	9.186000E+01	  0.072905809	4.990800E+01	  0.072905809	1.803000E+00
266	  0.073106214	-3.600100E+01	  0.073106214	9.441800E+01	  0.073106214	4.985300E+01	  0.073106214	1.575000E+00
267	  0.073306613	-3.474000E+01	  0.073306613	9.851500E+01	  0.073306613	4.969600E+01	  0.073306613	1.801000E+00
268	  0.073507011	-3.434600E+01	  0.073507011	9.603000E+01	  0.073507011	4.976200E+01	  0.073507011	1.898000E+00
269	  0.073707417	-3.425400E+01	  0.073707417	9.627100E+01	  0.073707417	4.975100E+01	  0.073707417	1.917000E+00
270	  0.073907815	-3.407200E+01	  0.073907815	9.232700E+01	  0.073907815	4.988000E+01	  0.073907815	1.973000E+00
271	  0.074108213	-3.410700E+01	  0.074108213	9.382400E+01	  0.074108213	4.983000E+01	  0.074108213	1.960000E+00
272	  0.074308619	-3.364100E+01	  0.074308619	9.044500E+01	  0.074308619	4.994000E+01	  0.074308619	2.077000E+00
273	  0.074509017	-3.383800E+01	  0.074509017	9.305400E+01	  0.074509017	4.985000E+01	  0.074509017	2.024000E+00
274	  0.074709415	-3.315300E+01	  0.074709415	8.613800E+01	  0.074709415	5.009900E+01	  0.074709415	2.199000E+00
275	  0.074909821	-3.381300E+01	  0.074909821	8.565100E+01	  0.074909821	5.011300E+01	  0.074909821	2.038000E+00
276	  0.075110219	-3.277500E+01	  0.075110219	8.955000E+01	  0.075110219	4.996500E+01	  0.075110219	2.296000E+00
277	  0.075310618	-3.281500E+01	  0.075310618	8.650900E+01	  0.075310618	5.008700E+01	  0.075310618	2.287000E+00
278	  0.075511023	-3.269900E+01	  0.075511023	8.430300E+01	  0.075511023	5.017700E+01	  0.075511023	2.315000E+00
279	  0.075711422	-3.291700E+01	  0.075711422	8.289200E+01	  0.075711422	5.022900E+01	  0.075711422	2.254000E+00
280	  0.075911827	-3.272500E+01	  0.075911827	8.849600E+01	  0.075911827	5.000700E+01	  0.075911827	2.311000E+00
281	  0.076112226	-3.302500E+01	  0.076112226	8.599400E+01	  0.076112226	5.010600E+01	  0.076112226	2.232000E+00
282	  0.076312624	-3.266400E+01	  0.076312624	8.276400E+01	  0.076312624	5.024000E+01	  0.076312624	2.320000E+00
283	  0.076513030	-3.262100E+01	  0.076513030	8.298000E+01	  0.076513030	5.023200E+01	  0.076513030	2.333000E+00
284	  0.076713428	-3.204900E+01	  0.076713428	8.476400E+01	  0.076713428	5.016600E+01	  0.076713428	2.496000E+00
285	  0.076913826	-3.218400E+01	  0.076913826	7.993300E+01	  0.076913826	5.037200E+01	  0.076913826	2.440000E+00
286	  0.077114232	-3.250800E+01	  0.077114232	7.933000E+01	  0.077114232	5.038500E+01	  0.077114232	2.347000E+00
287	  0.077314630	-3.194200E+01	  0.077314630	7.690900E+01	  0.077314630	5.051400E+01	  0.077314630	2.489000E+00
288	  0.077515028	-3.231800E+01	  0.077515028	7.829300E+01	  0.077515028	5.043600E+01	  0.077515028	2.393000E+00
289	  0.077715434	-3.227200E+01	  0.077715434	7.870100E+01	  0.077715434	5.042100E+01	  0.077715434	2.408000E+00
290	  0.077915832	-3.225900E+01	  0.077915832	7.793000E+01	  0.077915832	5.045400E+01	  0.077915832	2.407000E+00
291	  0.078116231	-3.161500E+01	  0.078116231	7.812100E+01	  0.078116231	5.047600E+01	  0.078116231	2.595000E+00
292	  0.078316636	-3.194800E+01	  0.078316636	7.881800E+01	  0.078316636	5.043000E+01	  0.078316636	2.501000E+00
293	  0.078517035	-3.181700E+01	  0.078517035	7.793900E+01	  0.078517035	5.047400E+01	  0.078517035	2.534000E+00
294	  0.078717433	-3.251800E+01	  0.078717433	7.801200E+01	  0.078717433	5.043900E+01	  0.078717433	2.336000E+00
295	  0.078917839	-3.178800E+01	  0.078917839	7.377700E+01	  0.078917839	5.066100E+01	  0.078917839	2.505000E+00
296	  0.079118237	-3.223700E+01	  0.079118237	7.230000E+01	  0.079118237	5.069300E+01	  0.079118237	2.362000E+00
297	  0.079318643	-3.264600E+01	  0.079318643	7.785800E+01	  0.079318643	5.044000E+01	  0.079318643	2.300000E+00
298	  0.079519041	-3.232400E+01	  0.079519041	7.643300E+01	  0.079519041	5.051400E+01	  0.079519041	2.377000E+00
299	  0.079719439	-3.234700E+01	  0.079719439	7.715000E+01	  0.079719439	5.048300E+01	  0.079719439	2.377000E+00
300	  0.079919845	-3.210900E+01	  0.079919845	7.806400E+01	  0.079919845	5.045500E+01	  0.079919845	2.450000E+00
301	  0.080120243	-3.248500E+01	  0.080120243	7.910200E+01	  0.080120243	5.039500E+01	  0.080120243	2.352000E+00
302	  0.080320641	-3.258200E+01	  0.080320641	7.658800E+01	  0.080320641	5.049400E+01	  0.080320641	2.308000E+00
303	  0.080521047	-3.245400E+01	  0.080521047	7.714700E+01	  0.080521047	5.047800E+01	  0.080521047	2.347000E+00
304	  0.080721445	-3.207900E+01	  0.080721445	7.855800E+01	  0.080721445	5.043500E+01	  0.080721445	2.462000E+00
305	  0.080921844	-3.277700E+01	  0.080921844	7.670400E+01	  0.080921844	5.048000E+01	  0.080921844	2.257000E+00
306	  0.081122249	-3.196600E+01	  0.081122249	8.078000E+01	  0.081122249	5.034200E+01	  0.081122249	2.507000E+00
307	  0.081322648	-3.221500E+01	  0.081322648	8.397600E+01	  0.081322648	5.019800E+01	  0.081322648	2.447000E+00
308	  0.081523046	-3.225300E+01	  0.081523046	8.205700E+01	  0.081523046	5.027900E+01	  0.081523046	2.431000E+00
309	  0.081723452	-3.153400E+01	  0.081723452	8.440700E+01	  0.081723452	5.018800E+01	  0.081723452	2.649000E+00
310	  0.081923850	-3.192500E+01	  0.081923850	8.499500E+01	  0.081923850	5.015700E+01	  0.081923850	2.533000E+00
311	  0.082124248	-3.176400E+01	  0.082124248	8.617000E+01	  0.082124248	5.010600E+01	  0.082124248	2.582000E+00
312	  0.082324654	-3.200800E+01	  0.082324654	8.748800E+01	  0.082324654	5.004700E+01	  0.082324654	2.510000E+00
313	  0.082525052	-3.151300E+01	  0.082525052	8.597100E+01	  0.082525052	5.011600E+01	  0.082525052	2.658000E+00
314	  0.082725458	-3.116800E+01	  0.082725458	9.096700E+01	  0.082725458	4.987700E+01	  0.082725458	2.759000E+00
315	  0.082925856	-3.115300E+01	  0.082925856	9.263800E+01	  0.082925856	4.979600E+01	  0.082925856	2.756000E+00
316	  0.083126254	-3.090400E+01	  0.083126254	9.022500E+01	  0.083126254	4.990700E+01	  0.083126254	2.846000E+00
317	  0.083326660	-3.034300E+01	  0.083326660	9.176200E+01	  0.083326660	4.981400E+01	  0.083326660	3.029000E+00
318	  0.083527058	-3.029600E+01	  0.083527058	9.372000E+01	  0.083527058	4.970900E+01	  0.083527058	3.034000E+00
319	  0.083727457	-2.990300E+01	  0.083727457	9.442600E+01	  0.083727457	4.965200E+01	  0.083727457	3.169000E+00
320	  0.083927862	-2.960800E+01	  0.083927862	9.466000E+01	  0.083927862	4.962400E+01	  0.083927862	3.276000E+00
321	  0.084128261	-2.929100E+01	  0.084128261	9.770800E+01	  0.084128261	4.942800E+01	  0.084128261	3.364000E+00
322	  0.084328659	-2.885700E+01	  0.084328659	9.339300E+01	  0.084328659	4.965800E+01	  0.084328659	3.580000E+00
323	  0.084529065	-2.889600E+01	  0.084529065	9.679700E+01	  0.084529065	4.945100E+01	  0.084529065	3.531000E+00
324	  0.084729463	-2.807000E+01	  0.084729463	9.607000E+01	  0.084729463	4.943200E+01	  0.084729463	3.888000E+00
325	  0.084929861	-2.790600E+01	  0.084929861	9.588700E+01	  0.084929861	4.943000E+01	  0.084929861	3.963000E+00
326	  0.085130267	-2.772400E+01	  0.085130267	9.608500E+01	  0.085130267	4.940100E+01	  0.085130267	4.044000E+00
327	  0.085330658	-2.753100E+01	  0.085330658	9.619000E+01	  0.085330658	4.937700E+01	  0.085330658	4.132000E+00
328	  0.085531056	-2.683400E+01	  0.085531056	9.585200E+01	  0.085531056	4.933600E+01	  0.085531056	4.478000E+00
329	  0.085731462	-2.665600E+01	  0.085731462	9.746400E+01	  0.085731462	4.919100E+01	  0.085731462	4.543000E+00
330	  0.085931860	-2.644700E+01	  0.085931860	9.599100E+01	  0.085931860	4.928500E+01	  0.085931860	4.677000E+00
331	  0.086132258	-2.585100E+01	  0.086132258	9.569100E+01	  0.086132258	4.924400E+01	  0.086132258	5.009000E+00
332	  0.086332664	-2.566500E+01	  0.086332664	9.461100E+01	  0.086332664	4.931700E+01	  0.086332664	5.134000E+00
333	  0.086533062	-2.542300E+01	  0.086533062	9.379200E+01	  0.086533062	4.936500E+01	  0.086533062	5.291000E+00
334	  0.086733460	-2.506200E+01	  0.086733460	9.471800E+01	  0.086733460	4.923800E+01	  0.086733460	5.496000E+00
335	  0.086933866	-2.473700E+01	  0.086933866	9.282100E+01	  0.086933866	4.938400E+01	  0.086933866	5.737000E+00
336	  0.087134264	-2.416000E+01	  0.087134264	9.206800E+01	  0.087134264	4.939700E+01	  0.087134264	6.139000E+00
337	  0.087334670	-2.396300E+01	  0.087334670	9.182200E+01	  0.087334670	4.940100E+01	  0.087334670	6.282000E+00
338	  0.087535068	-2.370300E+01	  0.087535068	8.982700E+01	  0.087535068	4.959400E+01	  0.087535068	6.503000E+00
339	  0.087735467	-2.326600E+01	  0.087735467	8.927200E+01	  0.087735467	4.961600E+01	  0.087735467	6.844000E+00
340	  0.087935872	-2.279400E+01	  0.087935872	8.826700E+01	  0.087935872	4.969400E+01	  0.087935872	7.239000E+00
341	  0.088136271	-2.250800E+01	  0.088136271	8.785400E+01	  0.088136271	4.971900E+01	  0.088136271	7.486000E+00
342	  0.088336669	-2.212200E+01	  0.088336669	8.579500E+01	  0.088336669	4.996000E+01	  0.088336669	7.853000E+00
343	  0.088537075	-2.194000E+01	  0.088537075	8.389700E+01	  0.088537075	5.021200E+01	  0.088537075	8.037000E+00
344	  0.088737473	-2.151300E+01	  0.088737473	8.326700E+01	  0.088737473	5.028200E+01	  0.088737473	8.450000E+00
345	  0.088937871	-2.108900E+01	  0.088937871	8.122800E+01	  0.088937871	5.057800E+01	  0.088937871	8.888000E+00
346	  0.089138277	-2.081100E+01	  0.089138277	7.963700E+01	  0.089138277	5.082900E+01	  0.089138277	9.184000E+00
347	  0.089338675	-2.056600E+01	  0.089338675	7.721900E+01	  0.089338675	5.123500E+01	  0.089338675	9.445000E+00
348	  0.089539073	-2.026000E+01	  0.089539073	7.468400E+01	  0.089539073	5.169200E+01	  0.089539073	9.768000E+00
349	  0.089739479	-1.996200E+01	  0.089739479	7.244200E+01	  0.089739479	5.212800E+01	  0.089739479	1.008400E+01
350	  0.089939877	-1.956200E+01	  0.089939877	6.996800E+01	  0.089939877	5.265800E+01	  0.089939877	1.052100E+01
351	  0.090140276	-1.946400E+01	  0.090140276	6.754200E+01	  0.090140276	5.315200E+01	  0.090140276	1.056800E+01
352	  0.090340681	-1.926700E+01	  0.090340681	6.492200E+01	  0.090340681	5.372700E+01	  0.090340681	1.071500E+01
353	  0.090541080	-1.913800E+01	  0.090541080	6.283900E+01	  0.090541080	5.419200E+01	  0.090541080	1.077900E+01
354	  0.090741485	-1.897900E+01	  0.090741485	5.973200E+01	  0.090741485	5.489700E+01	  0.090741485	1.080100E+01
355	  0.090941884	-1.886700E+01	  0.090941884	5.829800E+01	  0.090941884	5.524900E+01	  0.090941884	1.085000E+01
356	  0.091142282	-1.871000E+01	  0.091142282	5.563900E+01	  0.091142282	5.589400E+01	  0.091142282	1.085100E+01
357	  0.091342688	-1.868300E+01	  0.091342688	5.266100E+01	  0.091342688	5.653700E+01	  0.091342688	1.060500E+01
358	  0.091543086	-1.854200E+01	  0.091543086	5.048100E+01	  0.091543086	5.709500E+01	  0.091543086	1.056600E+01
359	  0.091743484	-1.838500E+01	  0.091743484	4.852300E+01	  0.091743484	5.763200E+01	  0.091743484	1.055300E+01
360	  0.091943890	-1.836200E+01	  0.091943890	4.679000E+01	  0.091943890	5.801800E+01	  0.091943890	1.036300E+01
361	  0.092144288	-1.837700E+01	  0.092144288	4.356300E+01	  0.092144288	5.866900E+01	  0.092144288	9.890000E+00
362	  0.092344686	-1.833400E+01	  0.092344686	4.208600E+01	  0.092344686	5.901000E+01	  0.092344686	9.725000E+00
363	  0.092545092	-1.834000E+01	  0.092545092	4.014000E+01	  0.092545092	5.938800E+01	  0.092545092	9.407000E+00
364	  0.092745490	-1.833700E+01	  0.092745490	3.816300E+01	  0.092745490	5.977200E+01	  0.092745490	9.078000E+00
365	  0.092945889	-1.818900E+01	  0.092945889	3.636200E+01	  0.092945889	6.028600E+01	  0.092945889	8.941000E+00
366	  0.093146294	-1.810300E+01	  0.093146294	3.377800E+01	  0.093146294	6.087300E+01	  0.093146294	8.553000E+00
367	  0.093346693	-1.813500E+01	  0.093346693	3.220400E+01	  0.093346693	6.111000E+01	  0.093346693	8.199000E+00
368	  0.093547091	-1.815300E+01	  0.093547091	3.063500E+01	  0.093547091	6.135500E+01	  0.093547091	7.854000E+00
369	  0.093747497	-1.823200E+01	  0.093747497	2.903900E+01	  0.093747497	6.150700E+01	  0.093747497	7.430000E+00
370	  0.093947895	-1.825700E+01	  0.093947895	2.679600E+01	  0.093947895	6.181700E+01	  0.093947895	6.915000E+00
371	  0.094148301	-1.820700E+01	  0.094148301	2.475400E+01	  0.094148301	6.218800E+01	  0.094148301	6.500000E+00
372	  0.094348699	-1.808400E+01	  0.094348699	2.315400E+01	  0.094348699	6.260100E+01	  0.094348699	6.234000E+00
373	  0.094549097	-1.821400E+01	  0.094549097	2.126900E+01	  0.094549097	6.263900E+01	  0.094549097	5.666000E+00
374	  0.094749503	-1.827000E+01	  0.094749503	1.969300E+01	  0.094749503	6.273700E+01	  0.094749503	5.237000E+00
375	  0.094949901	-1.819400E+01	  0.094949901	1.834800E+01	  0.094949901	6.301300E+01	  0.094949901	4.959000E+00
376	  0.095150299	-1.811200E+01	  0.095150299	1.684500E+01	  0.095150299	6.331000E+01	  0.095150299	4.631000E+00
377	  0.095350705	-1.817700E+01	  0.095350705	1.475600E+01	  0.095350705	6.339900E+01	  0.095350705	4.045000E+00
378	  0.095551103	-1.823400E+01	  0.095551103	1.413400E+01	  0.095551103	6.335400E+01	  0.095551103	3.849000E+00
379	  0.095751502	-1.821600E+01	  0.095751502	1.149400E+01	  0.095751502	6.359100E+01	  0.095751502	3.159000E+00
380	  0.095951907	-1.827400E+01	  0.095951907	1.058600E+01	  0.095951907	6.355000E+01	  0.095951907	2.891000E+00
381	  0.096152306	-1.829900E+01	  0.096152306	9.390000E+00	  0.096152306	6.357800E+01	  0.096152306	2.561000E+00
382	  0.096352704	-1.838600E+01	  0.096352704	8.001000E+00	  0.096352704	6.349700E+01	  0.096352704	2.159000E+00
383	  0.096553110	-1.839200E+01	  0.096553110	6.158000E+00	  0.096553110	6.356500E+01	  0.096553110	1.665000E+00
384	  0.096753508	-1.831400E+01	  0.096753508	4.485000E+00	  0.096753508	6.375700E+01	  0.096753508	1.229000E+00
385	  0.096953906	-1.838200E+01	  0.096953906	3.677000E+00	  0.096953906	6.365600E+01	  0.096953906	9.980000E-01
386	  0.097154312	-1.835500E+01	  0.097154312	2.096000E+00	  0.097154312	6.373200E+01	  0.097154312	5.710000E-01
387	  0.097354710	-1.842900E+01	  0.097354710	4.120000E-01	  0.097354710	6.361100E+01	  0.097354710	1.110000E-01
388	  0.097555116	-1.848000E+01	  0.097555116	-9.230000E-01	  0.097555116	6.351900E+01	  0.097555116	-2.470000E-01
389	  0.097755514	-1.846200E+01	  0.097755514	-2.706000E+00	  0.097755514	6.353200E+01	  0.097755514	-7.260000E-01
390	  0.097955912	-1.858900E+01	  0.097955912	-3.970000E+00	  0.097955912	6.328400E+01	  0.097955912	-1.045000E+00
391	  0.098156318	-1.860300E+01	  0.098156318	-4.464000E+00	  0.098156318	6.324900E+01	  0.098156318	-1.172000E+00
392	  0.098356716	-1.854600E+01	  0.098356716	-6.393000E+00	  0.098356716	6.328600E+01	  0.098356716	-1.689000E+00
393	  0.098557115	-1.862300E+01	  0.098557115	-7.332000E+00	  0.098557115	6.311700E+01	  0.098557115	-1.914000E+00
394	  0.098757520	-1.869200E+01	  0.098757520	-9.138000E+00	  0.098757520	6.291500E+01	  0.098757520	-2.354000E+00
395	  0.098957919	-1.874400E+01	  0.098957919	-9.589000E+00	  0.098957919	6.280500E+01	  0.098957919	-2.450000E+00
396	  0.099158317	-1.871300E+01	  0.099158317	-1.139300E+01	  0.099158317	6.275000E+01	  0.099158317	-2.914000E+00
397	  0.099358723	-1.868700E+01	  0.099358723	-1.214400E+01	  0.099358723	6.274300E+01	  0.099358723	-3.112000E+00
398	  0.099559121	-1.879800E+01	  0.099559121	-1.318700E+01	  0.099559121	6.249000E+01	  0.099559121	-3.318000E+00
399	  0.099759519	-1.880800E+01	  0.099759519	-1.491800E+01	  0.099759519	6.234100E+01	  0.099759519	-3.730000E+00
400	  0.099959925	-1.889300E+01	  0.099959925	-1.540100E+01	  0.099959925	6.216900E+01	  0.099959925	-3.800000E+00
401	  0.100160323	-1.876400E+01	  0.100160323	-1.797700E+01	  0.100160323	6.213700E+01	  0.100160323	-4.481000E+00
402	  0.100360721	-1.883300E+01	  0.100360721	-1.899800E+01	  0.100360721	6.193100E+01	  0.100360721	-4.673000E+00
403	  0.100561127	-1.892200E+01	  0.100561127	-2.079100E+01	  0.100561127	6.161100E+01	  0.100561127	-5.016000E+00
404	  0.100761525	-1.890000E+01	  0.100761525	-2.082800E+01	  0.100761525	6.163900E+01	  0.100761525	-5.039000E+00
405	  0.100961931	-1.902600E+01	  0.100961931	-2.270500E+01	  0.100961931	6.124800E+01	  0.100961931	-5.356000E+00
406	  0.101162329	-1.923900E+01	  0.101162329	-2.405100E+01	  0.101162329	6.079900E+01	  0.101162329	-5.474000E+00
407	  0.101362728	-1.910700E+01	  0.101362728	-2.458300E+01	  0.101362728	6.091500E+01	  0.101362728	-5.686000E+00
408	  0.101563133	-1.889700E+01	  0.101563133	-2.608000E+01	  0.101563133	6.101100E+01	  0.101563133	-6.169000E+00
409	  0.101763532	-1.910300E+01	  0.101763532	-2.685500E+01	  0.101763532	6.063600E+01	  0.101763532	-6.149000E+00
410	  0.101963930	-1.913200E+01	  0.101963930	-2.984700E+01	  0.101963930	6.019300E+01	  0.101963930	-6.702000E+00
411	  0.102164336	-1.919200E+01	  0.102164336	-3.016300E+01	  0.102164336	6.007400E+01	  0.102164336	-6.706000E+00
412	  0.102364734	-1.930000E+01	  0.102364734	-2.995500E+01	  0.102364734	5.997100E+01	  0.102364734	-6.568000E+00
413	  0.102565132	-1.929200E+01	  0.102565132	-3.111200E+01	  0.102565132	5.982000E+01	  0.102565132	-6.786000E+00
414	  0.102765530	-1.934800E+01	  0.102765530	-3.302200E+01	  0.102765530	5.947800E+01	  0.102765530	-7.069000E+00
415	  0.102965929	-1.949200E+01	  0.102965929	-3.446200E+01	  0.102965929	5.910600E+01	  0.102965929	-7.172000E+00
416	  0.103166327	-1.948800E+01	  0.103166327	-3.507300E+01	  0.103166327	5.902000E+01	  0.103166327	-7.276000E+00
417	  0.103366733	-1.959700E+01	  0.103366733	-3.610100E+01	  0.103366733	5.875100E+01	  0.103366733	-7.332000E+00
418	  0.103567131	-1.960100E+01	  0.103567131	-3.671900E+01	  0.103567131	5.865300E+01	  0.103567131	-7.424000E+00
419	  0.103767529	-1.955600E+01	  0.103767529	-3.867400E+01	  0.103767529	5.839400E+01	  0.103767529	-7.766000E+00
420	  0.103967935	-1.961900E+01	  0.103967935	-4.048200E+01	  0.103967935	5.804600E+01	  0.103967935	-7.961000E+00
421	  0.104168333	-1.970800E+01	  0.104168333	-4.113900E+01	  0.104168333	5.785800E+01	  0.104168333	-7.957000E+00
422	  0.104368731	-1.968200E+01	  0.104368731	-4.207100E+01	  0.104368731	5.773000E+01	  0.104368731	-8.111000E+00
423	  0.104569137	-1.974200E+01	  0.104569137	-4.323100E+01	  0.104569137	5.748800E+01	  0.104569137	-8.198000E+00
424	  0.104769535	-1.983000E+01	  0.104769535	-4.416500E+01	  0.104769535	5.726100E+01	  0.104769535	-8.222000E+00
425	  0.104969934	-1.998400E+01	  0.104969934	-4.532700E+01	  0.104969934	5.694900E+01	  0.104969934	-8.196000E+00
426	  0.105170339	-1.980500E+01	  0.105170339	-4.664500E+01	  0.105170339	5.686600E+01	  0.105170339	-8.546000E+00
427	  0.105370738	-1.993800E+01	  0.105370738	-4.736500E+01	  0.105370738	5.664600E+01	  0.105370738	-8.480000E+00
428	  0.105571143	-1.994400E+01	  0.105571143	-4.835600E+01	  0.105571143	5.647500E+01	  0.105571143	-8.582000E+00
429	  0.105771542	-2.003700E+01	  0.105771542	-5.084700E+01	  0.105771542	5.598900E+01	  0.105771542	-8.732000E+00
430	  0.105971940	-1.990200E+01	  0.105971940	-5.043000E+01	  0.105971940	5.614800E+01	  0.105971940	-8.844000E+00
431	  0.106172346	-2.011800E+01	  0.106172346	-5.164500E+01	  0.106172346	5.580100E+01	  0.106172346	-8.717000E+00
432	  0.106372744	-2.025100E+01	  0.106372744	-5.344700E+01	  0.106372744	5.541700E+01	  0.106372744	-8.732000E+00
433	  0.106573142	-2.013900E+01	  0.106573142	-5.549200E+01	  0.106573142	5.512800E+01	  0.106573142	-9.028000E+00
434	  0.106773548	-2.021100E+01	  0.106773548	-5.765100E+01	  0.106773548	5.471700E+01	  0.106773548	-9.109000E+00
435	  0.106973946	-2.040300E+01	  0.106973946	-5.704800E+01	  0.106973946	5.472900E+01	  0.106973946	-8.848000E+00
436	  0.107174344	-2.032000E+01	  0.107174344	-5.643500E+01	  0.107174344	5.487300E+01	  0.107174344	-8.896000E+00
437	  0.107374750	-2.051900E+01	  0.107374750	-5.920100E+01	  0.107374750	5.431300E+01	  0.107374750	-8.868000E+00
438	  0.107575148	-2.038800E+01	  0.107575148	-5.977200E+01	  0.107575148	5.427100E+01	  0.107575148	-9.051000E+00
439	  0.107775547	-2.035800E+01	  0.107775547	-6.062000E+01	  0.107775547	5.413800E+01	  0.107775547	-9.138000E+00
440	  0.107975952	-2.051100E+01	  0.107975952	-6.174100E+01	  0.107975952	5.388700E+01	  0.107975952	-9.030000E+00
441	  0.108176351	-2.047600E+01	  0.108176351	-6.255600E+01	  0.108176351	5.376100E+01	  0.108176351	-9.114000E+00
442	  0.108376749	-2.061000E+01	  0.108376749	-6.402500E+01	  0.108376749	5.346600E+01	  0.108376749	-9.039000E+00
443	  0.108577155	-2.066500E+01	  0.108577155	-6.571700E+01	  0.108577155	5.316500E+01	  0.108577155	-9.055000E+00
444	  0.108777553	-2.069300E+01	  0.108777553	-6.595900E+01	  0.108777553	5.311600E+01	  0.108777553	-9.034000E+00
445	  0.108977959	-2.071600E+01	  0.108977959	-6.791500E+01	  0.108977959	5.278300E+01	  0.108977959	-9.084000E+00
446	  0.109178357	-2.073200E+01	  0.109178357	-6.883100E+01	  0.109178357	5.262600E+01	  0.109178357	-9.098000E+00
447	  0.109378755	-2.072100E+01	  0.109378755	-6.901000E+01	  0.109378755	5.259800E+01	  0.109378755	-9.115000E+00
448	  0.109579161	-2.097900E+01	  0.109579161	-7.064100E+01	  0.109579161	5.228000E+01	  0.109579161	-8.883000E+00
449	  0.109779559	-2.094200E+01	  0.109779559	-7.149900E+01	  0.109779559	5.214600E+01	  0.109779559	-8.945000E+00
450	  0.109979957	-2.102900E+01	  0.109979957	-7.129500E+01	  0.109979957	5.216500E+01	  0.109979957	-8.847000E+00
451	  0.110180363	-2.085200E+01	  0.110180363	-7.332800E+01	  0.110180363	5.186000E+01	  0.110180363	-9.081000E+00
452	  0.110380761	-2.099800E+01	  0.110380761	-7.508600E+01	  0.110380761	5.155800E+01	  0.110380761	-8.953000E+00
453	  0.110581160	-2.100500E+01	  0.110581160	-7.586900E+01	  0.110581160	5.143200E+01	  0.110581160	-8.955000E+00
454	  0.110781565	-2.103400E+01	  0.110781565	-7.684000E+01	  0.110781565	5.127400E+01	  0.110781565	-8.934000E+00
455	  0.110981964	-2.112600E+01	  0.110981964	-7.854000E+01	  0.110981964	5.100000E+01	  0.110981964	-8.848000E+00
456	  0.111182362	-2.090700E+01	  0.111182362	-7.856100E+01	  0.111182362	5.100200E+01	  0.111182362	-9.080000E+00
457	  0.111382768	-2.132300E+01	  0.111382768	-8.045500E+01	  0.111382768	5.070100E+01	  0.111382768	-8.650000E+00
458	  0.111583166	-2.125200E+01	  0.111583166	-7.980900E+01	  0.111583166	5.080000E+01	  0.111583166	-8.722000E+00
459	  0.111783572	-2.117200E+01	  0.111783572	-8.072200E+01	  0.111783572	5.065800E+01	  0.111783572	-8.803000E+00
460	  0.111983970	-2.146200E+01	  0.111983970	-8.274900E+01	  0.111983970	5.035700E+01	  0.111983970	-8.503000E+00
461	  0.112184368	-2.150600E+01	  0.112184368	-8.551700E+01	  0.112184368	4.994900E+01	  0.112184368	-8.432000E+00
462	  0.112384774	-2.147300E+01	  0.112384774	-8.611800E+01	  0.112384774	4.985800E+01	  0.112384774	-8.456000E+00
463	  0.112585172	-2.145300E+01	  0.112585172	-8.635400E+01	  0.112585172	4.982100E+01	  0.112585172	-8.472000E+00
464	  0.112785570	-2.142300E+01	  0.112785570	-8.745400E+01	  0.112785570	4.965600E+01	  0.112785570	-8.483000E+00
465	  0.112985976	-2.145200E+01	  0.112985976	-8.705700E+01	  0.112985976	4.971800E+01	  0.112985976	-8.461000E+00
466	  0.113186374	-2.156100E+01	  0.113186374	-8.975300E+01	  0.113186374	4.934100E+01	  0.113186374	-8.302000E+00
467	  0.113386773	-2.170200E+01	  0.113386773	-9.010100E+01	  0.113386773	4.931400E+01	  0.113386773	-8.162000E+00
468	  0.113587178	-2.153900E+01	  0.113587178	-9.152800E+01	  0.113587178	4.908500E+01	  0.113587178	-8.277000E+00
469	  0.113787577	-2.172400E+01	  0.113787577	-9.276800E+01	  0.113787577	4.894700E+01	  0.113787577	-8.071000E+00
470	  0.113987975	-2.181200E+01	  0.113987975	-9.235200E+01	  0.113987975	4.902100E+01	  0.113987975	-8.003000E+00
471	  0.114188381	-2.181600E+01	  0.114188381	-9.497200E+01	  0.114188381	4.866600E+01	  0.114188381	-7.919000E+00
472	  0.114388779	-2.192900E+01	  0.114388779	-9.496800E+01	  0.114388779	4.869100E+01	  0.114388779	-7.819000E+00
473	  0.114589177	-2.179600E+01	  0.114589177	-9.593300E+01	  0.114589177	4.853200E+01	  0.114589177	-7.902000E+00
474	  0.114789583	-2.209000E+01	  0.114789583	-9.795200E+01	  0.114789583	4.834000E+01	  0.114789583	-7.573000E+00
475	  0.114989981	-2.179900E+01	  0.114989981	-9.870800E+01	  0.114989981	4.816500E+01	  0.114989981	-7.791000E+00
476	  0.115190387	-2.215900E+01	  0.115190387	-1.003130E+02	  0.115190387	4.806100E+01	  0.115190387	-7.420000E+00
477	  0.115390785	-2.188200E+01	  0.115390785	-9.945800E+01	  0.115390785	4.809100E+01	  0.115390785	-7.688000E+00
478	  0.115591183	-2.219500E+01	  0.115591183	-1.018930E+02	  0.115591183	4.787700E+01	  0.115591183	-7.320000E+00
479	  0.115791589	-2.223200E+01	  0.115791589	-1.031660E+02	  0.115791589	4.773300E+01	  0.115791589	-7.232000E+00
480	  0.115991987	-2.213600E+01	  0.115991987	-1.045270E+02	  0.115991987	4.753800E+01	  0.115991987	-7.240000E+00
481	  0.116192386	-2.210400E+01	  0.116192386	-1.053290E+02	  0.116192386	4.743100E+01	  0.116192386	-7.224000E+00
482	  0.116392791	-2.209600E+01	  0.116392791	-1.070130E+02	  0.116392791	4.722800E+01	  0.116392791	-7.139000E+00
483	  0.116593190	-2.203200E+01	  0.116593190	-1.071190E+02	  0.116593190	4.719200E+01	  0.116593190	-7.183000E+00
484	  0.116793588	-2.234800E+01	  0.116793588	-1.072340E+02	  0.116793588	4.729400E+01	  0.116793588	-6.934000E+00
485	  0.116993994	-2.231300E+01	  0.116993994	-1.094510E+02	  0.116993994	4.703000E+01	  0.116993994	-6.835000E+00
486	  0.117194392	-2.241200E+01	  0.117194392	-1.109560E+02	  0.117194392	4.690200E+01	  0.117194392	-6.673000E+00
487	  0.117394790	-2.245500E+01	  0.117394790	-1.115410E+02	  0.117394790	4.685600E+01	  0.117394790	-6.607000E+00
488	  0.117595196	-2.228900E+01	  0.117595196	-1.130140E+02	  0.117595196	4.662800E+01	  0.117595196	-6.634000E+00
489	  0.117795594	-2.235300E+01	  0.117795594	-1.140040E+02	  0.117795594	4.655000E+01	  0.117795594	-6.523000E+00
490	  0.117995992	-2.239000E+01	  0.117995992	-1.142970E+02	  0.117995992	4.653500E+01	  0.117995992	-6.478000E+00
491	  0.118196398	-2.218600E+01	  0.118196398	-1.155340E+02	  0.118196398	4.631300E+01	  0.118196398	-6.537000E+00
492	  0.118396796	-2.252900E+01	  0.118396796	-1.165900E+02	  0.118396796	4.636000E+01	  0.118396796	-6.231000E+00
493	  0.118597202	-2.251100E+01	  0.118597202	-1.185660E+02	  0.118597202	4.615500E+01	  0.118597202	-6.105000E+00
494	  0.118797600	-2.256600E+01	  0.118797600	-1.189790E+02	  0.118797600	4.614000E+01	  0.118797600	-6.041000E+00
495	  0.118997999	-2.260200E+01	  0.118997999	-1.201470E+02	  0.118997999	4.604400E+01	  0.118997999	-5.934000E+00
496	  0.119198404	-2.262500E+01	  0.119198404	-1.211710E+02	  0.119198404	4.595900E+01	  0.119198404	-5.845000E+00
497	  0.119398803	-2.266300E+01	  0.119398803	-1.231180E+02	  0.119398803	4.579800E+01	  0.119398803	-5.676000E+00
498	  0.119599201	-2.262700E+01	  0.119599201	-1.230430E+02	  0.119599201	4.578600E+01	  0.119599201	-5.703000E+00
499	  0.119799607	-2.279300E+01	  0.119799607	-1.249830E+02	  0.119799607	4.569800E+01	  0.119799607	-5.457000E+00
500	  0.120000005	-2.273000E+01	  0.120000005	-1.241330E+02	  0.120000005	4.574000E+01	  0.120000005	-5.559000E+00
