! Anritsu VNA Master:             	Model: MS2036C/10/77
! SN:             	1601066
! /card0/usr/18may12.lna.rl/255b.lna.rl.txt
! Existing Calibration Information:
! TYPE:             	Current Settings	Active Cal Settings
! TIME:             	05/13/2018 11:54:32 AM	05/13/2018 11:48:03 AM
! INTERNAL TEMP:    	48.3 C	48.0 C
! # POINTS:         	500	500
! START FREQ:       	20.000 MHz	20.000 MHz
! STOP FREQ:        	120.000 MHz	120.000 MHz
! SOURCE POWER:     	Low	Low
! IFBW:             	10 Hz	10 Hz
! AVG FACTOR:       	  1 	  1 
! REF PLANE 1:      	0 mm	0 mm
! REF PLANE 2:      	0 mm	0 mm
! CAL TYPE:         	Full S22	Full S22
! CAL METHOD:       	SOLT	SOLT
! CAL LINE TYPE:    	Coax	Coax
! DUT PORT 1:       	K-Conn(M)	K-Conn(M)
! DUT PORT 2:       	K-Conn(M)	K-Conn(M)
! CAL STATUS:       	OK: Accuracy High	--
! PROP-V:       	0.700
! CABLE LOSS:       	0.000 dB/m
! REF IMPEDANCE:       	50.0
! Trace Specific Parameters:	TR1	TR2	TR3	TR4
! TRACE.#.Y (GRAPH TYPE)	LOG MAG	PHASE	REAL IMPEDANCE	IMAGINARY IMPEDANCE
! TRACE.#.X 	FREQ.GHZ	FREQ.GHZ	FREQ.GHZ	FREQ.GHZ
! S-PARAMETER	S22	S22	S22	S22
! SMOOTH/APERTURE %	0	0	0	0
! WINDOW	NSL	NSL	NSL	NSL
! GATING	OFF	OFF	OFF	OFF
! FGTD	OFF	OFF	OFF	OFF
Marker Information per Trace:	TR1	TR2	TR3	TR4
!MK1	--	"MK1 TR2:  12.184 368 MHz,##.##"	--	--
!MK2	--	--	"MK2 TR3:  20.000 MHz,Z:(55.946 ohm, 6.526 ohm)"	--
!MK3	--	--	--	--
!MK4	--	--	--	--
!MK5	--	--	--	--
!MK6	--	--	--	--
!MK7	--	--	--	--
!MK8	--	--	--	--
PNT	TR1.FREQ.GHZ	TR1.LOG MAG.dB	TR2.FREQ.GHZ	TR2.PHASE.deg	TR3.FREQ.GHZ	TR3.REAL IMPEDANCE.ohm	TR4.FREQ.GHZ	TR4.IMAGINARY IMPEDANCE.ohm
1	  0.020000000	-2.160000E+01	  0.020000000	4.414000E+01	  0.020000000	5.594500E+01	  0.020000000	6.526000E+00
2	  0.020200402	-2.166700E+01	  0.020200402	4.192400E+01	  0.020200402	5.617500E+01	  0.020200402	6.238000E+00
3	  0.020400802	-2.183200E+01	  0.020400802	3.807800E+01	  0.020400802	5.650500E+01	  0.020400802	5.681000E+00
4	  0.020601204	-2.180500E+01	  0.020601204	3.566500E+01	  0.020601204	5.679100E+01	  0.020601204	5.415000E+00
5	  0.020801604	-2.181700E+01	  0.020801604	3.242600E+01	  0.020801604	5.711600E+01	  0.020801604	5.001000E+00
6	  0.021002004	-2.182200E+01	  0.021002004	2.921200E+01	  0.021002004	5.742000E+01	  0.021002004	4.574000E+00
7	  0.021202406	-2.189600E+01	  0.021202406	2.648300E+01	  0.021202406	5.759200E+01	  0.021202406	4.155000E+00
8	  0.021402806	-2.197900E+01	  0.021402806	2.294300E+01	  0.021402806	5.779100E+01	  0.021402806	3.610000E+00
9	  0.021603208	-2.209400E+01	  0.021603208	2.074300E+01	  0.021603208	5.783300E+01	  0.021603208	3.238000E+00
10	  0.021803608	-2.204000E+01	  0.021803608	1.680200E+01	  0.021803608	5.812200E+01	  0.021803608	2.673000E+00
11	  0.022004008	-2.194400E+01	  0.022004008	1.407300E+01	  0.022004008	5.835800E+01	  0.022004008	2.283000E+00
12	  0.022204408	-2.210100E+01	  0.022204408	1.040800E+01	  0.022204408	5.834200E+01	  0.022204408	1.665000E+00
13	  0.022404809	-2.209900E+01	  0.022404809	6.562000E+00	  0.022404809	5.845100E+01	  0.022404809	1.055000E+00
14	  0.022605211	-2.213800E+01	  0.022605211	2.757000E+00	  0.022605211	5.846800E+01	  0.022605211	4.420000E-01
15	  0.022805611	-2.220700E+01	  0.022805611	-1.274000E+00	  0.022805611	5.840500E+01	  0.022805611	-2.020000E-01
16	  0.023006011	-2.208200E+01	  0.023006011	-4.207000E+00	  0.023006011	5.851000E+01	  0.023006011	-6.790000E-01
17	  0.023206413	-2.218800E+01	  0.023206413	-8.223000E+00	  0.023206413	5.831800E+01	  0.023206413	-1.304000E+00
18	  0.023406813	-2.222500E+01	  0.023406813	-1.373700E+01	  0.023406813	5.808600E+01	  0.023406813	-2.148000E+00
19	  0.023607215	-2.222200E+01	  0.023607215	-1.782400E+01	  0.023607215	5.788600E+01	  0.023607215	-2.760000E+00
20	  0.023807615	-2.212800E+01	  0.023807615	-2.197700E+01	  0.023807615	5.771800E+01	  0.023807615	-3.402000E+00
21	  0.024008015	-2.211500E+01	  0.024008015	-2.765300E+01	  0.024008015	5.729700E+01	  0.024008015	-4.194000E+00
22	  0.024208417	-2.205400E+01	  0.024208417	-3.169300E+01	  0.024208417	5.698800E+01	  0.024208417	-4.756000E+00
23	  0.024408817	-2.199000E+01	  0.024408817	-3.755300E+01	  0.024408817	5.644300E+01	  0.024408817	-5.506000E+00
24	  0.024609219	-2.197100E+01	  0.024609219	-4.319700E+01	  0.024609219	5.581300E+01	  0.024609219	-6.128000E+00
25	  0.024809619	-2.192300E+01	  0.024809619	-4.766000E+01	  0.024809619	5.529200E+01	  0.024809619	-6.592000E+00
26	  0.025010020	-2.185600E+01	  0.025010020	-5.426000E+01	  0.025010020	5.445600E+01	  0.025010020	-7.185000E+00
27	  0.025210422	-2.177800E+01	  0.025210422	-5.971800E+01	  0.025210422	5.372600E+01	  0.025210422	-7.611000E+00
28	  0.025410822	-2.162800E+01	  0.025410822	-6.670700E+01	  0.025410822	5.275200E+01	  0.025410822	-8.089000E+00
29	  0.025611224	-2.162600E+01	  0.025611224	-7.227800E+01	  0.025611224	5.192000E+01	  0.025611224	-8.259000E+00
30	  0.025811624	-2.144100E+01	  0.025811624	-7.903300E+01	  0.025811624	5.091600E+01	  0.025811624	-8.529000E+00
31	  0.026012026	-2.134600E+01	  0.026012026	-8.671400E+01	  0.026012026	4.975600E+01	  0.026012026	-8.570000E+00
32	  0.026212426	-2.128400E+01	  0.026212426	-9.419100E+01	  0.026212426	4.865200E+01	  0.026212426	-8.433000E+00
33	  0.026412826	-2.131300E+01	  0.026412826	-1.017150E+02	  0.026412826	4.761600E+01	  0.026412826	-8.075000E+00
34	  0.026613226	-2.131300E+01	  0.026613226	-1.103250E+02	  0.026613226	4.650900E+01	  0.026613226	-7.554000E+00
35	  0.026813626	-2.143300E+01	  0.026813626	-1.193750E+02	  0.026813626	4.552600E+01	  0.026813626	-6.775000E+00
36	  0.027014028	-2.149800E+01	  0.027014028	-1.274490E+02	  0.027014028	4.474900E+01	  0.027014028	-6.021000E+00
37	  0.027214428	-2.167300E+01	  0.027214428	-1.356920E+02	  0.027214428	4.414800E+01	  0.027214428	-5.121000E+00
38	  0.027414829	-2.193400E+01	  0.027414829	-1.448890E+02	  0.027414829	4.368000E+01	  0.027414829	-4.047000E+00
39	  0.027615231	-2.231700E+01	  0.027615231	-1.533680E+02	  0.027615231	4.349600E+01	  0.027615231	-3.003000E+00
40	  0.027815631	-2.262200E+01	  0.027815631	-1.619750E+02	  0.027815631	4.338700E+01	  0.027815631	-1.996000E+00
41	  0.028016033	-2.314900E+01	  0.028016033	-1.701860E+02	  0.028016033	4.357100E+01	  0.028016033	-1.038000E+00
42	  0.028216433	-2.358800E+01	  0.028216433	-1.783270E+02	  0.028216433	4.379700E+01	  0.028216433	-1.690000E-01
43	  0.028416833	-2.448800E+01	  0.028416833	1.750600E+02	  0.028416833	4.438800E+01	  0.028416833	4.570000E-01
44	  0.028617235	-2.499200E+01	  0.028617235	1.685350E+02	  0.028617235	4.476100E+01	  0.028617235	1.004000E+00
45	  0.028817635	-2.571900E+01	  0.028817635	1.615130E+02	  0.028817635	4.529600E+01	  0.028817635	1.491000E+00
46	  0.029018037	-2.642900E+01	  0.029018037	1.578550E+02	  0.029018037	4.574000E+01	  0.029018037	1.648000E+00
47	  0.029218437	-2.745300E+01	  0.029218437	1.521740E+02	  0.029218437	4.635000E+01	  0.029218437	1.837000E+00
48	  0.029418837	-2.801400E+01	  0.029418837	1.472460E+02	  0.029418837	4.672300E+01	  0.029418837	2.012000E+00
49	  0.029619239	-2.887900E+01	  0.029619239	1.446830E+02	  0.029619239	4.710800E+01	  0.029619239	1.962000E+00
50	  0.029819639	-2.931100E+01	  0.029819639	1.430110E+02	  0.029819639	4.729900E+01	  0.029819639	1.950000E+00
51	  0.030020041	-3.039700E+01	  0.030020041	1.395710E+02	  0.030020041	4.771600E+01	  0.030020041	1.871000E+00
52	  0.030220442	-3.088200E+01	  0.030220442	1.373400E+02	  0.030220442	4.790700E+01	  0.030220442	1.856000E+00
53	  0.030420844	-3.153100E+01	  0.030420844	1.374560E+02	  0.030420844	4.805300E+01	  0.030420844	1.724000E+00
54	  0.030621244	-3.247400E+01	  0.030621244	1.377920E+02	  0.030621244	4.824400E+01	  0.030621244	1.542000E+00
55	  0.030821644	-3.312600E+01	  0.030821644	1.366710E+02	  0.030821644	4.839800E+01	  0.030821644	1.466000E+00
56	  0.031022044	-3.319600E+01	  0.031022044	1.368770E+02	  0.031022044	4.840600E+01	  0.031022044	1.449000E+00
57	  0.031222444	-3.393700E+01	  0.031222444	1.413970E+02	  0.031222444	4.843800E+01	  0.031222444	1.215000E+00
58	  0.031422846	-3.379700E+01	  0.031422846	1.413180E+02	  0.031422846	4.841500E+01	  0.031422846	1.236000E+00
59	  0.031623244	-3.442600E+01	  0.031623244	1.410570E+02	  0.031623244	4.853000E+01	  0.031623244	1.159000E+00
60	  0.031823646	-3.474800E+01	  0.031823646	1.498260E+02	  0.031823646	4.843400E+01	  0.031823646	8.910000E-01
61	  0.032024048	-3.502800E+01	  0.032024048	1.474320E+02	  0.032024048	4.851900E+01	  0.032024048	9.260000E-01
62	  0.032224450	-3.476000E+01	  0.032224450	1.440230E+02	  0.032224450	4.853100E+01	  0.032224450	1.042000E+00
63	  0.032424849	-3.454400E+01	  0.032424849	1.469150E+02	  0.032424849	4.844400E+01	  0.032424849	9.910000E-01
64	  0.032625251	-3.436000E+01	  0.032625251	1.456950E+02	  0.032625251	4.843200E+01	  0.032625251	1.045000E+00
65	  0.032825653	-3.398300E+01	  0.032825653	1.489500E+02	  0.032825653	4.830600E+01	  0.032825653	9.960000E-01
66	  0.033026051	-3.348000E+01	  0.033026051	1.501380E+02	  0.033026051	4.818500E+01	  0.033026051	1.016000E+00
67	  0.033226453	-3.359200E+01	  0.033226453	1.517310E+02	  0.033226453	4.818200E+01	  0.033226453	9.540000E-01
68	  0.033426855	-3.387500E+01	  0.033426855	1.482710E+02	  0.033426855	4.829600E+01	  0.033426855	1.028000E+00
69	  0.033627257	-3.283600E+01	  0.033627257	1.523620E+02	  0.033627257	4.800800E+01	  0.033627257	1.016000E+00
70	  0.033827655	-3.314700E+01	  0.033827655	1.481480E+02	  0.033827655	4.815100E+01	  0.033827655	1.119000E+00
71	  0.034028057	-3.299200E+01	  0.034028057	1.456580E+02	  0.034028057	4.816800E+01	  0.034028057	1.218000E+00
72	  0.034228459	-3.265000E+01	  0.034228459	1.495650E+02	  0.034228459	4.801600E+01	  0.034228459	1.134000E+00
73	  0.034428857	-3.289700E+01	  0.034428857	1.479010E+02	  0.034428857	4.810300E+01	  0.034428857	1.158000E+00
74	  0.034629259	-3.253600E+01	  0.034629259	1.476010E+02	  0.034629259	4.803000E+01	  0.034629259	1.216000E+00
75	  0.034829661	-3.264600E+01	  0.034829661	1.484560E+02	  0.034829661	4.803700E+01	  0.034829661	1.172000E+00
76	  0.035030060	-3.242100E+01	  0.035030060	1.422210E+02	  0.035030060	4.812300E+01	  0.035030060	1.411000E+00
77	  0.035230462	-3.217200E+01	  0.035230462	1.423330E+02	  0.035230462	4.806600E+01	  0.035230462	1.447000E+00
78	  0.035430863	-3.243900E+01	  0.035430863	1.434450E+02	  0.035430863	4.809800E+01	  0.035430863	1.368000E+00
79	  0.035631265	-3.221700E+01	  0.035631265	1.419780E+02	  0.035631265	4.808500E+01	  0.035631265	1.452000E+00
80	  0.035831664	-3.241200E+01	  0.035831664	1.405800E+02	  0.035831664	4.816100E+01	  0.035831664	1.465000E+00
81	  0.036032066	-3.191800E+01	  0.036032066	1.422850E+02	  0.036032066	4.801000E+01	  0.036032066	1.490000E+00
82	  0.036232468	-3.189900E+01	  0.036232468	1.388350E+02	  0.036232468	4.809600E+01	  0.036232468	1.610000E+00
83	  0.036432866	-3.214800E+01	  0.036432866	1.392920E+02	  0.036432866	4.813800E+01	  0.036432866	1.551000E+00
84	  0.036633268	-3.144000E+01	  0.036633268	1.386380E+02	  0.036633268	4.799900E+01	  0.036633268	1.700000E+00
85	  0.036833670	-3.159400E+01	  0.036833670	1.362500E+02	  0.036833670	4.810200E+01	  0.036833670	1.752000E+00
86	  0.037034072	-3.164400E+01	  0.037034072	1.366540E+02	  0.037034072	4.810200E+01	  0.037034072	1.729000E+00
87	  0.037234470	-3.172600E+01	  0.037234470	1.363750E+02	  0.037234470	4.812700E+01	  0.037234470	1.722000E+00
88	  0.037434869	-3.166100E+01	  0.037434869	1.361220E+02	  0.037434869	4.812100E+01	  0.037434869	1.743000E+00
89	  0.037635271	-3.142300E+01	  0.037635271	1.352670E+02	  0.037635271	4.809500E+01	  0.037635271	1.818000E+00
90	  0.037835669	-3.150900E+01	  0.037835669	1.360670E+02	  0.037835669	4.808900E+01	  0.037835669	1.774000E+00
91	  0.038036071	-3.173000E+01	  0.038036071	1.362960E+02	  0.038036071	4.813000E+01	  0.038036071	1.724000E+00
92	  0.038236473	-3.103400E+01	  0.038236473	1.341700E+02	  0.038236473	4.804300E+01	  0.038236473	1.936000E+00
93	  0.038436871	-3.167600E+01	  0.038436871	1.327660E+02	  0.038436871	4.822500E+01	  0.038436871	1.847000E+00
94	  0.038637273	-3.128600E+01	  0.038637273	1.327370E+02	  0.038637273	4.814500E+01	  0.038637273	1.929000E+00
95	  0.038837675	-3.113600E+01	  0.038837675	1.306350E+02	  0.038837675	4.818300E+01	  0.038837675	2.030000E+00
96	  0.039038073	-3.124100E+01	  0.039038073	1.314860E+02	  0.039038073	4.817600E+01	  0.039038073	1.980000E+00
97	  0.039238475	-3.119000E+01	  0.039238475	1.301900E+02	  0.039238475	4.820900E+01	  0.039238475	2.032000E+00
98	  0.039438877	-3.126100E+01	  0.039438877	1.312590E+02	  0.039438877	4.818800E+01	  0.039438877	1.982000E+00
99	  0.039639279	-3.120400E+01	  0.039639279	1.294740E+02	  0.039639279	4.823700E+01	  0.039639279	2.051000E+00
100	  0.039839678	-3.138100E+01	  0.039839678	1.292090E+02	  0.039839678	4.828100E+01	  0.039839678	2.019000E+00
101	  0.040040080	-3.127800E+01	  0.040040080	1.305760E+02	  0.040040080	4.821400E+01	  0.040040080	2.000000E+00
102	  0.040240481	-3.124500E+01	  0.040240481	1.291860E+02	  0.040240481	4.825500E+01	  0.040240481	2.051000E+00
103	  0.040440880	-3.135000E+01	  0.040440880	1.277050E+02	  0.040440880	4.832700E+01	  0.040440880	2.071000E+00
104	  0.040641282	-3.115800E+01	  0.040641282	1.299830E+02	  0.040641282	4.821000E+01	  0.040641282	2.046000E+00
105	  0.040841684	-3.132500E+01	  0.040841684	1.294140E+02	  0.040841684	4.826300E+01	  0.040841684	2.025000E+00
106	  0.041042086	-3.096600E+01	  0.041042086	1.293100E+02	  0.041042086	4.819300E+01	  0.041042086	2.111000E+00
107	  0.041242484	-3.091300E+01	  0.041242484	1.280600E+02	  0.041242484	4.822700E+01	  0.041242484	2.163000E+00
108	  0.041442886	-3.094500E+01	  0.041442886	1.288910E+02	  0.041442886	4.820400E+01	  0.041442886	2.129000E+00
109	  0.041643288	-3.081800E+01	  0.041643288	1.272950E+02	  0.041643288	4.823600E+01	  0.041643288	2.210000E+00
110	  0.041843686	-3.073400E+01	  0.041843686	1.269410E+02	  0.041843686	4.823200E+01	  0.041843686	2.242000E+00
111	  0.042044088	-3.088600E+01	  0.042044088	1.265810E+02	  0.042044088	4.827600E+01	  0.042044088	2.215000E+00
112	  0.042244490	-3.091100E+01	  0.042244490	1.254890E+02	  0.042244490	4.832200E+01	  0.042244490	2.242000E+00
113	  0.042444889	-3.029900E+01	  0.042444889	1.256200E+02	  0.042444889	4.819300E+01	  0.042444889	2.395000E+00
114	  0.042645290	-3.039800E+01	  0.042645290	1.229720E+02	  0.042645290	4.832100E+01	  0.042645290	2.451000E+00
115	  0.042845692	-3.045400E+01	  0.042845692	1.249850E+02	  0.042845692	4.825000E+01	  0.042845692	2.374000E+00
116	  0.043046094	-3.010600E+01	  0.043046094	1.251570E+02	  0.043046094	4.817100E+01	  0.043046094	2.462000E+00
117	  0.043246493	-3.044300E+01	  0.043246493	1.233820E+02	  0.043246493	4.831300E+01	  0.043246493	2.426000E+00
118	  0.043446895	-3.032600E+01	  0.043446895	1.236680E+02	  0.043446895	4.827800E+01	  0.043446895	2.449000E+00
119	  0.043647297	-3.012700E+01	  0.043647297	1.243860E+02	  0.043647297	4.820700E+01	  0.043647297	2.481000E+00
120	  0.043847695	-2.982100E+01	  0.043847695	1.235090E+02	  0.043847695	4.818000E+01	  0.043847695	2.596000E+00
121	  0.044048097	-2.984400E+01	  0.044048097	1.219230E+02	  0.044048097	4.825500E+01	  0.044048097	2.639000E+00
122	  0.044248499	-2.996400E+01	  0.044248499	1.216680E+02	  0.044248499	4.829000E+01	  0.044248499	2.612000E+00
123	  0.044448901	-3.000600E+01	  0.044448901	1.222300E+02	  0.044448901	4.827400E+01	  0.044448901	2.583000E+00
124	  0.044649299	-2.964200E+01	  0.044649299	1.219870E+02	  0.044649299	4.821000E+01	  0.044649299	2.697000E+00
125	  0.044849701	-2.943700E+01	  0.044849701	1.216220E+02	  0.044849701	4.818300E+01	  0.044849701	2.771000E+00
126	  0.045050103	-2.967400E+01	  0.045050103	1.202620E+02	  0.045050103	4.829500E+01	  0.045050103	2.741000E+00
127	  0.045250501	-2.946100E+01	  0.045250501	1.209250E+02	  0.045250501	4.822100E+01	  0.045250501	2.786000E+00
128	  0.045450903	-2.939300E+01	  0.045450903	1.196840E+02	  0.045450903	4.826500E+01	  0.045450903	2.847000E+00
129	  0.045651305	-2.908200E+01	  0.045651305	1.193320E+02	  0.045651305	4.821800E+01	  0.045651305	2.958000E+00
130	  0.045851704	-2.905900E+01	  0.045851704	1.183380E+02	  0.045851704	4.826300E+01	  0.045851704	2.997000E+00
131	  0.046052106	-2.921800E+01	  0.046052106	1.177170E+02	  0.046052106	4.832600E+01	  0.046052106	2.963000E+00
132	  0.046252504	-2.906800E+01	  0.046252504	1.160750E+02	  0.046252504	4.838000E+01	  0.046252504	3.063000E+00
133	  0.046452906	-2.878200E+01	  0.046452906	1.163110E+02	  0.046452906	4.831100E+01	  0.046452906	3.155000E+00
134	  0.046653304	-2.868400E+01	  0.046653304	1.164520E+02	  0.046653304	4.828400E+01	  0.046653304	3.185000E+00
135	  0.046853706	-2.864900E+01	  0.046853706	1.142010E+02	  0.046853706	4.839900E+01	  0.046853706	3.266000E+00
136	  0.047054108	-2.862900E+01	  0.047054108	1.157500E+02	  0.047054108	4.831000E+01	  0.047054108	3.226000E+00
137	  0.047254506	-2.821200E+01	  0.047254506	1.143550E+02	  0.047254506	4.830300E+01	  0.047254506	3.424000E+00
138	  0.047454908	-2.848400E+01	  0.047454908	1.129450E+02	  0.047454908	4.843800E+01	  0.047454908	3.363000E+00
139	  0.047655310	-2.824900E+01	  0.047655310	1.111610E+02	  0.047655310	4.849800E+01	  0.047655310	3.504000E+00
140	  0.047855709	-2.839700E+01	  0.047855709	1.129420E+02	  0.047855709	4.842100E+01	  0.047855709	3.396000E+00
141	  0.048056111	-2.811600E+01	  0.048056111	1.122990E+02	  0.048056111	4.840500E+01	  0.048056111	3.523000E+00
142	  0.048256513	-2.807600E+01	  0.048256513	1.112680E+02	  0.048256513	4.845900E+01	  0.048256513	3.569000E+00
143	  0.048456915	-2.811300E+01	  0.048456915	1.094530E+02	  0.048456915	4.857600E+01	  0.048456915	3.605000E+00
144	  0.048657313	-2.830500E+01	  0.048657313	1.081130E+02	  0.048657313	4.869000E+01	  0.048657313	3.562000E+00
145	  0.048857715	-2.794900E+01	  0.048857715	1.079580E+02	  0.048857715	4.864000E+01	  0.048857715	3.711000E+00
146	  0.049058117	-2.792000E+01	  0.049058117	1.079190E+02	  0.049058117	4.863800E+01	  0.049058117	3.724000E+00
147	  0.049258515	-2.783900E+01	  0.049258515	1.052210E+02	  0.049258515	4.879800E+01	  0.049258515	3.825000E+00
148	  0.049458917	-2.789700E+01	  0.049458917	1.062840E+02	  0.049458917	4.873800E+01	  0.049458917	3.775000E+00
149	  0.049659319	-2.756800E+01	  0.049659319	1.044890E+02	  0.049659319	4.880500E+01	  0.049659319	3.960000E+00
150	  0.049859721	-2.769900E+01	  0.049859721	1.033710E+02	  0.049859721	4.889900E+01	  0.049859721	3.928000E+00
151	  0.050060119	-2.761100E+01	  0.050060119	1.045120E+02	  0.050060119	4.881000E+01	  0.050060119	3.941000E+00
152	  0.050260521	-2.738900E+01	  0.050260521	1.034410E+02	  0.050260521	4.884900E+01	  0.050260521	4.065000E+00
153	  0.050460923	-2.763700E+01	  0.050460923	1.016510E+02	  0.050460923	4.900700E+01	  0.050460923	3.991000E+00
154	  0.050661322	-2.753300E+01	  0.050661322	1.018670E+02	  0.050661322	4.897900E+01	  0.050661322	4.033000E+00
155	  0.050861724	-2.751500E+01	  0.050861724	1.008470E+02	  0.050861724	4.904700E+01	  0.050861724	4.062000E+00
156	  0.051062126	-2.753400E+01	  0.051062126	1.005710E+02	  0.051062126	4.906800E+01	  0.051062126	4.059000E+00
157	  0.051262524	-2.770000E+01	  0.051262524	1.009510E+02	  0.051262524	4.906300E+01	  0.051262524	3.976000E+00
158	  0.051462926	-2.729300E+01	  0.051462926	9.910800E+01	  0.051462926	4.914300E+01	  0.051462926	4.198000E+00
159	  0.051663328	-2.723800E+01	  0.051663328	9.765200E+01	  0.051663328	4.924200E+01	  0.051663328	4.249000E+00
160	  0.051863730	-2.737900E+01	  0.051863730	9.674800E+01	  0.051863730	4.932200E+01	  0.051863730	4.196000E+00
161	  0.052064128	-2.717100E+01	  0.052064128	9.531300E+01	  0.052064128	4.940800E+01	  0.052064128	4.317000E+00
162	  0.052264530	-2.733000E+01	  0.052264530	9.470000E+01	  0.052264530	4.946700E+01	  0.052264530	4.247000E+00
163	  0.052464932	-2.718100E+01	  0.052464932	9.498900E+01	  0.052464932	4.943300E+01	  0.052464932	4.317000E+00
164	  0.052665330	-2.713500E+01	  0.052665330	9.436300E+01	  0.052665330	4.947600E+01	  0.052665330	4.347000E+00
165	  0.052865732	-2.741000E+01	  0.052865732	9.436900E+01	  0.052865732	4.949800E+01	  0.052865732	4.213000E+00
166	  0.053066134	-2.716800E+01	  0.053066134	9.182900E+01	  0.053066134	4.966900E+01	  0.053066134	4.358000E+00
167	  0.053266536	-2.733700E+01	  0.053266536	9.083900E+01	  0.053266536	4.975300E+01	  0.053266536	4.282000E+00
168	  0.053466935	-2.729000E+01	  0.053466935	9.005900E+01	  0.053466935	4.980900E+01	  0.053466935	4.311000E+00
169	  0.053667337	-2.722300E+01	  0.053667337	8.965200E+01	  0.053667337	4.983700E+01	  0.053667337	4.347000E+00
170	  0.053867739	-2.730800E+01	  0.053867739	8.940700E+01	  0.053867739	4.985800E+01	  0.053867739	4.306000E+00
171	  0.054068137	-2.729600E+01	  0.054068137	8.785500E+01	  0.054068137	4.997500E+01	  0.054068137	4.319000E+00
172	  0.054268539	-2.735600E+01	  0.054268539	8.744500E+01	  0.054268539	5.000700E+01	  0.054268539	4.291000E+00
173	  0.054468941	-2.735900E+01	  0.054468941	8.696500E+01	  0.054468941	5.004300E+01	  0.054468941	4.291000E+00
174	  0.054669339	-2.727100E+01	  0.054669339	8.543900E+01	  0.054669339	5.015700E+01	  0.054669339	4.337000E+00
175	  0.054869737	-2.732000E+01	  0.054869737	8.548400E+01	  0.054869737	5.015400E+01	  0.054869737	4.312000E+00
176	  0.055070139	-2.736500E+01	  0.055070139	8.484800E+01	  0.055070139	5.020200E+01	  0.055070139	4.290000E+00
177	  0.055270538	-2.742300E+01	  0.055270538	8.371000E+01	  0.055270538	5.028700E+01	  0.055270538	4.260000E+00
178	  0.055470940	-2.742600E+01	  0.055470940	8.276500E+01	  0.055470940	5.035700E+01	  0.055470940	4.257000E+00
179	  0.055671342	-2.754500E+01	  0.055671342	8.134000E+01	  0.055671342	5.046000E+01	  0.055671342	4.192000E+00
180	  0.055871744	-2.759400E+01	  0.055871744	8.196000E+01	  0.055871744	5.041300E+01	  0.055871744	4.171000E+00
181	  0.056072142	-2.768800E+01	  0.056072142	8.093600E+01	  0.056072142	5.048500E+01	  0.056072142	4.121000E+00
182	  0.056272544	-2.758900E+01	  0.056272544	7.990700E+01	  0.056272544	5.056400E+01	  0.056272544	4.162000E+00
183	  0.056472946	-2.751900E+01	  0.056472946	8.127900E+01	  0.056472946	5.046600E+01	  0.056472946	4.205000E+00
184	  0.056673344	-2.772800E+01	  0.056673344	7.879300E+01	  0.056673344	5.063800E+01	  0.056673344	4.087000E+00
185	  0.056873746	-2.767500E+01	  0.056873746	7.737400E+01	  0.056873746	5.074400E+01	  0.056873746	4.099000E+00
186	  0.057074148	-2.797600E+01	  0.057074148	7.860900E+01	  0.057074148	5.063800E+01	  0.057074148	3.969000E+00
187	  0.057274550	-2.774400E+01	  0.057274550	7.676400E+01	  0.057274550	5.078400E+01	  0.057274550	4.060000E+00
188	  0.057474948	-2.804300E+01	  0.057474948	7.666300E+01	  0.057474948	5.076900E+01	  0.057474948	3.919000E+00
189	  0.057675350	-2.796200E+01	  0.057675350	7.595500E+01	  0.057675350	5.082500E+01	  0.057675350	3.949000E+00
190	  0.057875752	-2.811900E+01	  0.057875752	7.603400E+01	  0.057875752	5.080700E+01	  0.057875752	3.878000E+00
191	  0.058076151	-2.801200E+01	  0.058076151	7.624300E+01	  0.058076151	5.080100E+01	  0.058076151	3.929000E+00
192	  0.058276553	-2.807900E+01	  0.058276553	7.443900E+01	  0.058276553	5.092000E+01	  0.058276553	3.876000E+00
193	  0.058476955	-2.827300E+01	  0.058476955	7.416700E+01	  0.058476955	5.092100E+01	  0.058476955	3.785000E+00
194	  0.058677353	-2.817100E+01	  0.058677353	7.258600E+01	  0.058677353	5.103800E+01	  0.058677353	3.807000E+00
195	  0.058877755	-2.855200E+01	  0.058877755	7.374700E+01	  0.058877755	5.092300E+01	  0.058877755	3.657000E+00
196	  0.059078157	-2.845500E+01	  0.059078157	7.323300E+01	  0.059078157	5.096600E+01	  0.059078157	3.692000E+00
197	  0.059278559	-2.856400E+01	  0.059278559	7.170400E+01	  0.059278559	5.105500E+01	  0.059278559	3.621000E+00
198	  0.059478957	-2.848200E+01	  0.059478957	7.002000E+01	  0.059478957	5.117300E+01	  0.059478957	3.627000E+00
199	  0.059679359	-2.882800E+01	  0.059679359	7.055400E+01	  0.059679359	5.109800E+01	  0.059679359	3.491000E+00
200	  0.059879761	-2.880100E+01	  0.059879761	6.971100E+01	  0.059879761	5.115400E+01	  0.059879761	3.488000E+00
201	  0.060080159	-2.880900E+01	  0.060080159	7.065400E+01	  0.060080159	5.109400E+01	  0.060080159	3.501000E+00
202	  0.060280561	-2.923000E+01	  0.060280561	7.071700E+01	  0.060280561	5.104400E+01	  0.060280561	3.333000E+00
203	  0.060480963	-2.908600E+01	  0.060480963	6.903200E+01	  0.060480963	5.116100E+01	  0.060480963	3.360000E+00
204	  0.060681365	-2.928100E+01	  0.060681365	7.092100E+01	  0.060681365	5.102600E+01	  0.060681365	3.316000E+00
205	  0.060881764	-2.940300E+01	  0.060881764	6.901500E+01	  0.060881764	5.112400E+01	  0.060881764	3.237000E+00
206	  0.061082166	-2.956500E+01	  0.061082166	6.743300E+01	  0.061082166	5.119400E+01	  0.061082166	3.146000E+00
207	  0.061282568	-2.955000E+01	  0.061282568	6.981100E+01	  0.061282568	5.106100E+01	  0.061282568	3.195000E+00
208	  0.061482966	-2.953100E+01	  0.061482966	6.989100E+01	  0.061482966	5.105900E+01	  0.061482966	3.204000E+00
209	  0.061683368	-2.983100E+01	  0.061683368	6.971200E+01	  0.061683368	5.103600E+01	  0.061683368	3.089000E+00
210	  0.061883770	-2.995300E+01	  0.061883770	7.130600E+01	  0.061883770	5.093500E+01	  0.061883770	3.070000E+00
211	  0.062084168	-2.999900E+01	  0.062084168	6.876700E+01	  0.062084168	5.106800E+01	  0.062084168	3.013000E+00
212	  0.062284570	-3.002000E+01	  0.062284570	7.006700E+01	  0.062284570	5.099600E+01	  0.062284570	3.027000E+00
213	  0.062484972	-3.033700E+01	  0.062484972	6.811700E+01	  0.062484972	5.106400E+01	  0.062484972	2.885000E+00
214	  0.062685370	-2.995100E+01	  0.062685370	6.895900E+01	  0.062685370	5.106300E+01	  0.062685370	3.034000E+00
215	  0.062885776	-3.075600E+01	  0.062885776	7.071000E+01	  0.062885776	5.088900E+01	  0.062885776	2.786000E+00
216	  0.063086174	-3.081100E+01	  0.063086174	7.406400E+01	  0.063086174	5.071800E+01	  0.063086174	2.811000E+00
217	  0.063286573	-3.032200E+01	  0.063286573	7.027700E+01	  0.063286573	5.095400E+01	  0.063286573	2.925000E+00
218	  0.063486971	-3.046100E+01	  0.063486971	7.125500E+01	  0.063486971	5.089000E+01	  0.063486971	2.892000E+00
219	  0.063687377	-3.073100E+01	  0.063687377	6.989500E+01	  0.063687377	5.093200E+01	  0.063687377	2.782000E+00
220	  0.063887775	-3.143300E+01	  0.063887775	7.201200E+01	  0.063887775	5.076800E+01	  0.063887775	2.591000E+00
221	  0.064088173	-3.031900E+01	  0.064088173	7.035200E+01	  0.064088173	5.095000E+01	  0.064088173	2.927000E+00
222	  0.064288579	-3.066500E+01	  0.064288579	7.607400E+01	  0.064288579	5.062700E+01	  0.064288579	2.881000E+00
223	  0.064488977	-3.092800E+01	  0.064488977	7.569500E+01	  0.064488977	5.062900E+01	  0.064488977	2.790000E+00
224	  0.064689375	-3.114200E+01	  0.064689375	7.504400E+01	  0.064689375	5.064700E+01	  0.064689375	2.715000E+00
225	  0.064889781	-3.122000E+01	  0.064889781	7.808200E+01	  0.064889781	5.049700E+01	  0.064889781	2.717000E+00
226	  0.065090179	-3.062100E+01	  0.065090179	7.545900E+01	  0.065090179	5.066100E+01	  0.065090179	2.889000E+00
227	  0.065290578	-3.144300E+01	  0.065290578	7.780400E+01	  0.065290578	5.049900E+01	  0.065290578	2.645000E+00
228	  0.065490983	-3.115400E+01	  0.065490983	7.720600E+01	  0.065490983	5.054200E+01	  0.065490983	2.731000E+00
229	  0.065691382	-3.122800E+01	  0.065691382	8.102200E+01	  0.065691382	5.035500E+01	  0.065691382	2.732000E+00
230	  0.065891780	-3.080500E+01	  0.065891780	7.829500E+01	  0.065891780	5.050700E+01	  0.065891780	2.853000E+00
231	  0.066092186	-3.087200E+01	  0.066092186	8.226900E+01	  0.066092186	5.030500E+01	  0.066092186	2.853000E+00
232	  0.066292584	-3.100500E+01	  0.066292584	8.205300E+01	  0.066292584	5.031200E+01	  0.066292584	2.809000E+00
233	  0.066492982	-3.144000E+01	  0.066492982	8.528900E+01	  0.066492982	5.014800E+01	  0.066492982	2.679000E+00
234	  0.066693388	-3.084400E+01	  0.066693388	8.371000E+01	  0.066693388	5.023300E+01	  0.066693388	2.867000E+00
235	  0.066893786	-3.059500E+01	  0.066893786	8.197400E+01	  0.066893786	5.032700E+01	  0.066893786	2.945000E+00
236	  0.067094192	-3.073900E+01	  0.067094192	8.143100E+01	  0.067094192	5.035100E+01	  0.067094192	2.894000E+00
237	  0.067294590	-3.075800E+01	  0.067294590	8.652100E+01	  0.067294590	5.009200E+01	  0.067294590	2.900000E+00
238	  0.067494988	-3.095200E+01	  0.067494988	8.703800E+01	  0.067494988	5.006600E+01	  0.067494988	2.836000E+00
239	  0.067695394	-3.039100E+01	  0.067695394	8.744100E+01	  0.067695394	5.004300E+01	  0.067695394	3.025000E+00
240	  0.067895792	-3.057400E+01	  0.067895792	8.818300E+01	  0.067895792	5.000600E+01	  0.067895792	2.961000E+00
241	  0.068096191	-3.070800E+01	  0.068096191	8.857000E+01	  0.068096191	4.998700E+01	  0.068096191	2.915000E+00
242	  0.068296596	-3.038500E+01	  0.068296596	9.014400E+01	  0.068296596	4.990000E+01	  0.068296596	3.021000E+00
243	  0.068496995	-3.034900E+01	  0.068496995	9.022000E+01	  0.068496995	4.989600E+01	  0.068496995	3.033000E+00
244	  0.068697393	-3.033000E+01	  0.068697393	8.879000E+01	  0.068697393	4.997100E+01	  0.068697393	3.044000E+00
245	  0.068897791	-3.007800E+01	  0.068897791	8.811500E+01	  0.068897791	5.000400E+01	  0.068897791	3.135000E+00
246	  0.069098189	-3.025800E+01	  0.069098189	8.578600E+01	  0.069098189	5.013100E+01	  0.069098189	3.072000E+00
247	  0.069298595	-3.007300E+01	  0.069298595	8.941300E+01	  0.069298595	4.993300E+01	  0.069298595	3.134000E+00
248	  0.069498993	-2.960400E+01	  0.069498993	9.356200E+01	  0.069498993	4.968600E+01	  0.069498993	3.286000E+00
249	  0.069699399	-2.933700E+01	  0.069699399	9.151100E+01	  0.069699399	4.979400E+01	  0.069699399	3.401000E+00
250	  0.069899797	-2.954200E+01	  0.069899797	9.274700E+01	  0.069899797	4.973000E+01	  0.069899797	3.315000E+00
251	  0.070100196	-2.910000E+01	  0.070100196	9.075100E+01	  0.070100196	4.983100E+01	  0.070100196	3.499000E+00
252	  0.070300601	-2.930600E+01	  0.070300601	9.120100E+01	  0.070300601	4.981100E+01	  0.070300601	3.415000E+00
253	  0.070501000	-2.887100E+01	  0.070501000	9.259300E+01	  0.070501000	4.970800E+01	  0.070501000	3.580000E+00
254	  0.070701398	-2.869700E+01	  0.070701398	9.415700E+01	  0.070701398	4.960100E+01	  0.070701398	3.639000E+00
255	  0.070901804	-2.877000E+01	  0.070901804	9.244300E+01	  0.070901804	4.971300E+01	  0.070901804	3.623000E+00
256	  0.071102202	-2.866700E+01	  0.071102202	9.506300E+01	  0.071102202	4.954200E+01	  0.071102202	3.643000E+00
257	  0.071302600	-2.853100E+01	  0.071302600	9.263400E+01	  0.071302600	4.968900E+01	  0.071302600	3.722000E+00
258	  0.071503006	-2.867700E+01	  0.071503006	9.199400E+01	  0.071503006	4.973700E+01	  0.071503006	3.665000E+00
259	  0.071703404	-2.847100E+01	  0.071703404	9.214500E+01	  0.071703404	4.971700E+01	  0.071703404	3.751000E+00
260	  0.071903802	-2.837600E+01	  0.071903802	9.327700E+01	  0.071903802	4.963800E+01	  0.071903802	3.784000E+00
261	  0.072104208	-2.801400E+01	  0.072104208	9.155800E+01	  0.072104208	4.973400E+01	  0.072104208	3.958000E+00
262	  0.072304606	-2.779800E+01	  0.072304606	9.102700E+01	  0.072304606	4.976100E+01	  0.072304606	4.061000E+00
263	  0.072505005	-2.781200E+01	  0.072505005	8.917500E+01	  0.072505005	4.989300E+01	  0.072505005	4.065000E+00
264	  0.072705410	-2.768100E+01	  0.072705410	9.048000E+01	  0.072705410	4.979500E+01	  0.072705410	4.119000E+00
265	  0.072905809	-2.778600E+01	  0.072905809	9.100600E+01	  0.072905809	4.976200E+01	  0.072905809	4.066000E+00
266	  0.073106214	-2.763200E+01	  0.073106214	9.096500E+01	  0.073106214	4.975800E+01	  0.073106214	4.139000E+00
267	  0.073306613	-2.755800E+01	  0.073306613	8.935300E+01	  0.073306613	4.987100E+01	  0.073306613	4.185000E+00
268	  0.073507011	-2.763400E+01	  0.073507011	8.913300E+01	  0.073507011	4.989000E+01	  0.073507011	4.149000E+00
269	  0.073707417	-2.745700E+01	  0.073707417	8.911000E+01	  0.073707417	4.988600E+01	  0.073707417	4.235000E+00
270	  0.073907815	-2.705200E+01	  0.073907815	8.928900E+01	  0.073907815	4.985800E+01	  0.073907815	4.435000E+00
271	  0.074108213	-2.723800E+01	  0.074108213	8.915300E+01	  0.074108213	4.987500E+01	  0.074108213	4.342000E+00
272	  0.074308619	-2.709000E+01	  0.074308619	8.625800E+01	  0.074308619	5.009300E+01	  0.074308619	4.427000E+00
273	  0.074509017	-2.719800E+01	  0.074509017	8.889900E+01	  0.074509017	4.989300E+01	  0.074509017	4.364000E+00
274	  0.074709415	-2.707600E+01	  0.074709415	8.628100E+01	  0.074709415	5.009100E+01	  0.074709415	4.435000E+00
275	  0.074909821	-2.676000E+01	  0.074909821	8.682600E+01	  0.074909821	5.004300E+01	  0.074909821	4.598000E+00
276	  0.075110219	-2.682200E+01	  0.075110219	8.775300E+01	  0.075110219	4.997000E+01	  0.075110219	4.562000E+00
277	  0.075310618	-2.704700E+01	  0.075310618	8.530100E+01	  0.075310618	5.016700E+01	  0.075310618	4.451000E+00
278	  0.075511023	-2.672700E+01	  0.075511023	8.378800E+01	  0.075511023	5.028800E+01	  0.075511023	4.618000E+00
279	  0.075711422	-2.670000E+01	  0.075711422	8.597500E+01	  0.075711422	5.011100E+01	  0.075711422	4.632000E+00
280	  0.075911827	-2.677000E+01	  0.075911827	8.524200E+01	  0.075911827	5.017000E+01	  0.075911827	4.595000E+00
281	  0.076112226	-2.654000E+01	  0.076112226	8.461500E+01	  0.076112226	5.022100E+01	  0.076112226	4.719000E+00
282	  0.076312624	-2.657400E+01	  0.076312624	8.611500E+01	  0.076312624	5.009800E+01	  0.076312624	4.699000E+00
283	  0.076513030	-2.673800E+01	  0.076513030	8.269100E+01	  0.076513030	5.037700E+01	  0.076513030	4.610000E+00
284	  0.076713428	-2.651800E+01	  0.076713428	8.460200E+01	  0.076713428	5.022200E+01	  0.076713428	4.731000E+00
285	  0.076913826	-2.647900E+01	  0.076913826	8.250700E+01	  0.076913826	5.039700E+01	  0.076913826	4.750000E+00
286	  0.077114232	-2.638500E+01	  0.077114232	8.377300E+01	  0.077114232	5.029200E+01	  0.077114232	4.805000E+00
287	  0.077314630	-2.660700E+01	  0.077314630	8.546300E+01	  0.077314630	5.015200E+01	  0.077314630	4.683000E+00
288	  0.077515028	-2.644400E+01	  0.077515028	8.440000E+01	  0.077515028	5.023900E+01	  0.077515028	4.772000E+00
289	  0.077715434	-2.695100E+01	  0.077715434	8.255400E+01	  0.077715434	5.038400E+01	  0.077715434	4.497000E+00
290	  0.077915832	-2.649500E+01	  0.077915832	8.549200E+01	  0.077915832	5.014800E+01	  0.077915832	4.743000E+00
291	  0.078116231	-2.654000E+01	  0.078116231	8.492300E+01	  0.078116231	5.019600E+01	  0.078116231	4.719000E+00
292	  0.078316636	-2.653100E+01	  0.078316636	8.504600E+01	  0.078316636	5.018500E+01	  0.078316636	4.724000E+00
293	  0.078517035	-2.665400E+01	  0.078517035	8.458500E+01	  0.078517035	5.022300E+01	  0.078517035	4.658000E+00
294	  0.078717433	-2.655000E+01	  0.078717433	8.429700E+01	  0.078717433	5.024700E+01	  0.078717433	4.714000E+00
295	  0.078917839	-2.621600E+01	  0.078917839	8.535600E+01	  0.078917839	5.015700E+01	  0.078917839	4.899000E+00
296	  0.079118237	-2.667500E+01	  0.079118237	8.479400E+01	  0.079118237	5.020600E+01	  0.079118237	4.646000E+00
297	  0.079318643	-2.636900E+01	  0.079318643	8.514500E+01	  0.079318643	5.017600E+01	  0.079318643	4.814000E+00
298	  0.079519041	-2.633400E+01	  0.079519041	8.678400E+01	  0.079519041	5.003800E+01	  0.079519041	4.829000E+00
299	  0.079719439	-2.633400E+01	  0.079719439	8.784900E+01	  0.079719439	4.994800E+01	  0.079719439	4.825000E+00
300	  0.079919845	-2.632000E+01	  0.079919845	8.871400E+01	  0.079919845	4.987500E+01	  0.079919845	4.828000E+00
301	  0.080120243	-2.615100E+01	  0.080120243	8.879600E+01	  0.080120243	4.986000E+01	  0.080120243	4.922000E+00
302	  0.080320641	-2.613600E+01	  0.080320641	8.887200E+01	  0.080320641	4.985300E+01	  0.080320641	4.930000E+00
303	  0.080521047	-2.591900E+01	  0.080521047	8.995600E+01	  0.080521047	4.974800E+01	  0.080521047	5.046000E+00
304	  0.080721445	-2.591000E+01	  0.080721445	9.033300E+01	  0.080721445	4.971400E+01	  0.080721445	5.047000E+00
305	  0.080921844	-2.557400E+01	  0.080921844	9.089100E+01	  0.080921844	4.964200E+01	  0.080921844	5.239000E+00
306	  0.081122249	-2.538000E+01	  0.081122249	9.067300E+01	  0.081122249	4.964800E+01	  0.081122249	5.359000E+00
307	  0.081322648	-2.540800E+01	  0.081322648	9.416500E+01	  0.081322648	4.932900E+01	  0.081322648	5.294000E+00
308	  0.081523046	-2.519200E+01	  0.081523046	9.198100E+01	  0.081523046	4.951000E+01	  0.081523046	5.459000E+00
309	  0.081723452	-2.484800E+01	  0.081723452	9.328800E+01	  0.081723452	4.935000E+01	  0.081723452	5.657000E+00
310	  0.081923850	-2.475700E+01	  0.081923850	9.399400E+01	  0.081923850	4.927100E+01	  0.081923850	5.703000E+00
311	  0.082124248	-2.462600E+01	  0.082124248	9.411700E+01	  0.082124248	4.924200E+01	  0.082124248	5.786000E+00
312	  0.082324654	-2.427600E+01	  0.082324654	9.493800E+01	  0.082324654	4.911200E+01	  0.082324654	6.003000E+00
313	  0.082525052	-2.403700E+01	  0.082525052	9.412200E+01	  0.082525052	4.916400E+01	  0.082525052	6.185000E+00
314	  0.082725458	-2.402300E+01	  0.082725458	9.531700E+01	  0.082725458	4.903500E+01	  0.082725458	6.169000E+00
315	  0.082925856	-2.356500E+01	  0.082925856	9.528500E+01	  0.082925856	4.896600E+01	  0.082925856	6.497000E+00
316	  0.083126254	-2.322500E+01	  0.083126254	9.520000E+01	  0.083126254	4.891700E+01	  0.083126254	6.752000E+00
317	  0.083326660	-2.305100E+01	  0.083326660	9.524400E+01	  0.083326660	4.888100E+01	  0.083326660	6.885000E+00
318	  0.083527058	-2.265500E+01	  0.083527058	9.400200E+01	  0.083527058	4.895900E+01	  0.083527058	7.234000E+00
319	  0.083727457	-2.255300E+01	  0.083727457	9.251800E+01	  0.083727457	4.912700E+01	  0.083727457	7.356000E+00
320	  0.083927862	-2.232900E+01	  0.083927862	9.273000E+01	  0.083927862	4.906300E+01	  0.083927862	7.539000E+00
321	  0.084128261	-2.206300E+01	  0.084128261	9.226800E+01	  0.084128261	4.907700E+01	  0.084128261	7.782000E+00
322	  0.084328659	-2.188600E+01	  0.084328659	9.174800E+01	  0.084328659	4.911600E+01	  0.084328659	7.953000E+00
323	  0.084529065	-2.141100E+01	  0.084529065	9.134200E+01	  0.084529065	4.908800E+01	  0.084529065	8.403000E+00
324	  0.084729463	-2.134500E+01	  0.084729463	9.052000E+01	  0.084729463	4.919500E+01	  0.084729463	8.489000E+00
325	  0.084929861	-2.115500E+01	  0.084929861	8.962000E+01	  0.084929861	4.929600E+01	  0.084929861	8.697000E+00
326	  0.085130267	-2.085800E+01	  0.085130267	8.936200E+01	  0.085130267	4.928400E+01	  0.085130267	9.002000E+00
327	  0.085330658	-2.052400E+01	  0.085330658	8.669200E+01	  0.085330658	4.965600E+01	  0.085330658	9.417000E+00
328	  0.085531056	-2.032400E+01	  0.085531056	8.609600E+01	  0.085531056	4.972600E+01	  0.085531056	9.647000E+00
329	  0.085731462	-2.021400E+01	  0.085731462	8.536100E+01	  0.085731462	4.983600E+01	  0.085731462	9.785000E+00
330	  0.085931860	-2.007800E+01	  0.085931860	8.448600E+01	  0.085931860	4.996900E+01	  0.085931860	9.955000E+00
331	  0.086132258	-1.981500E+01	  0.086132258	8.223800E+01	  0.086132258	5.034100E+01	  0.086132258	1.029700E+01
332	  0.086332664	-1.955800E+01	  0.086332664	8.157600E+01	  0.086332664	5.044200E+01	  0.086332664	1.061800E+01
333	  0.086533062	-1.941500E+01	  0.086533062	8.077700E+01	  0.086533062	5.058300E+01	  0.086533062	1.080400E+01
334	  0.086733460	-1.920300E+01	  0.086733460	7.971600E+01	  0.086733460	5.077600E+01	  0.086733460	1.108400E+01
335	  0.086933866	-1.903800E+01	  0.086933866	7.814200E+01	  0.086933866	5.108300E+01	  0.086933866	1.130900E+01
336	  0.087134264	-1.891700E+01	  0.087134264	7.715500E+01	  0.087134264	5.128300E+01	  0.087134264	1.147400E+01
337	  0.087334670	-1.873900E+01	  0.087334670	7.549900E+01	  0.087334670	5.163000E+01	  0.087334670	1.171500E+01
338	  0.087535068	-1.858000E+01	  0.087535068	7.364700E+01	  0.087535068	5.203500E+01	  0.087535068	1.192300E+01
339	  0.087735467	-1.840800E+01	  0.087735467	7.298600E+01	  0.087735467	5.219400E+01	  0.087735467	1.216400E+01
340	  0.087935872	-1.834300E+01	  0.087935872	7.080500E+01	  0.087935872	5.268800E+01	  0.087935872	1.222100E+01
341	  0.088136271	-1.819400E+01	  0.088136271	6.953900E+01	  0.088136271	5.300000E+01	  0.088136271	1.241300E+01
342	  0.088336669	-1.810000E+01	  0.088336669	6.859400E+01	  0.088336669	5.323700E+01	  0.088336669	1.253000E+01
343	  0.088537075	-1.794700E+01	  0.088537075	6.731700E+01	  0.088537075	5.357100E+01	  0.088537075	1.272500E+01
344	  0.088737473	-1.779800E+01	  0.088737473	6.581400E+01	  0.088737473	5.397100E+01	  0.088737473	1.290100E+01
345	  0.088937871	-1.778800E+01	  0.088937871	6.395900E+01	  0.088937871	5.442600E+01	  0.088937871	1.282900E+01
346	  0.089138277	-1.755700E+01	  0.089138277	6.245200E+01	  0.089138277	5.488400E+01	  0.089138277	1.312300E+01
347	  0.089338675	-1.742100E+01	  0.089338675	6.080300E+01	  0.089338675	5.535900E+01	  0.089338675	1.324600E+01
348	  0.089539073	-1.736500E+01	  0.089539073	5.916100E+01	  0.089539073	5.580800E+01	  0.089539073	1.322200E+01
349	  0.089739479	-1.724600E+01	  0.089739479	5.792300E+01	  0.089739479	5.619200E+01	  0.089739479	1.332500E+01
350	  0.089939877	-1.712200E+01	  0.089939877	5.572300E+01	  0.089939877	5.684500E+01	  0.089939877	1.334200E+01
351	  0.090140276	-1.709200E+01	  0.090140276	5.384700E+01	  0.090140276	5.736200E+01	  0.090140276	1.320400E+01
352	  0.090340681	-1.699700E+01	  0.090340681	5.217500E+01	  0.090340681	5.787600E+01	  0.090340681	1.318200E+01
353	  0.090541080	-1.702600E+01	  0.090541080	5.085000E+01	  0.090541080	5.820300E+01	  0.090541080	1.296900E+01
354	  0.090741485	-1.689800E+01	  0.090741485	4.902500E+01	  0.090741485	5.879700E+01	  0.090741485	1.295200E+01
355	  0.090941884	-1.687400E+01	  0.090941884	4.725700E+01	  0.090941884	5.928900E+01	  0.090941884	1.274200E+01
356	  0.091142282	-1.680800E+01	  0.091142282	4.572400E+01	  0.091142282	5.976000E+01	  0.091142282	1.262000E+01
357	  0.091342688	-1.679900E+01	  0.091342688	4.443800E+01	  0.091342688	6.010600E+01	  0.091342688	1.242600E+01
358	  0.091543086	-1.673200E+01	  0.091543086	4.287900E+01	  0.091543086	6.058900E+01	  0.091543086	1.227200E+01
359	  0.091743484	-1.679500E+01	  0.091743484	4.097600E+01	  0.091743484	6.099800E+01	  0.091743484	1.181600E+01
360	  0.091943890	-1.678100E+01	  0.091943890	3.947000E+01	  0.091943890	6.139100E+01	  0.091943890	1.154700E+01
361	  0.092144288	-1.677600E+01	  0.092144288	3.748000E+01	  0.092144288	6.188500E+01	  0.092144288	1.115000E+01
362	  0.092344686	-1.682400E+01	  0.092344686	3.643400E+01	  0.092344686	6.206500E+01	  0.092344686	1.085100E+01
363	  0.092545092	-1.673800E+01	  0.092545092	3.489900E+01	  0.092545092	6.255100E+01	  0.092545092	1.064500E+01
364	  0.092745490	-1.686600E+01	  0.092745490	3.334400E+01	  0.092745490	6.270900E+01	  0.092745490	1.009600E+01
365	  0.092945889	-1.678200E+01	  0.092945889	3.228100E+01	  0.092945889	6.307400E+01	  0.092945889	9.967000E+00
366	  0.093146294	-1.682800E+01	  0.093146294	3.076900E+01	  0.093146294	6.332600E+01	  0.093146294	9.533000E+00
367	  0.093346693	-1.686600E+01	  0.093346693	2.957400E+01	  0.093346693	6.351000E+01	  0.093346693	9.181000E+00
368	  0.093547091	-1.685000E+01	  0.093547091	2.801200E+01	  0.093547091	6.385000E+01	  0.093547091	8.800000E+00
369	  0.093747497	-1.694900E+01	  0.093747497	2.633000E+01	  0.093747497	6.399700E+01	  0.093747497	8.232000E+00
370	  0.093947895	-1.695900E+01	  0.093947895	2.593800E+01	  0.093947895	6.405100E+01	  0.093947895	8.115000E+00
371	  0.094148301	-1.695100E+01	  0.094148301	2.392700E+01	  0.094148301	6.441800E+01	  0.094148301	7.574000E+00
372	  0.094348699	-1.699800E+01	  0.094348699	2.299500E+01	  0.094348699	6.448800E+01	  0.094348699	7.263000E+00
373	  0.094549097	-1.701300E+01	  0.094549097	2.095900E+01	  0.094549097	6.478100E+01	  0.094549097	6.669000E+00
374	  0.094749503	-1.707800E+01	  0.094749503	2.023500E+01	  0.094749503	6.476200E+01	  0.094749503	6.396000E+00
375	  0.094949901	-1.704100E+01	  0.094949901	1.912100E+01	  0.094949901	6.499200E+01	  0.094949901	6.106000E+00
376	  0.095150299	-1.711000E+01	  0.095150299	1.720200E+01	  0.095150299	6.511000E+01	  0.095150299	5.478000E+00
377	  0.095350705	-1.710900E+01	  0.095350705	1.677700E+01	  0.095350705	6.516400E+01	  0.095350705	5.351000E+00
378	  0.095551103	-1.719300E+01	  0.095551103	1.548400E+01	  0.095551103	6.514700E+01	  0.095551103	4.898000E+00
379	  0.095751502	-1.723600E+01	  0.095751502	1.397600E+01	  0.095751502	6.522200E+01	  0.095751502	4.414000E+00
380	  0.095951907	-1.725000E+01	  0.095951907	1.282600E+01	  0.095951907	6.530600E+01	  0.095951907	4.055000E+00
381	  0.096152306	-1.731300E+01	  0.096152306	1.133000E+01	  0.096152306	6.530700E+01	  0.096152306	3.562000E+00
382	  0.096352704	-1.721300E+01	  0.096352704	1.099100E+01	  0.096352704	6.553900E+01	  0.096352704	3.511000E+00
383	  0.096553110	-1.735300E+01	  0.096553110	9.889000E+00	  0.096553110	6.533600E+01	  0.096553110	3.100000E+00
384	  0.096753508	-1.739700E+01	  0.096753508	8.271000E+00	  0.096753508	6.535300E+01	  0.096753508	2.584000E+00
385	  0.096953906	-1.746800E+01	  0.096953906	7.643000E+00	  0.096953906	6.524400E+01	  0.096953906	2.365000E+00
386	  0.097154312	-1.751500E+01	  0.097154312	5.971000E+00	  0.097154312	6.523000E+01	  0.097154312	1.839000E+00
387	  0.097354710	-1.754800E+01	  0.097354710	5.164000E+00	  0.097354710	6.519500E+01	  0.097354710	1.584000E+00
388	  0.097555116	-1.764500E+01	  0.097555116	4.099000E+00	  0.097555116	6.503400E+01	  0.097555116	1.240000E+00
389	  0.097755514	-1.760100E+01	  0.097755514	2.516000E+00	  0.097755514	6.515800E+01	  0.097755514	7.670000E-01
390	  0.097955912	-1.768300E+01	  0.097955912	1.178000E+00	  0.097955912	6.501100E+01	  0.097955912	3.550000E-01
391	  0.098156318	-1.765800E+01	  0.098156318	6.690000E-01	  0.098156318	6.506400E+01	  0.098156318	2.020000E-01
392	  0.098356716	-1.771800E+01	  0.098356716	-4.210000E-01	  0.098356716	6.494800E+01	  0.098356716	-1.260000E-01
393	  0.098557115	-1.775400E+01	  0.098557115	-1.502000E+00	  0.098557115	6.486800E+01	  0.098557115	-4.480000E-01
394	  0.098757520	-1.784100E+01	  0.098757520	-2.540000E+00	  0.098757520	6.468600E+01	  0.098757520	-7.470000E-01
395	  0.098957919	-1.788500E+01	  0.098957919	-3.246000E+00	  0.098957919	6.458600E+01	  0.098957919	-9.480000E-01
396	  0.099158317	-1.797000E+01	  0.099158317	-5.041000E+00	  0.099158317	6.437500E+01	  0.099158317	-1.452000E+00
397	  0.099358723	-1.797600E+01	  0.099358723	-5.579000E+00	  0.099358723	6.434600E+01	  0.099358723	-1.605000E+00
398	  0.099559121	-1.806200E+01	  0.099559121	-6.873000E+00	  0.099559121	6.413300E+01	  0.099559121	-1.949000E+00
399	  0.099759519	-1.807200E+01	  0.099759519	-7.660000E+00	  0.099759519	6.407900E+01	  0.099759519	-2.166000E+00
400	  0.099959925	-1.805900E+01	  0.099959925	-8.657000E+00	  0.099959925	6.405100E+01	  0.099959925	-2.449000E+00
401	  0.100160323	-1.817400E+01	  0.100160323	-9.760000E+00	  0.100160323	6.377900E+01	  0.100160323	-2.709000E+00
402	  0.100360721	-1.826200E+01	  0.100360721	-1.169800E+01	  0.100360721	6.349500E+01	  0.100360721	-3.192000E+00
403	  0.100561127	-1.844900E+01	  0.100561127	-1.169200E+01	  0.100561127	6.317300E+01	  0.100561127	-3.105000E+00
404	  0.100761525	-1.841000E+01	  0.100761525	-1.294400E+01	  0.100761525	6.314800E+01	  0.100761525	-3.447000E+00
405	  0.100961931	-1.836700E+01	  0.100961931	-1.338400E+01	  0.100961931	6.318700E+01	  0.100961931	-3.582000E+00
406	  0.101162329	-1.840600E+01	  0.101162329	-1.475100E+01	  0.101162329	6.300900E+01	  0.101162329	-3.911000E+00
407	  0.101362728	-1.863500E+01	  0.101362728	-1.634900E+01	  0.101362728	6.249300E+01	  0.101362728	-4.174000E+00
408	  0.101563133	-1.860500E+01	  0.101563133	-1.736300E+01	  0.101563133	6.244500E+01	  0.101563133	-4.437000E+00
409	  0.101763532	-1.881200E+01	  0.101763532	-1.752000E+01	  0.101763532	6.210700E+01	  0.101763532	-4.344000E+00
410	  0.101963930	-1.859700E+01	  0.101963930	-1.861500E+01	  0.101963930	6.233200E+01	  0.101963930	-4.742000E+00
411	  0.102164336	-1.885800E+01	  0.102164336	-1.939900E+01	  0.102164336	6.185200E+01	  0.102164336	-4.747000E+00
412	  0.102364734	-1.897100E+01	  0.102364734	-1.971000E+01	  0.102364734	6.165100E+01	  0.102364734	-4.741000E+00
413	  0.102565132	-1.888600E+01	  0.102565132	-2.290900E+01	  0.102565132	6.142400E+01	  0.102565132	-5.507000E+00
414	  0.102765530	-1.895700E+01	  0.102765530	-2.168200E+01	  0.102765530	6.146200E+01	  0.102765530	-5.186000E+00
415	  0.102965929	-1.905200E+01	  0.102965929	-2.345100E+01	  0.102965929	6.112500E+01	  0.102965929	-5.493000E+00
416	  0.103166327	-1.911700E+01	  0.103166327	-2.467900E+01	  0.103166327	6.089000E+01	  0.103166327	-5.698000E+00
417	  0.103366733	-1.903100E+01	  0.103366733	-2.380400E+01	  0.103366733	6.111300E+01	  0.103366733	-5.585000E+00
418	  0.103567131	-1.909000E+01	  0.103567131	-2.674700E+01	  0.103567131	6.066600E+01	  0.103567131	-6.139000E+00
419	  0.103767529	-1.915900E+01	  0.103767529	-2.802800E+01	  0.103767529	6.040800E+01	  0.103767529	-6.330000E+00
420	  0.103967935	-1.925800E+01	  0.103967935	-2.812400E+01	  0.103967935	6.027000E+01	  0.103967935	-6.263000E+00
421	  0.104168333	-1.921000E+01	  0.104168333	-3.018100E+01	  0.104168333	6.005000E+01	  0.104168333	-6.692000E+00
422	  0.104368731	-1.929700E+01	  0.104368731	-2.947800E+01	  0.104368731	6.003900E+01	  0.104368731	-6.482000E+00
423	  0.104569137	-1.954100E+01	  0.104569137	-3.032900E+01	  0.104569137	5.963300E+01	  0.104569137	-6.420000E+00
424	  0.104769535	-1.944300E+01	  0.104769535	-3.285000E+01	  0.104769535	5.939600E+01	  0.104769535	-6.948000E+00
425	  0.104969934	-1.963200E+01	  0.104969934	-3.283700E+01	  0.104969934	5.918700E+01	  0.104969934	-6.770000E+00
426	  0.105170339	-1.953000E+01	  0.105170339	-3.375300E+01	  0.105170339	5.916800E+01	  0.105170339	-7.018000E+00
427	  0.105370738	-1.980400E+01	  0.105370738	-3.566000E+01	  0.105370738	5.860300E+01	  0.105370738	-7.062000E+00
428	  0.105571143	-1.993000E+01	  0.105571143	-3.582600E+01	  0.105571143	5.845300E+01	  0.105571143	-6.969000E+00
429	  0.105771542	-1.978700E+01	  0.105771542	-3.692500E+01	  0.105771542	5.843500E+01	  0.105771542	-7.271000E+00
430	  0.105971940	-2.000600E+01	  0.105971940	-3.616300E+01	  0.105971940	5.832900E+01	  0.105971940	-6.948000E+00
431	  0.106172346	-1.970300E+01	  0.106172346	-3.936300E+01	  0.106172346	5.814400E+01	  0.106172346	-7.713000E+00
432	  0.106372744	-2.011500E+01	  0.106372744	-4.030500E+01	  0.106372744	5.762400E+01	  0.106372744	-7.428000E+00
433	  0.106573142	-2.003400E+01	  0.106573142	-3.994900E+01	  0.106573142	5.775000E+01	  0.106573142	-7.461000E+00
434	  0.106773548	-2.018700E+01	  0.106773548	-4.150000E+01	  0.106773548	5.738300E+01	  0.106773548	-7.514000E+00
435	  0.106973946	-2.029500E+01	  0.106973946	-4.213100E+01	  0.106973946	5.719800E+01	  0.106973946	-7.487000E+00
436	  0.107174344	-2.020000E+01	  0.107174344	-4.377900E+01	  0.107174344	5.702400E+01	  0.107174344	-7.784000E+00
437	  0.107374750	-2.051800E+01	  0.107374750	-4.468100E+01	  0.107374750	5.664100E+01	  0.107374750	-7.571000E+00
438	  0.107575148	-2.047800E+01	  0.107575148	-4.546200E+01	  0.107575148	5.655300E+01	  0.107575148	-7.699000E+00
439	  0.107775547	-2.058600E+01	  0.107775547	-4.637600E+01	  0.107775547	5.633700E+01	  0.107775547	-7.691000E+00
440	  0.107975952	-2.050800E+01	  0.107975952	-4.775300E+01	  0.107975952	5.618000E+01	  0.107975952	-7.915000E+00
441	  0.108176351	-2.081000E+01	  0.108176351	-4.795000E+01	  0.108176351	5.594700E+01	  0.108176351	-7.632000E+00
442	  0.108376749	-2.075100E+01	  0.108376749	-4.917100E+01	  0.108376749	5.580200E+01	  0.108376749	-7.810000E+00
443	  0.108577155	-2.075300E+01	  0.108577155	-5.065900E+01	  0.108577155	5.557200E+01	  0.108577155	-7.948000E+00
444	  0.108777553	-2.084400E+01	  0.108777553	-5.192700E+01	  0.108777553	5.532300E+01	  0.108777553	-7.968000E+00
445	  0.108977959	-2.081100E+01	  0.108977959	-5.034100E+01	  0.108977959	5.558600E+01	  0.108977959	-7.860000E+00
446	  0.109178357	-2.111600E+01	  0.109178357	-5.255300E+01	  0.109178357	5.507600E+01	  0.109178357	-7.750000E+00
447	  0.109378755	-2.111000E+01	  0.109378755	-5.341400E+01	  0.109378755	5.495100E+01	  0.109378755	-7.826000E+00
448	  0.109579161	-2.102800E+01	  0.109579161	-5.592900E+01	  0.109579161	5.460900E+01	  0.109579161	-8.100000E+00
449	  0.109779559	-2.123300E+01	  0.109779559	-5.639200E+01	  0.109779559	5.444200E+01	  0.109779559	-7.927000E+00
450	  0.109979957	-2.134600E+01	  0.109979957	-5.715300E+01	  0.109979957	5.427700E+01	  0.109979957	-7.868000E+00
451	  0.110180363	-2.134500E+01	  0.110180363	-5.843100E+01	  0.110180363	5.408600E+01	  0.110180363	-7.952000E+00
452	  0.110380761	-2.140200E+01	  0.110380761	-5.916400E+01	  0.110380761	5.395300E+01	  0.110380761	-7.941000E+00
453	  0.110581160	-2.136600E+01	  0.110581160	-5.993100E+01	  0.110581160	5.385200E+01	  0.110581160	-8.022000E+00
454	  0.110781565	-2.146400E+01	  0.110781565	-6.014200E+01	  0.110781565	5.378300E+01	  0.110781565	-7.937000E+00
455	  0.110981964	-2.162900E+01	  0.110981964	-6.211000E+01	  0.110981964	5.343300E+01	  0.110981964	-7.884000E+00
456	  0.111182362	-2.155900E+01	  0.111182362	-6.188800E+01	  0.111182362	5.348900E+01	  0.111182362	-7.940000E+00
457	  0.111382768	-2.181900E+01	  0.111382768	-6.389200E+01	  0.111382768	5.311200E+01	  0.111382768	-7.787000E+00
458	  0.111583166	-2.187800E+01	  0.111583166	-6.527400E+01	  0.111583166	5.289600E+01	  0.111583166	-7.791000E+00
459	  0.111783572	-2.179900E+01	  0.111783572	-6.647900E+01	  0.111783572	5.274300E+01	  0.111783572	-7.914000E+00
460	  0.111983970	-2.206600E+01	  0.111983970	-6.602300E+01	  0.111983970	5.274000E+01	  0.111983970	-7.644000E+00
461	  0.112184368	-2.205300E+01	  0.112184368	-6.766500E+01	  0.112184368	5.251100E+01	  0.112184368	-7.717000E+00
462	  0.112384774	-2.227800E+01	  0.112384774	-6.809900E+01	  0.112384774	5.240100E+01	  0.112384774	-7.524000E+00
463	  0.112585172	-2.230100E+01	  0.112585172	-6.873700E+01	  0.112585172	5.230800E+01	  0.112585172	-7.524000E+00
464	  0.112785570	-2.233000E+01	  0.112785570	-6.989100E+01	  0.112785570	5.214400E+01	  0.112785570	-7.532000E+00
465	  0.112985976	-2.248000E+01	  0.112985976	-7.185900E+01	  0.112985976	5.185100E+01	  0.112985976	-7.449000E+00
466	  0.113186374	-2.240000E+01	  0.113186374	-7.227500E+01	  0.113186374	5.180600E+01	  0.113186374	-7.529000E+00
467	  0.113386773	-2.265500E+01	  0.113386773	-7.312800E+01	  0.113386773	5.165700E+01	  0.113386773	-7.322000E+00
468	  0.113587178	-2.262800E+01	  0.113587178	-7.306100E+01	  0.113587178	5.166900E+01	  0.113587178	-7.344000E+00
469	  0.113787577	-2.272500E+01	  0.113787577	-7.508600E+01	  0.113787577	5.139100E+01	  0.113787577	-7.295000E+00
470	  0.113987975	-2.284800E+01	  0.113987975	-7.438400E+01	  0.113987975	5.146900E+01	  0.113987975	-7.179000E+00
471	  0.114188381	-2.306000E+01	  0.114188381	-7.695900E+01	  0.114188381	5.112200E+01	  0.114188381	-7.037000E+00
472	  0.114388779	-2.297400E+01	  0.114388779	-7.883100E+01	  0.114388779	5.089100E+01	  0.114388779	-7.126000E+00
473	  0.114589177	-2.332400E+01	  0.114589177	-7.823700E+01	  0.114589177	5.094700E+01	  0.114589177	-6.834000E+00
474	  0.114789583	-2.331800E+01	  0.114789583	-7.900800E+01	  0.114789583	5.085300E+01	  0.114789583	-6.845000E+00
475	  0.114989981	-2.306100E+01	  0.114989981	-8.285100E+01	  0.114989981	5.038500E+01	  0.114989981	-7.063000E+00
476	  0.115190387	-2.337600E+01	  0.115190387	-8.180400E+01	  0.115190387	5.051400E+01	  0.115190387	-6.810000E+00
477	  0.115390785	-2.338700E+01	  0.115390785	-8.293600E+01	  0.115390785	5.037800E+01	  0.115390785	-6.801000E+00
478	  0.115591183	-2.347100E+01	  0.115591183	-8.356900E+01	  0.115591183	5.030400E+01	  0.115591183	-6.733000E+00
479	  0.115791589	-2.369000E+01	  0.115791589	-8.527800E+01	  0.115791589	5.011100E+01	  0.115791589	-6.559000E+00
480	  0.115991987	-2.367200E+01	  0.115991987	-8.602800E+01	  0.115991987	5.002400E+01	  0.115991987	-6.567000E+00
481	  0.116192386	-2.375600E+01	  0.116192386	-8.803200E+01	  0.116192386	4.980100E+01	  0.116192386	-6.487000E+00
482	  0.116392791	-2.379300E+01	  0.116392791	-8.726500E+01	  0.116392791	4.989000E+01	  0.116392791	-6.466000E+00
483	  0.116593190	-2.390900E+01	  0.116593190	-9.059100E+01	  0.116593190	4.953000E+01	  0.116593190	-6.341000E+00
484	  0.116793588	-2.400300E+01	  0.116793588	-9.232400E+01	  0.116793588	4.935200E+01	  0.116793588	-6.245000E+00
485	  0.116993994	-2.376500E+01	  0.116993994	-9.237700E+01	  0.116993994	4.931700E+01	  0.116993994	-6.415000E+00
486	  0.117194392	-2.401700E+01	  0.117194392	-9.398300E+01	  0.117194392	4.917600E+01	  0.117194392	-6.203000E+00
487	  0.117394790	-2.427900E+01	  0.117394790	-9.496200E+01	  0.117394790	4.911000E+01	  0.117394790	-6.001000E+00
488	  0.117595196	-2.433300E+01	  0.117595196	-9.617500E+01	  0.117595196	4.899400E+01	  0.117595196	-5.937000E+00
489	  0.117795594	-2.436100E+01	  0.117795594	-9.728300E+01	  0.117795594	4.888700E+01	  0.117795594	-5.891000E+00
490	  0.117995992	-2.442200E+01	  0.117995992	-9.784600E+01	  0.117995992	4.884100E+01	  0.117995992	-5.836000E+00
491	  0.118196398	-2.442400E+01	  0.118196398	-1.002350E+02	  0.118196398	4.860500E+01	  0.118196398	-5.769000E+00
492	  0.118396796	-2.444000E+01	  0.118396796	-9.960200E+01	  0.118396796	4.867100E+01	  0.118396796	-5.776000E+00
493	  0.118597202	-2.454900E+01	  0.118597202	-1.010960E+02	  0.118597202	4.854700E+01	  0.118597202	-5.662000E+00
494	  0.118797600	-2.471100E+01	  0.118797600	-1.028580E+02	  0.118797600	4.841400E+01	  0.118797600	-5.506000E+00
495	  0.118997999	-2.469200E+01	  0.118997999	-1.031010E+02	  0.118997999	4.838800E+01	  0.118997999	-5.510000E+00
496	  0.119198404	-2.469400E+01	  0.119198404	-1.055820E+02	  0.119198404	4.815900E+01	  0.119198404	-5.422000E+00
497	  0.119398803	-2.497800E+01	  0.119398803	-1.062740E+02	  0.119398803	4.816600E+01	  0.119398803	-5.229000E+00
498	  0.119599201	-2.467700E+01	  0.119599201	-1.066720E+02	  0.119599201	4.805600E+01	  0.119599201	-5.391000E+00
499	  0.119799607	-2.509900E+01	  0.119799607	-1.094440E+02	  0.119799607	4.792300E+01	  0.119799607	-5.040000E+00
500	  0.120000005	-2.524200E+01	  0.120000005	-1.090430E+02	  0.120000005	4.799400E+01	  0.120000005	-4.976000E+00
