! Anritsu VNA Master:             	Model: MS2036C/10/77
! SN:             	1601066
! /card0/usr/18may12.lna.rl/256a.lna.rl.txt
! Existing Calibration Information:
! TYPE:             	Current Settings	Active Cal Settings
! TIME:             	05/12/2018 06:31:20 PM	05/12/2018 06:23:31 PM
! INTERNAL TEMP:    	45.3 C	46.3 C
! # POINTS:         	500	500
! START FREQ:       	20.000 MHz	20.000 MHz
! STOP FREQ:        	120.000 MHz	120.000 MHz
! SOURCE POWER:     	Low	Low
! IFBW:             	10 Hz	10 Hz
! AVG FACTOR:       	  1 	  1 
! REF PLANE 1:      	0 mm	0 mm
! REF PLANE 2:      	0 mm	0 mm
! CAL TYPE:         	Full S22	Full S22
! CAL METHOD:       	SOLT	SOLT
! CAL LINE TYPE:    	Coax	Coax
! DUT PORT 1:       	K-Conn(M)	K-Conn(M)
! DUT PORT 2:       	K-Conn(M)	K-Conn(M)
! CAL STATUS:       	OK: Accuracy High	--
! PROP-V:       	0.700
! CABLE LOSS:       	0.000 dB/m
! REF IMPEDANCE:       	50.0
! Trace Specific Parameters:	TR1	TR2	TR3	TR4
! TRACE.#.Y (GRAPH TYPE)	LOG MAG	PHASE	REAL IMPEDANCE	IMAGINARY IMPEDANCE
! TRACE.#.X 	FREQ.GHZ	FREQ.GHZ	FREQ.GHZ	FREQ.GHZ
! S-PARAMETER	S22	S22	S22	S22
! SMOOTH/APERTURE %	0	0	0	0
! WINDOW	NSL	NSL	NSL	NSL
! GATING	OFF	OFF	OFF	OFF
! FGTD	OFF	OFF	OFF	OFF
Marker Information per Trace:	TR1	TR2	TR3	TR4
!MK1	--	"MK1 TR2:  12.184 368 MHz,##.##"	--	--
!MK2	--	--	"MK2 TR3:  12.184 368 MHz,##.##"	--
!MK3	--	--	--	--
!MK4	--	--	--	--
!MK5	--	--	--	--
!MK6	--	--	--	--
!MK7	--	--	--	--
!MK8	--	--	--	--
PNT	TR1.FREQ.GHZ	TR1.LOG MAG.dB	TR2.FREQ.GHZ	TR2.PHASE.deg	TR3.FREQ.GHZ	TR3.REAL IMPEDANCE.ohm	TR4.FREQ.GHZ	TR4.IMAGINARY IMPEDANCE.ohm
1	  0.020000000	-2.030200E+01	  0.020000000	2.775200E+01	  0.020000000	5.908100E+01	  0.020000000	5.363000E+00
2	  0.020200402	-2.009300E+01	  0.020200402	2.542100E+01	  0.020200402	5.957300E+01	  0.020200402	5.110000E+00
3	  0.020400802	-2.005100E+01	  0.020400802	2.212800E+01	  0.020400802	5.995500E+01	  0.020400802	4.534000E+00
4	  0.020601204	-2.005100E+01	  0.020601204	2.122900E+01	  0.020601204	6.003900E+01	  0.020601204	4.365000E+00
5	  0.020801604	-1.995700E+01	  0.020801604	1.786500E+01	  0.020801604	6.044700E+01	  0.020801604	3.764000E+00
6	  0.021002004	-1.992300E+01	  0.021002004	1.522200E+01	  0.021002004	6.068800E+01	  0.021002004	3.248000E+00
7	  0.021202406	-1.989800E+01	  0.021202406	1.300400E+01	  0.021202406	6.086500E+01	  0.021202406	2.800000E+00
8	  0.021402806	-1.976500E+01	  0.021402806	1.009500E+01	  0.021402806	6.120700E+01	  0.021402806	2.228000E+00
9	  0.021603208	-1.980300E+01	  0.021603208	7.905000E+00	  0.021603208	6.124500E+01	  0.021603208	1.741000E+00
10	  0.021803608	-1.976700E+01	  0.021803608	5.326000E+00	  0.021803608	6.137800E+01	  0.021803608	1.182000E+00
11	  0.022004008	-1.970900E+01	  0.022004008	2.724000E+00	  0.022004008	6.151400E+01	  0.022004008	6.110000E-01
12	  0.022204408	-1.963000E+01	  0.022204408	2.530000E-01	  0.022204408	6.165000E+01	  0.022204408	5.700000E-02
13	  0.022404809	-1.954300E+01	  0.022404809	-2.597000E+00	  0.022404809	6.176400E+01	  0.022404809	-5.960000E-01
14	  0.022605211	-1.956500E+01	  0.022605211	-5.723000E+00	  0.022605211	6.166700E+01	  0.022605211	-1.307000E+00
15	  0.022805611	-1.950700E+01	  0.022805611	-7.987000E+00	  0.022805611	6.167700E+01	  0.022805611	-1.834000E+00
16	  0.023006011	-1.939000E+01	  0.023006011	-1.112500E+01	  0.023006011	6.170300E+01	  0.023006011	-2.583000E+00
17	  0.023206413	-1.931300E+01	  0.023206413	-1.413600E+01	  0.023206413	6.162700E+01	  0.023206413	-3.296000E+00
18	  0.023406813	-1.929900E+01	  0.023406813	-1.701300E+01	  0.023406813	6.142400E+01	  0.023406813	-3.942000E+00
19	  0.023607215	-1.927900E+01	  0.023607215	-2.068900E+01	  0.023607215	6.111100E+01	  0.023607215	-4.747000E+00
20	  0.023807615	-1.919100E+01	  0.023807615	-2.377400E+01	  0.023807615	6.089700E+01	  0.023807615	-5.454000E+00
21	  0.024008015	-1.922700E+01	  0.024008015	-2.755300E+01	  0.024008015	6.038400E+01	  0.024008015	-6.179000E+00
22	  0.024208417	-1.921100E+01	  0.024208417	-3.108700E+01	  0.024208417	5.991900E+01	  0.024208417	-6.857000E+00
23	  0.024408817	-1.924600E+01	  0.024408817	-3.448200E+01	  0.024408817	5.937500E+01	  0.024408817	-7.421000E+00
24	  0.024609219	-1.914900E+01	  0.024609219	-3.834800E+01	  0.024609219	5.885700E+01	  0.024609219	-8.154000E+00
25	  0.024809619	-1.902700E+01	  0.024809619	-4.275200E+01	  0.024809619	5.820700E+01	  0.024809619	-8.951000E+00
26	  0.025010020	-1.912000E+01	  0.025010020	-4.677300E+01	  0.025010020	5.738200E+01	  0.025010020	-9.367000E+00
27	  0.025210422	-1.913600E+01	  0.025210422	-5.097300E+01	  0.025210422	5.656800E+01	  0.025210422	-9.827000E+00
28	  0.025410822	-1.914300E+01	  0.025410822	-5.578700E+01	  0.025410822	5.561600E+01	  0.025410822	-1.027700E+01
29	  0.025611224	-1.917600E+01	  0.025611224	-6.075600E+01	  0.025611224	5.460100E+01	  0.025611224	-1.060400E+01
30	  0.025811624	-1.924800E+01	  0.025811624	-6.614100E+01	  0.025811624	5.348700E+01	  0.025811624	-1.079600E+01
31	  0.026012026	-1.936600E+01	  0.026012026	-7.136800E+01	  0.026012026	5.241700E+01	  0.026012026	-1.081000E+01
32	  0.026212426	-1.954900E+01	  0.026212426	-7.727100E+01	  0.026212426	5.125500E+01	  0.026212426	-1.064900E+01
33	  0.026412826	-1.963900E+01	  0.026412826	-8.340400E+01	  0.026412826	5.011200E+01	  0.026412826	-1.049100E+01
34	  0.026613226	-1.995500E+01	  0.026613226	-9.010200E+01	  0.026613226	4.898200E+01	  0.026613226	-9.947000E+00
35	  0.026813626	-2.031500E+01	  0.026813626	-9.704100E+01	  0.026813626	4.795500E+01	  0.026813626	-9.265000E+00
36	  0.027014028	-2.076300E+01	  0.027014028	-1.043570E+02	  0.027014028	4.704800E+01	  0.027014028	-8.419000E+00
37	  0.027214428	-2.127100E+01	  0.027214428	-1.115530E+02	  0.027214428	4.633900E+01	  0.027214428	-7.502000E+00
38	  0.027414829	-2.184000E+01	  0.027414829	-1.196520E+02	  0.027414829	4.571400E+01	  0.027414829	-6.470000E+00
39	  0.027615231	-2.250900E+01	  0.027615231	-1.270460E+02	  0.027615231	4.537000E+01	  0.027615231	-5.455000E+00
40	  0.027815631	-2.355000E+01	  0.027815631	-1.358470E+02	  0.027815631	4.526300E+01	  0.027815631	-4.208000E+00
41	  0.028016033	-2.457600E+01	  0.028016033	-1.430690E+02	  0.028016033	4.538300E+01	  0.028016033	-3.231000E+00
42	  0.028216433	-2.570900E+01	  0.028216433	-1.507420E+02	  0.028216433	4.561800E+01	  0.028216433	-2.316000E+00
43	  0.028416833	-2.715100E+01	  0.028416833	-1.581630E+02	  0.028416833	4.606100E+01	  0.028416833	-1.507000E+00
44	  0.028617235	-2.863800E+01	  0.028617235	-1.666680E+02	  0.028617235	4.651900E+01	  0.028617235	-7.940000E-01
45	  0.028817635	-3.074100E+01	  0.028817635	-1.735800E+02	  0.028817635	4.719400E+01	  0.028817635	-3.060000E-01
46	  0.029018037	-3.209600E+01	  0.029018037	1.779250E+02	  0.029018037	4.757700E+01	  0.029018037	8.500000E-02
47	  0.029218437	-3.429300E+01	  0.029218437	1.722000E+02	  0.029218437	4.812400E+01	  0.029218437	2.520000E-01
48	  0.029418837	-3.759400E+01	  0.029418837	1.582290E+02	  0.029418837	4.878700E+01	  0.029418837	4.770000E-01
49	  0.029619239	-4.024200E+01	  0.029619239	1.550860E+02	  0.029619239	4.912400E+01	  0.029619239	4.020000E-01
50	  0.029819639	-4.500700E+01	  0.029819639	1.338720E+02	  0.029819639	4.961000E+01	  0.029819639	4.010000E-01
51	  0.030020041	-5.123300E+01	  0.030020041	9.951800E+01	  0.030020041	4.995300E+01	  0.030020041	2.700000E-01
52	  0.030220442	-5.434100E+01	  0.030220442	4.491500E+01	  0.030220442	5.013500E+01	  0.030220442	1.350000E-01
53	  0.030420844	-4.756800E+01	  0.030420844	-8.430000E+00	  0.030420844	5.041500E+01	  0.030420844	-6.100000E-02
54	  0.030621244	-4.663800E+01	  0.030621244	-1.656200E+01	  0.030621244	5.044800E+01	  0.030621244	-1.330000E-01
55	  0.030821644	-4.356700E+01	  0.030821644	-2.605300E+01	  0.030821644	5.059800E+01	  0.030821644	-2.940000E-01
56	  0.031022044	-4.099300E+01	  0.031022044	-3.701800E+01	  0.031022044	5.071400E+01	  0.031022044	-5.440000E-01
57	  0.031222444	-4.036800E+01	  0.031222444	-4.038400E+01	  0.031222444	5.073100E+01	  0.031222444	-6.300000E-01
58	  0.031422846	-3.916700E+01	  0.031422846	-4.647300E+01	  0.031422846	5.075700E+01	  0.031422846	-8.100000E-01
59	  0.031623244	-3.872800E+01	  0.031623244	-5.150200E+01	  0.031623244	5.071700E+01	  0.031623244	-9.190000E-01
60	  0.031823646	-3.856400E+01	  0.031823646	-5.190800E+01	  0.031823646	5.072400E+01	  0.031823646	-9.420000E-01
61	  0.032024048	-3.792600E+01	  0.032024048	-5.737600E+01	  0.032024048	5.067700E+01	  0.032024048	-1.083000E+00
62	  0.032224450	-3.791700E+01	  0.032224450	-5.729200E+01	  0.032224450	5.067900E+01	  0.032224450	-1.084000E+00
63	  0.032424849	-3.725000E+01	  0.032424849	-6.668700E+01	  0.032424849	5.052900E+01	  0.032424849	-1.273000E+00
64	  0.032625251	-3.753500E+01	  0.032625251	-6.334800E+01	  0.032625251	5.058400E+01	  0.032625251	-1.201000E+00
65	  0.032825653	-3.794100E+01	  0.032825653	-7.399300E+01	  0.032825653	5.033500E+01	  0.032825653	-1.226000E+00
66	  0.033026051	-3.776600E+01	  0.033026051	-7.029600E+01	  0.033026051	5.042200E+01	  0.033026051	-1.228000E+00
67	  0.033226453	-3.824700E+01	  0.033226453	-7.574100E+01	  0.033226453	5.028800E+01	  0.033226453	-1.192000E+00
68	  0.033426855	-3.865800E+01	  0.033426855	-8.085000E+01	  0.033426855	5.017200E+01	  0.033426855	-1.156000E+00
69	  0.033627257	-3.853600E+01	  0.033627257	-8.460700E+01	  0.033627257	5.009700E+01	  0.033627257	-1.180000E+00
70	  0.033827655	-3.911100E+01	  0.033827655	-8.814200E+01	  0.033827655	5.002300E+01	  0.033827655	-1.107000E+00
71	  0.034028057	-4.023700E+01	  0.034028057	-9.184100E+01	  0.034028057	4.995900E+01	  0.034028057	-9.710000E-01
72	  0.034228459	-3.976700E+01	  0.034228459	-9.398100E+01	  0.034228459	4.991800E+01	  0.034228459	-1.023000E+00
73	  0.034428857	-4.013900E+01	  0.034428857	-9.013600E+01	  0.034428857	4.998700E+01	  0.034428857	-9.830000E-01
74	  0.034629259	-4.109900E+01	  0.034629259	-9.955900E+01	  0.034629259	4.984600E+01	  0.034629259	-8.660000E-01
75	  0.034829661	-4.201400E+01	  0.034829661	-1.014720E+02	  0.034829661	4.983600E+01	  0.034829661	-7.740000E-01
76	  0.035030060	-4.244600E+01	  0.035030060	-1.093350E+02	  0.035030060	4.974500E+01	  0.035030060	-7.080000E-01
77	  0.035230462	-4.239000E+01	  0.035230462	-1.039380E+02	  0.035230462	4.981200E+01	  0.035230462	-7.340000E-01
78	  0.035430863	-4.526000E+01	  0.035430863	-9.852700E+01	  0.035430863	4.991600E+01	  0.035430863	-5.380000E-01
79	  0.035631265	-4.459000E+01	  0.035631265	-1.135420E+02	  0.035631265	4.976200E+01	  0.035631265	-5.370000E-01
80	  0.035831664	-4.446000E+01	  0.035831664	-1.162930E+02	  0.035831664	4.973200E+01	  0.035831664	-5.330000E-01
81	  0.036032066	-4.582400E+01	  0.036032066	-1.054540E+02	  0.036032066	4.986100E+01	  0.036032066	-4.910000E-01
82	  0.036232468	-4.643400E+01	  0.036232468	-1.266480E+02	  0.036232468	4.971400E+01	  0.036232468	-3.800000E-01
83	  0.036432866	-4.683700E+01	  0.036432866	-1.119420E+02	  0.036432866	4.982800E+01	  0.036432866	-4.200000E-01
84	  0.036633268	-4.990000E+01	  0.036633268	-1.066570E+02	  0.036633268	4.990700E+01	  0.036633268	-3.050000E-01
85	  0.036833670	-4.646500E+01	  0.036833670	-1.274190E+02	  0.036833670	4.971000E+01	  0.036833670	-3.750000E-01
86	  0.037034072	-5.478900E+01	  0.037034072	-1.534480E+02	  0.037034072	4.983700E+01	  0.037034072	-8.100000E-02
87	  0.037234470	-5.094600E+01	  0.037234470	-1.275690E+02	  0.037234470	4.982600E+01	  0.037234470	-2.230000E-01
88	  0.037434869	-5.563500E+01	  0.037434869	-1.205920E+02	  0.037434869	4.991500E+01	  0.037434869	-1.420000E-01
89	  0.037635271	-5.595300E+01	  0.037635271	-1.173960E+02	  0.037635271	4.992600E+01	  0.037635271	-1.410000E-01
90	  0.037835669	-5.640900E+01	  0.037835669	-1.752110E+02	  0.037835669	4.984900E+01	  0.037835669	-1.200000E-02
91	  0.038036071	-6.075000E+01	  0.038036071	-7.636000E+01	  0.038036071	5.002100E+01	  0.038036071	-8.900000E-02
92	  0.038236473	-7.015400E+01	  0.038236473	-1.277370E+02	  0.038236473	4.998000E+01	  0.038236473	-2.400000E-02
93	  0.038436871	-6.229200E+01	  0.038436871	-3.005600E+01	  0.038436871	5.006600E+01	  0.038436871	-3.800000E-02
94	  0.038637273	-5.765200E+01	  0.038637273	1.455170E+02	  0.038637273	4.989200E+01	  0.038637273	7.400000E-02
95	  0.038837675	-5.704200E+01	  0.038837675	1.050750E+02	  0.038837675	4.996300E+01	  0.038837675	1.350000E-01
96	  0.039038073	-5.212800E+01	  0.039038073	9.649700E+01	  0.039038073	4.997100E+01	  0.039038073	2.450000E-01
97	  0.039238475	-5.387400E+01	  0.039238475	4.344800E+01	  0.039238475	5.014600E+01	  0.039238475	1.390000E-01
98	  0.039438877	-5.292100E+01	  0.039438877	7.247400E+01	  0.039438877	5.006700E+01	  0.039438877	2.150000E-01
99	  0.039639279	-5.492000E+01	  0.039639279	6.073400E+01	  0.039639279	5.008700E+01	  0.039639279	1.560000E-01
100	  0.039839678	-5.779600E+01	  0.039839678	6.696000E+01	  0.039839678	5.005000E+01	  0.039839678	1.180000E-01
101	  0.040040080	-5.252800E+01	  0.040040080	5.416300E+01	  0.040040080	5.013800E+01	  0.040040080	1.920000E-01
102	  0.040240481	-5.088400E+01	  0.040240481	6.360000E+01	  0.040240481	5.012600E+01	  0.040240481	2.560000E-01
103	  0.040440880	-5.067200E+01	  0.040440880	6.337300E+01	  0.040440880	5.013000E+01	  0.040440880	2.620000E-01
104	  0.040641282	-5.076700E+01	  0.040641282	6.337400E+01	  0.040641282	5.012900E+01	  0.040641282	2.590000E-01
105	  0.040841684	-4.924000E+01	  0.040841684	4.325500E+01	  0.040841684	5.025100E+01	  0.040841684	2.370000E-01
106	  0.041042086	-4.746200E+01	  0.041042086	3.523700E+01	  0.041042086	5.034600E+01	  0.041042086	2.460000E-01
107	  0.041242484	-4.892700E+01	  0.041242484	5.618400E+01	  0.041242484	5.019800E+01	  0.041242484	2.980000E-01
108	  0.041442886	-5.025800E+01	  0.041442886	5.127300E+01	  0.041442886	5.019100E+01	  0.041442886	2.400000E-01
109	  0.041643288	-5.018100E+01	  0.041643288	4.488200E+01	  0.041643288	5.021900E+01	  0.041643288	2.190000E-01
110	  0.041843686	-4.659500E+01	  0.041843686	3.492900E+01	  0.041843686	5.038400E+01	  0.041843686	2.700000E-01
111	  0.042044088	-4.890400E+01	  0.042044088	2.332300E+01	  0.042044088	5.033000E+01	  0.042044088	1.420000E-01
112	  0.042244490	-4.801300E+01	  0.042244490	4.195800E+01	  0.042244490	5.029500E+01	  0.042244490	2.670000E-01
113	  0.042444889	-4.530500E+01	  0.042444889	5.488800E+01	  0.042444889	5.031100E+01	  0.042444889	4.460000E-01
114	  0.042645290	-4.690600E+01	  0.042645290	5.468200E+01	  0.042645290	5.026000E+01	  0.042645290	3.700000E-01
115	  0.042845692	-4.741500E+01	  0.042845692	4.190500E+01	  0.042845692	5.031700E+01	  0.042845692	2.860000E-01
116	  0.043046094	-4.563000E+01	  0.043046094	4.494500E+01	  0.043046094	5.037000E+01	  0.043046094	3.720000E-01
117	  0.043246493	-4.686000E+01	  0.043246493	4.807100E+01	  0.043246493	5.030300E+01	  0.043246493	3.390000E-01
118	  0.043446895	-4.804400E+01	  0.043446895	4.865300E+01	  0.043446895	5.026100E+01	  0.043446895	2.980000E-01
119	  0.043647297	-4.623200E+01	  0.043647297	4.920400E+01	  0.043647297	5.031800E+01	  0.043647297	3.710000E-01
120	  0.043847695	-4.636800E+01	  0.043847695	4.680300E+01	  0.043847695	5.032800E+01	  0.043847695	3.520000E-01
121	  0.044048097	-4.549300E+01	  0.044048097	6.327200E+01	  0.044048097	5.023700E+01	  0.044048097	4.760000E-01
122	  0.044248499	-4.481000E+01	  0.044248499	5.186400E+01	  0.044248499	5.035400E+01	  0.044248499	4.550000E-01
123	  0.044448901	-4.802100E+01	  0.044448901	6.261600E+01	  0.044448901	5.018100E+01	  0.044448901	3.530000E-01
124	  0.044649299	-4.779400E+01	  0.044649299	6.918100E+01	  0.044649299	5.014300E+01	  0.044649299	3.820000E-01
125	  0.044849701	-4.599200E+01	  0.044849701	5.284400E+01	  0.044849701	5.030200E+01	  0.044849701	4.020000E-01
126	  0.045050103	-4.394300E+01	  0.045050103	5.668800E+01	  0.045050103	5.034700E+01	  0.045050103	5.340000E-01
127	  0.045250501	-4.701000E+01	  0.045250501	5.823100E+01	  0.045250501	5.023400E+01	  0.045250501	3.810000E-01
128	  0.045450903	-4.571900E+01	  0.045450903	6.521300E+01	  0.045450903	5.021500E+01	  0.045450903	4.720000E-01
129	  0.045651305	-4.470800E+01	  0.045651305	6.009500E+01	  0.045651305	5.028800E+01	  0.045651305	5.070000E-01
130	  0.045851704	-4.329000E+01	  0.045851704	6.071900E+01	  0.045851704	5.033200E+01	  0.045851704	6.010000E-01
131	  0.046052106	-4.509400E+01	  0.046052106	5.499800E+01	  0.046052106	5.031800E+01	  0.046052106	4.580000E-01
132	  0.046252504	-4.441700E+01	  0.046252504	5.952700E+01	  0.046252504	5.030300E+01	  0.046252504	5.210000E-01
133	  0.046452906	-4.534900E+01	  0.046452906	6.040400E+01	  0.046452906	5.026500E+01	  0.046452906	4.720000E-01
134	  0.046653304	-4.301200E+01	  0.046653304	6.882800E+01	  0.046653304	5.025100E+01	  0.046653304	6.620000E-01
135	  0.046853706	-4.341200E+01	  0.046853706	6.016100E+01	  0.046853706	5.033300E+01	  0.046853706	5.890000E-01
136	  0.047054108	-4.247100E+01	  0.047054108	6.510000E+01	  0.047054108	5.031300E+01	  0.047054108	6.860000E-01
137	  0.047254506	-4.198000E+01	  0.047254506	6.828800E+01	  0.047254506	5.028900E+01	  0.047254506	7.430000E-01
138	  0.047454908	-4.351100E+01	  0.047454908	6.562000E+01	  0.047454908	5.027200E+01	  0.047454908	6.110000E-01
139	  0.047655310	-4.204200E+01	  0.047655310	7.035600E+01	  0.047655310	5.026000E+01	  0.047655310	7.480000E-01
140	  0.047855709	-4.339200E+01	  0.047855709	6.231600E+01	  0.047855709	5.031100E+01	  0.047855709	6.020000E-01
141	  0.048056111	-4.070000E+01	  0.048056111	6.198400E+01	  0.048056111	5.042800E+01	  0.048056111	8.210000E-01
142	  0.048256513	-4.232700E+01	  0.048256513	7.099500E+01	  0.048256513	5.024400E+01	  0.048256513	7.260000E-01
143	  0.048456915	-4.112200E+01	  0.048456915	6.225400E+01	  0.048456915	5.040400E+01	  0.048456915	7.840000E-01
144	  0.048657313	-4.065300E+01	  0.048657313	6.539500E+01	  0.048657313	5.038000E+01	  0.048657313	8.490000E-01
145	  0.048857715	-4.109700E+01	  0.048857715	6.795100E+01	  0.048857715	5.032500E+01	  0.048857715	8.220000E-01
146	  0.049058117	-4.106600E+01	  0.049058117	7.265800E+01	  0.049058117	5.025700E+01	  0.049058117	8.480000E-01
147	  0.049258515	-4.019500E+01	  0.049258515	6.502600E+01	  0.049258515	5.040600E+01	  0.049258515	8.930000E-01
148	  0.049458917	-4.058200E+01	  0.049458917	7.169000E+01	  0.049458917	5.028600E+01	  0.049458917	8.920000E-01
149	  0.049659319	-4.005400E+01	  0.049659319	6.194600E+01	  0.049659319	5.046100E+01	  0.049659319	8.850000E-01
150	  0.049859721	-3.947200E+01	  0.049859721	6.547000E+01	  0.049859721	5.043300E+01	  0.049859721	9.750000E-01
151	  0.050060119	-3.994800E+01	  0.050060119	6.330100E+01	  0.050060119	5.044500E+01	  0.050060119	9.060000E-01
152	  0.050260521	-3.863300E+01	  0.050260521	6.349800E+01	  0.050260521	5.051300E+01	  0.050260521	1.058000E+00
153	  0.050460923	-3.917600E+01	  0.050460923	5.693300E+01	  0.050460923	5.059400E+01	  0.050460923	9.320000E-01
154	  0.050661322	-3.899900E+01	  0.050661322	5.853000E+01	  0.050661322	5.057900E+01	  0.050661322	9.680000E-01
155	  0.050861724	-3.895400E+01	  0.050861724	5.584800E+01	  0.050861724	5.062800E+01	  0.050861724	9.450000E-01
156	  0.051062126	-3.776300E+01	  0.051062126	5.648700E+01	  0.051062126	5.070700E+01	  0.051062126	1.094000E+00
157	  0.051262524	-3.861600E+01	  0.051262524	6.051100E+01	  0.051262524	5.057000E+01	  0.051262524	1.032000E+00
158	  0.051462926	-3.855000E+01	  0.051462926	5.308100E+01	  0.051462926	5.070500E+01	  0.051462926	9.580000E-01
159	  0.051663328	-3.764500E+01	  0.051663328	5.451400E+01	  0.051663328	5.075500E+01	  0.051663328	1.084000E+00
160	  0.051863730	-3.854500E+01	  0.051863730	5.316100E+01	  0.051863730	5.070400E+01	  0.051863730	9.590000E-01
161	  0.052064128	-3.788300E+01	  0.052064128	4.878900E+01	  0.052064128	5.083800E+01	  0.052064128	9.760000E-01
162	  0.052264530	-3.715400E+01	  0.052264530	5.402200E+01	  0.052264530	5.080800E+01	  0.052264530	1.141000E+00
163	  0.052464932	-3.720000E+01	  0.052464932	5.131700E+01	  0.052464932	5.085800E+01	  0.052464932	1.096000E+00
164	  0.052665330	-3.704600E+01	  0.052665330	4.945900E+01	  0.052665330	5.090900E+01	  0.052665330	1.087000E+00
165	  0.052865732	-3.819900E+01	  0.052865732	5.327900E+01	  0.052865732	5.073100E+01	  0.052865732	1.000000E+00
166	  0.053066134	-3.724400E+01	  0.053066134	5.038200E+01	  0.053066134	5.087100E+01	  0.053066134	1.076000E+00
167	  0.053266536	-3.717600E+01	  0.053266536	4.895200E+01	  0.053266536	5.090600E+01	  0.053266536	1.062000E+00
168	  0.053466935	-3.704700E+01	  0.053466935	4.805500E+01	  0.053466935	5.093600E+01	  0.053466935	1.064000E+00
169	  0.053667337	-3.694300E+01	  0.053667337	4.711700E+01	  0.053667337	5.096500E+01	  0.053667337	1.062000E+00
170	  0.053867739	-3.704300E+01	  0.053867739	4.544400E+01	  0.053867739	5.098500E+01	  0.053867739	1.021000E+00
171	  0.054068137	-3.718400E+01	  0.054068137	4.413300E+01	  0.054068137	5.099200E+01	  0.054068137	9.820000E-01
172	  0.054268539	-3.737400E+01	  0.054268539	4.405700E+01	  0.054268539	5.097200E+01	  0.054268539	9.590000E-01
173	  0.054468941	-3.654900E+01	  0.054468941	4.755500E+01	  0.054468941	5.100100E+01	  0.054468941	1.120000E+00
174	  0.054669339	-3.641700E+01	  0.054669339	3.892800E+01	  0.054669339	5.117900E+01	  0.054669339	9.710000E-01
175	  0.054869737	-3.654700E+01	  0.054869737	4.055100E+01	  0.054869737	5.113300E+01	  0.054869737	9.890000E-01
176	  0.055070139	-3.654200E+01	  0.055070139	3.909900E+01	  0.055070139	5.115900E+01	  0.055070139	9.610000E-01
177	  0.055270538	-3.678800E+01	  0.055270538	3.938500E+01	  0.055270538	5.112200E+01	  0.055270538	9.390000E-01
178	  0.055470940	-3.665400E+01	  0.055470940	3.733500E+01	  0.055470940	5.117400E+01	  0.055470940	9.120000E-01
179	  0.055671342	-3.695300E+01	  0.055671342	3.768400E+01	  0.055671342	5.112800E+01	  0.055671342	8.870000E-01
180	  0.055871744	-3.684400E+01	  0.055871744	3.148200E+01	  0.055871744	5.123500E+01	  0.055871744	7.690000E-01
181	  0.056072142	-3.679600E+01	  0.056072142	3.229300E+01	  0.056072142	5.123100E+01	  0.056072142	7.910000E-01
182	  0.056272544	-3.685000E+01	  0.056272544	3.708500E+01	  0.056272544	5.115100E+01	  0.056272544	8.860000E-01
183	  0.056472946	-3.700700E+01	  0.056472946	3.161200E+01	  0.056472946	5.121000E+01	  0.056472946	7.570000E-01
184	  0.056673344	-3.613400E+01	  0.056673344	3.308500E+01	  0.056673344	5.131700E+01	  0.056673344	8.740000E-01
185	  0.056873746	-3.670900E+01	  0.056873746	2.899100E+01	  0.056873746	5.128800E+01	  0.056873746	7.260000E-01
186	  0.057074148	-3.689800E+01	  0.057074148	3.326200E+01	  0.057074148	5.120300E+01	  0.057074148	8.020000E-01
187	  0.057274550	-3.710900E+01	  0.057274550	2.928300E+01	  0.057274550	5.122600E+01	  0.057274550	6.990000E-01
188	  0.057474948	-3.743900E+01	  0.057474948	2.838800E+01	  0.057474948	5.119100E+01	  0.057474948	6.530000E-01
189	  0.057675350	-3.713800E+01	  0.057675350	2.362200E+01	  0.057675350	5.128600E+01	  0.057675350	5.710000E-01
190	  0.057875752	-3.682400E+01	  0.057875752	2.468600E+01	  0.057875752	5.132300E+01	  0.057875752	6.180000E-01
191	  0.058076151	-3.719500E+01	  0.058076151	1.910100E+01	  0.058076151	5.132000E+01	  0.058076151	4.630000E-01
192	  0.058276553	-3.737300E+01	  0.058276553	2.411300E+01	  0.058276553	5.124700E+01	  0.058276553	5.660000E-01
193	  0.058476955	-3.692500E+01	  0.058476955	2.414500E+01	  0.058476955	5.131300E+01	  0.058476955	5.980000E-01
194	  0.058677353	-3.668400E+01	  0.058677353	1.783400E+01	  0.058677353	5.141100E+01	  0.058677353	4.610000E-01
195	  0.058877755	-3.759200E+01	  0.058877755	1.999100E+01	  0.058877755	5.125300E+01	  0.058877755	4.620000E-01
196	  0.059078157	-3.791900E+01	  0.059078157	1.607100E+01	  0.059078157	5.123400E+01	  0.059078157	3.600000E-01
197	  0.059278559	-3.815600E+01	  0.059278559	1.689900E+01	  0.059278559	5.119500E+01	  0.059278559	3.680000E-01
198	  0.059478957	-3.797800E+01	  0.059478957	1.306700E+01	  0.059478957	5.124300E+01	  0.059478957	2.920000E-01
199	  0.059679359	-3.819100E+01	  0.059679359	1.218300E+01	  0.059679359	5.121700E+01	  0.059679359	2.660000E-01
200	  0.059879761	-3.993300E+01	  0.059879761	1.422800E+01	  0.059879761	5.098500E+01	  0.059879761	2.520000E-01
201	  0.060080159	-3.819100E+01	  0.060080159	1.363600E+01	  0.060080159	5.121000E+01	  0.060080159	2.970000E-01
202	  0.060280561	-3.971200E+01	  0.060280561	9.540000E+00	  0.060280561	5.102900E+01	  0.060280561	1.740000E-01
203	  0.060480963	-3.918100E+01	  0.060480963	1.203200E+01	  0.060480963	5.108500E+01	  0.060480963	2.340000E-01
204	  0.060681365	-3.964500E+01	  0.060681365	5.953000E+00	  0.060681365	5.104600E+01	  0.060681365	1.100000E-01
205	  0.060881764	-3.969700E+01	  0.060881764	3.157000E+00	  0.060881764	5.104400E+01	  0.060881764	5.800000E-02
206	  0.061082166	-4.010600E+01	  0.061082166	5.631000E+00	  0.061082166	5.099200E+01	  0.061082166	9.800000E-02
207	  0.061282568	-4.000500E+01	  0.061282568	1.016400E+01	  0.061282568	5.099300E+01	  0.061282568	1.790000E-01
208	  0.061482966	-4.022100E+01	  0.061482966	2.327000E+00	  0.061482966	5.098300E+01	  0.061482966	4.000000E-02
209	  0.061683368	-4.059600E+01	  0.061683368	1.280000E+00	  0.061683368	5.094200E+01	  0.061683368	2.100000E-02
210	  0.061883770	-4.058200E+01	  0.061883770	5.098000E+00	  0.061883770	5.094000E+01	  0.061883770	8.400000E-02
211	  0.062084168	-4.194900E+01	  0.062084168	1.227000E+00	  0.062084168	5.080500E+01	  0.062084168	1.700000E-02
212	  0.062284570	-4.290900E+01	  0.062284570	8.563000E+00	  0.062284570	5.071200E+01	  0.062284570	1.080000E-01
213	  0.062484972	-4.277100E+01	  0.062484972	-7.154000E+00	  0.062484972	5.072600E+01	  0.062484972	-9.100000E-02
214	  0.062685370	-4.196500E+01	  0.062685370	4.075000E+00	  0.062685370	5.080100E+01	  0.062685370	5.700000E-02
215	  0.062885776	-4.228000E+01	  0.062885776	-3.849000E+00	  0.062885776	5.077300E+01	  0.062885776	-5.200000E-02
216	  0.063086174	-4.320200E+01	  0.063086174	-7.500000E-01	  0.063086174	5.069600E+01	  0.063086174	-9.000000E-03
217	  0.063286573	-4.338200E+01	  0.063286573	2.162000E+00	  0.063286573	5.068100E+01	  0.063286573	2.500000E-02
218	  0.063486971	-4.637900E+01	  0.063486971	-7.000000E-02	  0.063486971	5.048200E+01	  0.063486971	0.000000E+00
219	  0.063687377	-4.799600E+01	  0.063687377	1.542000E+00	  0.063687377	5.039900E+01	  0.063687377	1.000000E-02
220	  0.063887775	-4.737900E+01	  0.063887775	2.857300E+01	  0.063887775	5.037600E+01	  0.063887775	2.060000E-01
221	  0.064088173	-5.073000E+01	  0.064088173	-8.544000E+00	  0.064088173	5.028800E+01	  0.064088173	-4.300000E-02
222	  0.064288579	-5.001000E+01	  0.064288579	2.392300E+01	  0.064288579	5.028900E+01	  0.064288579	1.280000E-01
223	  0.064488977	-5.046200E+01	  0.064488977	-2.352100E+01	  0.064488977	5.027500E+01	  0.064488977	-1.200000E-01
224	  0.064689375	-4.818800E+01	  0.064689375	7.438000E+00	  0.064689375	5.038700E+01	  0.064689375	5.000000E-02
225	  0.064889781	-5.119600E+01	  0.064889781	-1.020000E+01	  0.064889781	5.027100E+01	  0.064889781	-4.900000E-02
226	  0.065090179	-5.062100E+01	  0.065090179	3.723800E+01	  0.065090179	5.023400E+01	  0.065090179	1.780000E-01
227	  0.065290578	-5.297800E+01	  0.065290578	4.554700E+01	  0.065290578	5.015700E+01	  0.065290578	1.600000E-01
228	  0.065490983	-5.645200E+01	  0.065490983	6.749500E+01	  0.065490983	5.005700E+01	  0.065490983	1.390000E-01
229	  0.065691382	-5.570800E+01	  0.065691382	8.166400E+01	  0.065691382	5.002300E+01	  0.065691382	1.620000E-01
230	  0.065891780	-5.018700E+01	  0.065891780	8.106800E+01	  0.065891780	5.004700E+01	  0.065891780	3.060000E-01
231	  0.066092186	-5.007800E+01	  0.066092186	1.290900E+02	  0.066092186	4.980200E+01	  0.066092186	2.420000E-01
232	  0.066292584	-4.935500E+01	  0.066292584	9.634200E+01	  0.066292584	4.996100E+01	  0.066292584	3.380000E-01
233	  0.066492982	-4.864200E+01	  0.066492982	1.339210E+02	  0.066492982	4.974300E+01	  0.066492982	2.640000E-01
234	  0.066693388	-4.764400E+01	  0.066693388	1.165620E+02	  0.066693388	4.981300E+01	  0.066693388	3.690000E-01
235	  0.066893786	-4.657500E+01	  0.066893786	1.020700E+02	  0.066893786	4.989900E+01	  0.066893786	4.570000E-01
236	  0.067094192	-4.435300E+01	  0.067094192	1.236920E+02	  0.067094192	4.966200E+01	  0.067094192	5.000000E-01
237	  0.067294590	-4.283800E+01	  0.067294590	1.141620E+02	  0.067294590	4.970100E+01	  0.067294590	6.540000E-01
238	  0.067494988	-4.330200E+01	  0.067494988	1.159680E+02	  0.067494988	4.969700E+01	  0.067494988	6.110000E-01
239	  0.067695394	-4.289000E+01	  0.067695394	1.049870E+02	  0.067695394	4.981000E+01	  0.067695394	6.890000E-01
240	  0.067895792	-4.090100E+01	  0.067895792	1.166560E+02	  0.067895792	4.959000E+01	  0.067895792	7.990000E-01
241	  0.068096191	-4.126300E+01	  0.068096191	1.071070E+02	  0.068096191	4.973900E+01	  0.068096191	8.220000E-01
242	  0.068296596	-3.939400E+01	  0.068296596	1.197120E+02	  0.068296596	4.946200E+01	  0.068296596	9.210000E-01
243	  0.068496995	-3.984900E+01	  0.068496995	1.215690E+02	  0.068496995	4.946200E+01	  0.068496995	8.570000E-01
244	  0.068697393	-3.920200E+01	  0.068697393	1.136620E+02	  0.068697393	4.955200E+01	  0.068697393	9.950000E-01
245	  0.068897791	-3.883000E+01	  0.068897791	1.163680E+02	  0.068897791	4.948400E+01	  0.068897791	1.014000E+00
246	  0.069098189	-3.683500E+01	  0.069098189	1.088980E+02	  0.069098189	4.951700E+01	  0.069098189	1.349000E+00
247	  0.069298595	-3.828800E+01	  0.069298595	1.112170E+02	  0.069298595	4.954800E+01	  0.069298595	1.125000E+00
248	  0.069498993	-3.690100E+01	  0.069498993	1.099430E+02	  0.069498993	4.949700E+01	  0.069498993	1.329000E+00
249	  0.069699399	-3.722500E+01	  0.069699399	1.103340E+02	  0.069699399	4.950700E+01	  0.069699399	1.278000E+00
250	  0.069899797	-3.664700E+01	  0.069899797	1.101390E+02	  0.069899797	4.947700E+01	  0.069899797	1.366000E+00
251	  0.070100196	-3.566200E+01	  0.070100196	1.043190E+02	  0.070100196	4.956800E+01	  0.070100196	1.583000E+00
252	  0.070300601	-3.567900E+01	  0.070300601	1.018840E+02	  0.070300601	4.963600E+01	  0.070300601	1.597000E+00
253	  0.070501000	-3.601400E+01	  0.070501000	1.074420E+02	  0.070501000	4.950500E+01	  0.070501000	1.494000E+00
254	  0.070701398	-3.502000E+01	  0.070701398	1.045930E+02	  0.070701398	4.952500E+01	  0.070701398	1.701000E+00
255	  0.070901804	-3.550900E+01	  0.070901804	1.000100E+02	  0.070901804	4.968200E+01	  0.070901804	1.641000E+00
256	  0.071102202	-3.427900E+01	  0.071102202	9.956900E+01	  0.071102202	4.964300E+01	  0.071102202	1.892000E+00
257	  0.071302600	-3.417000E+01	  0.071302600	9.758100E+01	  0.071302600	4.970500E+01	  0.071302600	1.928000E+00
258	  0.071503006	-3.447700E+01	  0.071503006	9.528200E+01	  0.071503006	4.979100E+01	  0.071503006	1.873000E+00
259	  0.071703404	-3.416700E+01	  0.071703404	9.704700E+01	  0.071703404	4.972300E+01	  0.071703404	1.932000E+00
260	  0.071903802	-3.344100E+01	  0.071903802	9.915500E+01	  0.071903802	4.961800E+01	  0.071903802	2.085000E+00
261	  0.072104208	-3.363500E+01	  0.072104208	9.716400E+01	  0.072104208	4.969800E+01	  0.072104208	2.052000E+00
262	  0.072304606	-3.339100E+01	  0.072304606	9.021500E+01	  0.072304606	4.994600E+01	  0.072304606	2.138000E+00
263	  0.072505005	-3.282200E+01	  0.072505005	9.403500E+01	  0.072505005	4.978700E+01	  0.072505005	2.270000E+00
264	  0.072705410	-3.213400E+01	  0.072705410	8.685900E+01	  0.072705410	5.007400E+01	  0.072705410	2.474000E+00
265	  0.072905809	-3.223000E+01	  0.072905809	8.445200E+01	  0.072905809	5.017700E+01	  0.072905809	2.444000E+00
266	  0.073106214	-3.246000E+01	  0.073106214	8.528500E+01	  0.073106214	5.013900E+01	  0.073106214	2.382000E+00
267	  0.073306613	-3.219100E+01	  0.073306613	8.334500E+01	  0.073306613	5.022500E+01	  0.073306613	2.452000E+00
268	  0.073507011	-3.225500E+01	  0.073507011	8.309500E+01	  0.073507011	5.023400E+01	  0.073507011	2.434000E+00
269	  0.073707417	-3.201600E+01	  0.073707417	8.275800E+01	  0.073707417	5.025400E+01	  0.073707417	2.501000E+00
270	  0.073907815	-3.225100E+01	  0.073907815	8.365700E+01	  0.073907815	5.021100E+01	  0.073907815	2.436000E+00
271	  0.074108213	-3.166500E+01	  0.074108213	8.044900E+01	  0.074108213	5.036700E+01	  0.074108213	2.594000E+00
272	  0.074308619	-3.173900E+01	  0.074308619	7.688900E+01	  0.074308619	5.052500E+01	  0.074308619	2.549000E+00
273	  0.074509017	-3.159200E+01	  0.074509017	7.529700E+01	  0.074509017	5.060600E+01	  0.074509017	2.579000E+00
274	  0.074709415	-3.122900E+01	  0.074709415	7.503000E+01	  0.074709415	5.064200E+01	  0.074709415	2.687000E+00
275	  0.074909821	-3.162900E+01	  0.074909821	7.165100E+01	  0.074909821	5.076800E+01	  0.074909821	2.528000E+00
276	  0.075110219	-3.098700E+01	  0.075110219	7.086600E+01	  0.075110219	5.086000E+01	  0.075110219	2.714000E+00
277	  0.075310618	-3.132200E+01	  0.075310618	6.782700E+01	  0.075310618	5.097000E+01	  0.075310618	2.565000E+00
278	  0.075511023	-3.065800E+01	  0.075511023	7.100100E+01	  0.075511023	5.088400E+01	  0.075511023	2.823000E+00
279	  0.075711422	-3.064700E+01	  0.075711422	6.460500E+01	  0.075711422	5.120100E+01	  0.075711422	2.717000E+00
280	  0.075911827	-3.035400E+01	  0.075911827	6.654600E+01	  0.075911827	5.114200E+01	  0.075911827	2.851000E+00
281	  0.076112226	-3.104600E+01	  0.076112226	6.586600E+01	  0.076112226	5.109100E+01	  0.076112226	2.616000E+00
282	  0.076312624	-3.106400E+01	  0.076312624	6.281300E+01	  0.076312624	5.123000E+01	  0.076312624	2.551000E+00
283	  0.076513030	-3.059400E+01	  0.076513030	6.280000E+01	  0.076513030	5.129600E+01	  0.076513030	2.697000E+00
284	  0.076713428	-3.069700E+01	  0.076713428	6.032400E+01	  0.076713428	5.139800E+01	  0.076713428	2.608000E+00
285	  0.076913826	-3.114200E+01	  0.076913826	5.784100E+01	  0.076913826	5.144000E+01	  0.076913826	2.416000E+00
286	  0.077114232	-3.101900E+01	  0.077114232	5.913400E+01	  0.077114232	5.140200E+01	  0.077114232	2.483000E+00
287	  0.077314630	-3.068900E+01	  0.077314630	5.848800E+01	  0.077314630	5.148500E+01	  0.077314630	2.566000E+00
288	  0.077515028	-3.057100E+01	  0.077515028	5.480100E+01	  0.077515028	5.167400E+01	  0.077515028	2.502000E+00
289	  0.077715434	-3.087200E+01	  0.077715434	5.501500E+01	  0.077715434	5.160900E+01	  0.077715434	2.420000E+00
290	  0.077915832	-3.141400E+01	  0.077915832	5.264500E+01	  0.077915832	5.160900E+01	  0.077915832	2.206000E+00
291	  0.078116231	-3.149900E+01	  0.078116231	5.249300E+01	  0.078116231	5.160000E+01	  0.078116231	2.179000E+00
292	  0.078316636	-3.135200E+01	  0.078316636	5.345400E+01	  0.078316636	5.158800E+01	  0.078316636	2.244000E+00
293	  0.078517035	-3.186600E+01	  0.078517035	5.281800E+01	  0.078517035	5.152200E+01	  0.078517035	2.095000E+00
294	  0.078717433	-3.164600E+01	  0.078717433	4.656700E+01	  0.078717433	5.179300E+01	  0.078717433	1.969000E+00
295	  0.078917839	-3.172000E+01	  0.078917839	4.929900E+01	  0.078917839	5.167900E+01	  0.078917839	2.034000E+00
296	  0.079118237	-3.229500E+01	  0.079118237	4.645200E+01	  0.079118237	5.166800E+01	  0.079118237	1.819000E+00
297	  0.079318643	-3.226700E+01	  0.079318643	4.601700E+01	  0.079318643	5.168800E+01	  0.079318643	1.812000E+00
298	  0.079519041	-3.267000E+01	  0.079519041	4.167000E+01	  0.079519041	5.174200E+01	  0.079519041	1.600000E+00
299	  0.079719439	-3.284100E+01	  0.079719439	4.624400E+01	  0.079719439	5.157300E+01	  0.079719439	1.699000E+00
300	  0.079919845	-3.311000E+01	  0.079919845	4.632000E+01	  0.079919845	5.152300E+01	  0.079919845	1.648000E+00
301	  0.080120243	-3.349200E+01	  0.080120243	4.001200E+01	  0.080120243	5.162700E+01	  0.080120243	1.404000E+00
302	  0.080320641	-3.431100E+01	  0.080320641	4.272400E+01	  0.080320641	5.141600E+01	  0.080320641	1.343000E+00
303	  0.080521047	-3.417600E+01	  0.080521047	4.634000E+01	  0.080521047	5.134700E+01	  0.080521047	1.453000E+00
304	  0.080721445	-3.430600E+01	  0.080721445	4.560400E+01	  0.080721445	5.134600E+01	  0.080721445	1.413000E+00
305	  0.080921844	-3.485400E+01	  0.080921844	4.524900E+01	  0.080921844	5.127200E+01	  0.080921844	1.317000E+00
306	  0.081122249	-3.510200E+01	  0.081122249	4.847700E+01	  0.081122249	5.116000E+01	  0.081122249	1.346000E+00
307	  0.081322648	-3.591400E+01	  0.081322648	4.657900E+01	  0.081322648	5.109800E+01	  0.081322648	1.188000E+00
308	  0.081523046	-3.556300E+01	  0.081523046	5.147400E+01	  0.081523046	5.103100E+01	  0.081523046	1.331000E+00
309	  0.081723452	-3.678300E+01	  0.081723452	5.222800E+01	  0.081723452	5.088100E+01	  0.081723452	1.165000E+00
310	  0.081923850	-3.712100E+01	  0.081923850	5.140600E+01	  0.081923850	5.086400E+01	  0.081923850	1.107000E+00
311	  0.082124248	-3.752000E+01	  0.082124248	5.937700E+01	  0.082124248	5.066800E+01	  0.082124248	1.160000E+00
312	  0.082324654	-3.741900E+01	  0.082324654	7.060200E+01	  0.082324654	5.043200E+01	  0.082324654	1.280000E+00
313	  0.082525052	-3.856100E+01	  0.082525052	7.237600E+01	  0.082525052	5.034500E+01	  0.082525052	1.132000E+00
314	  0.082725458	-3.873800E+01	  0.082725458	7.949900E+01	  0.082725458	5.019800E+01	  0.082725458	1.141000E+00
315	  0.082925856	-3.916500E+01	  0.082925856	7.963000E+01	  0.082925856	5.018600E+01	  0.082925856	1.087000E+00
316	  0.083126254	-3.773100E+01	  0.083126254	9.848500E+01	  0.083126254	4.979200E+01	  0.083126254	1.279000E+00
317	  0.083326660	-3.786000E+01	  0.083326660	9.957000E+01	  0.083326660	4.977100E+01	  0.083326660	1.255000E+00
318	  0.083527058	-3.611400E+01	  0.083527058	1.044780E+02	  0.083527058	4.958700E+01	  0.083527058	1.502000E+00
319	  0.083727457	-3.544900E+01	  0.083727457	1.128340E+02	  0.083727457	4.932500E+01	  0.083727457	1.535000E+00
320	  0.083927862	-3.488800E+01	  0.083927862	1.177090E+02	  0.083927862	4.914400E+01	  0.083927862	1.567000E+00
321	  0.084128261	-3.339000E+01	  0.084128261	1.205290E+02	  0.084128261	4.889100E+01	  0.084128261	1.803000E+00
322	  0.084328659	-3.258100E+01	  0.084328659	1.224050E+02	  0.084328659	4.871800E+01	  0.084328659	1.933000E+00
323	  0.084529065	-3.153400E+01	  0.084529065	1.236000E+02	  0.084529065	4.850800E+01	  0.084529065	2.142000E+00
324	  0.084729463	-3.054800E+01	  0.084729463	1.239600E+02	  0.084729463	4.831000E+01	  0.084729463	2.381000E+00
325	  0.084929861	-2.926200E+01	  0.084929861	1.222570E+02	  0.084929861	4.811500E+01	  0.084929861	2.804000E+00
326	  0.085130267	-2.872100E+01	  0.085130267	1.241310E+02	  0.085130267	4.789900E+01	  0.085130267	2.909000E+00
327	  0.085330658	-2.798700E+01	  0.085330658	1.204780E+02	  0.085330658	4.790600E+01	  0.085330658	3.297000E+00
328	  0.085531056	-2.704100E+01	  0.085531056	1.210330E+02	  0.085531056	4.762400E+01	  0.085531056	3.635000E+00
329	  0.085731462	-2.601800E+01	  0.085731462	1.192880E+02	  0.085731462	4.743500E+01	  0.085731462	4.148000E+00
330	  0.085931860	-2.532600E+01	  0.085931860	1.154970E+02	  0.085931860	4.749900E+01	  0.085931860	4.657000E+00
331	  0.086132258	-2.452000E+01	  0.086132258	1.158630E+02	  0.086132258	4.720800E+01	  0.086132258	5.067000E+00
332	  0.086332664	-2.390100E+01	  0.086332664	1.126390E+02	  0.086332664	4.728000E+01	  0.086332664	5.592000E+00
333	  0.086533062	-2.349600E+01	  0.086533062	1.085110E+02	  0.086533062	4.754500E+01	  0.086533062	6.055000E+00
334	  0.086733460	-2.290500E+01	  0.086733460	1.055940E+02	  0.086733460	4.766500E+01	  0.086733460	6.605000E+00
335	  0.086933866	-2.228000E+01	  0.086933866	1.034080E+02	  0.086933866	4.771900E+01	  0.086933866	7.182000E+00
336	  0.087134264	-2.188100E+01	  0.087134264	9.933800E+01	  0.087134264	4.810600E+01	  0.087134264	7.694000E+00
337	  0.087334670	-2.148700E+01	  0.087334670	9.520300E+01	  0.087334670	4.855700E+01	  0.087334670	8.208000E+00
338	  0.087535068	-2.105800E+01	  0.087535068	9.252200E+01	  0.087535068	4.884400E+01	  0.087535068	8.708000E+00
339	  0.087735467	-2.070700E+01	  0.087735467	8.946300E+01	  0.087735467	4.924100E+01	  0.087735467	9.155000E+00
340	  0.087935872	-2.040100E+01	  0.087935872	8.622900E+01	  0.087935872	4.971500E+01	  0.087935872	9.560000E+00
341	  0.088136271	-2.017500E+01	  0.088136271	8.204900E+01	  0.088136271	5.040200E+01	  0.088136271	9.878000E+00
342	  0.088336669	-2.001600E+01	  0.088336669	7.957800E+01	  0.088336669	5.083000E+01	  0.088336669	1.008000E+01
343	  0.088537075	-1.969800E+01	  0.088537075	7.652500E+01	  0.088537075	5.139200E+01	  0.088537075	1.046100E+01
344	  0.088737473	-1.957000E+01	  0.088737473	7.371100E+01	  0.088737473	5.193500E+01	  0.088737473	1.059100E+01
345	  0.088937871	-1.939100E+01	  0.088937871	7.022300E+01	  0.088937871	5.263900E+01	  0.088937871	1.074900E+01
346	  0.089138277	-1.931700E+01	  0.089138277	6.692000E+01	  0.089138277	5.331200E+01	  0.089138277	1.073600E+01
347	  0.089338675	-1.913300E+01	  0.089338675	6.449900E+01	  0.089338675	5.385500E+01	  0.089338675	1.087300E+01
348	  0.089539073	-1.905500E+01	  0.089539073	6.176400E+01	  0.089539073	5.444500E+01	  0.089539073	1.083000E+01
349	  0.089739479	-1.894700E+01	  0.089739479	5.936400E+01	  0.089739479	5.498800E+01	  0.089739479	1.081900E+01
350	  0.089939877	-1.884000E+01	  0.089939877	5.703000E+01	  0.089939877	5.552800E+01	  0.089939877	1.078800E+01
351	  0.090140276	-1.880800E+01	  0.090140276	5.389300E+01	  0.090140276	5.620000E+01	  0.090140276	1.055500E+01
352	  0.090340681	-1.878200E+01	  0.090340681	5.171300E+01	  0.090340681	5.666600E+01	  0.090340681	1.037100E+01
353	  0.090541080	-1.872800E+01	  0.090541080	4.971800E+01	  0.090541080	5.711400E+01	  0.090541080	1.022400E+01
354	  0.090741485	-1.867500E+01	  0.090741485	4.719300E+01	  0.090741485	5.766800E+01	  0.090741485	9.991000E+00
355	  0.090941884	-1.860700E+01	  0.090941884	4.589500E+01	  0.090941884	5.798700E+01	  0.090941884	9.912000E+00
356	  0.091142282	-1.861100E+01	  0.091142282	4.290600E+01	  0.091142282	5.857300E+01	  0.091142282	9.488000E+00
357	  0.091342688	-1.849100E+01	  0.091342688	4.070200E+01	  0.091342688	5.911900E+01	  0.091342688	9.304000E+00
358	  0.091543086	-1.855700E+01	  0.091543086	3.897200E+01	  0.091543086	5.937500E+01	  0.091543086	8.942000E+00
359	  0.091743484	-1.848700E+01	  0.091743484	3.672700E+01	  0.091743484	5.986500E+01	  0.091743484	8.644000E+00
360	  0.091943890	-1.846800E+01	  0.091943890	3.477700E+01	  0.091943890	6.023400E+01	  0.091943890	8.314000E+00
361	  0.092144288	-1.840900E+01	  0.092144288	3.257900E+01	  0.092144288	6.068600E+01	  0.092144288	7.964000E+00
362	  0.092344686	-1.852400E+01	  0.092344686	3.064600E+01	  0.092344686	6.085200E+01	  0.092344686	7.457000E+00
363	  0.092545092	-1.838700E+01	  0.092545092	2.900000E+01	  0.092545092	6.129600E+01	  0.092545092	7.261000E+00
364	  0.092745490	-1.845000E+01	  0.092745490	2.741500E+01	  0.092745490	6.144700E+01	  0.092745490	6.862000E+00
365	  0.092945889	-1.829700E+01	  0.092945889	2.579100E+01	  0.092945889	6.190500E+01	  0.092945889	6.651000E+00
366	  0.093146294	-1.849700E+01	  0.093146294	2.430900E+01	  0.093146294	6.181400E+01	  0.093146294	6.137000E+00
367	  0.093346693	-1.846500E+01	  0.093346693	2.192600E+01	  0.093346693	6.216400E+01	  0.093346693	5.619000E+00
368	  0.093547091	-1.841400E+01	  0.093547091	2.056600E+01	  0.093547091	6.240600E+01	  0.093547091	5.339000E+00
369	  0.093747497	-1.848200E+01	  0.093747497	1.911700E+01	  0.093747497	6.246100E+01	  0.093747497	4.942000E+00
370	  0.093947895	-1.841700E+01	  0.093947895	1.688900E+01	  0.093947895	6.279500E+01	  0.093947895	4.442000E+00
371	  0.094148301	-1.840100E+01	  0.094148301	1.485900E+01	  0.094148301	6.300700E+01	  0.094148301	3.941000E+00
372	  0.094348699	-1.854200E+01	  0.094348699	1.352600E+01	  0.094348699	6.288200E+01	  0.094348699	3.528000E+00
373	  0.094549097	-1.838400E+01	  0.094549097	1.249600E+01	  0.094549097	6.322700E+01	  0.094549097	3.344000E+00
374	  0.094749503	-1.850500E+01	  0.094749503	1.041700E+01	  0.094749503	6.315900E+01	  0.094749503	2.751000E+00
375	  0.094949901	-1.851000E+01	  0.094949901	9.439000E+00	  0.094949901	6.320800E+01	  0.094949901	2.496000E+00
376	  0.095150299	-1.853100E+01	  0.095150299	7.714000E+00	  0.095150299	6.325800E+01	  0.095150299	2.039000E+00
377	  0.095350705	-1.864600E+01	  0.095350705	6.024000E+00	  0.095350705	6.312800E+01	  0.095350705	1.569000E+00
378	  0.095551103	-1.858600E+01	  0.095551103	4.434000E+00	  0.095551103	6.328000E+01	  0.095551103	1.167000E+00
379	  0.095751502	-1.853600E+01	  0.095751502	2.954000E+00	  0.095751502	6.339900E+01	  0.095751502	7.840000E-01
380	  0.095951907	-1.855000E+01	  0.095951907	1.595000E+00	  0.095951907	6.339200E+01	  0.095951907	4.230000E-01
381	  0.096152306	-1.856200E+01	  0.096152306	1.220000E-01	  0.096152306	6.337800E+01	  0.096152306	3.200000E-02
382	  0.096352704	-1.860900E+01	  0.096352704	-1.499000E+00	  0.096352704	6.328900E+01	  0.096352704	-3.940000E-01
383	  0.096553110	-1.869500E+01	  0.096553110	-3.182000E+00	  0.096553110	6.311900E+01	  0.096553110	-8.250000E-01
384	  0.096753508	-1.867500E+01	  0.096753508	-3.823000E+00	  0.096753508	6.314000E+01	  0.096753508	-9.940000E-01
385	  0.096953906	-1.852900E+01	  0.096953906	-5.358000E+00	  0.096953906	6.335100E+01	  0.096953906	-1.421000E+00
386	  0.097154312	-1.867200E+01	  0.097154312	-6.721000E+00	  0.097154312	6.305700E+01	  0.097154312	-1.743000E+00
387	  0.097354710	-1.868200E+01	  0.097354710	-8.281000E+00	  0.097354710	6.297400E+01	  0.097354710	-2.140000E+00
388	  0.097555116	-1.875300E+01	  0.097555116	-9.467000E+00	  0.097555116	6.279700E+01	  0.097555116	-2.416000E+00
389	  0.097755514	-1.877100E+01	  0.097755514	-1.121700E+01	  0.097755514	6.266600E+01	  0.097755514	-2.846000E+00
390	  0.097955912	-1.874000E+01	  0.097955912	-1.175500E+01	  0.097955912	6.268200E+01	  0.097955912	-2.992000E+00
391	  0.098156318	-1.888900E+01	  0.098156318	-1.363500E+01	  0.098156318	6.231200E+01	  0.098156318	-3.382000E+00
392	  0.098356716	-1.886700E+01	  0.098356716	-1.492100E+01	  0.098356716	6.224800E+01	  0.098356716	-3.700000E+00
393	  0.098557115	-1.885100E+01	  0.098557115	-1.585500E+01	  0.098557115	6.219600E+01	  0.098557115	-3.930000E+00
394	  0.098757520	-1.888300E+01	  0.098757520	-1.753600E+01	  0.098757520	6.199600E+01	  0.098757520	-4.304000E+00
395	  0.098957919	-1.886500E+01	  0.098957919	-1.851500E+01	  0.098957919	6.193000E+01	  0.098957919	-4.541000E+00
396	  0.099158317	-1.898900E+01	  0.099158317	-2.020000E+01	  0.099158317	6.157500E+01	  0.099158317	-4.838000E+00
397	  0.099358723	-1.891600E+01	  0.099358723	-2.137400E+01	  0.099358723	6.155500E+01	  0.099358723	-5.149000E+00
398	  0.099559121	-1.896400E+01	  0.099559121	-2.206500E+01	  0.099559121	6.140800E+01	  0.099559121	-5.264000E+00
399	  0.099759519	-1.907200E+01	  0.099759519	-2.376600E+01	  0.099759519	6.106000E+01	  0.099759519	-5.544000E+00
400	  0.099959925	-1.902700E+01	  0.099959925	-2.485200E+01	  0.099959925	6.099100E+01	  0.099959925	-5.806000E+00
401	  0.100160323	-1.905700E+01	  0.100160323	-2.741600E+01	  0.100160323	6.062100E+01	  0.100160323	-6.300000E+00
402	  0.100360721	-1.926200E+01	  0.100360721	-2.693100E+01	  0.100360721	6.041900E+01	  0.100360721	-6.029000E+00
403	  0.100561127	-1.909800E+01	  0.100561127	-2.918000E+01	  0.100561127	6.032800E+01	  0.100561127	-6.607000E+00
404	  0.100761525	-1.919300E+01	  0.100761525	-2.940600E+01	  0.100761525	6.017700E+01	  0.100761525	-6.563000E+00
405	  0.100961931	-1.927400E+01	  0.100961931	-3.098000E+01	  0.100961931	5.985900E+01	  0.100961931	-6.779000E+00
406	  0.101162329	-1.916400E+01	  0.101162329	-3.219400E+01	  0.101162329	5.981400E+01	  0.101162329	-7.103000E+00
407	  0.101362728	-1.928100E+01	  0.101362728	-3.298700E+01	  0.101362728	5.956100E+01	  0.101362728	-7.129000E+00
408	  0.101563133	-1.937300E+01	  0.101563133	-3.553100E+01	  0.101563133	5.907400E+01	  0.101563133	-7.465000E+00
409	  0.101763532	-1.956000E+01	  0.101763532	-3.555500E+01	  0.101763532	5.887100E+01	  0.101763532	-7.282000E+00
410	  0.101963930	-1.951700E+01	  0.101963930	-3.660400E+01	  0.101963930	5.875700E+01	  0.101963930	-7.491000E+00
411	  0.102164336	-1.935900E+01	  0.102164336	-3.829400E+01	  0.102164336	5.865100E+01	  0.102164336	-7.917000E+00
412	  0.102364734	-1.945300E+01	  0.102364734	-3.908000E+01	  0.102364734	5.843000E+01	  0.102364734	-7.935000E+00
413	  0.102565132	-1.956100E+01	  0.102565132	-4.079800E+01	  0.102565132	5.804800E+01	  0.102565132	-8.067000E+00
414	  0.102765530	-1.945100E+01	  0.102765530	-4.150700E+01	  0.102765530	5.803200E+01	  0.102765530	-8.287000E+00
415	  0.102965929	-1.957200E+01	  0.102965929	-4.288700E+01	  0.102965929	5.769200E+01	  0.102965929	-8.340000E+00
416	  0.103166327	-1.961400E+01	  0.103166327	-4.338000E+01	  0.103166327	5.757300E+01	  0.103166327	-8.359000E+00
417	  0.103366733	-1.949800E+01	  0.103366733	-4.529900E+01	  0.103366733	5.734100E+01	  0.103366733	-8.733000E+00
418	  0.103567131	-1.963000E+01	  0.103567131	-4.670300E+01	  0.103567131	5.699100E+01	  0.103567131	-8.751000E+00
419	  0.103767529	-1.959100E+01	  0.103767529	-4.655400E+01	  0.103767529	5.704700E+01	  0.103767529	-8.778000E+00
420	  0.103967935	-1.969900E+01	  0.103967935	-4.729200E+01	  0.103967935	5.683600E+01	  0.103967935	-8.740000E+00
421	  0.104168333	-1.977400E+01	  0.104168333	-4.973500E+01	  0.104168333	5.635500E+01	  0.104168333	-8.920000E+00
422	  0.104368731	-1.981500E+01	  0.104368731	-5.031700E+01	  0.104368731	5.622600E+01	  0.104368731	-8.932000E+00
423	  0.104569137	-1.977700E+01	  0.104569137	-5.214700E+01	  0.104569137	5.592600E+01	  0.104569137	-9.157000E+00
424	  0.104769535	-1.993200E+01	  0.104769535	-5.290000E+01	  0.104769535	5.569800E+01	  0.104769535	-9.046000E+00
425	  0.104969934	-1.982000E+01	  0.104969934	-5.347500E+01	  0.104969934	5.566200E+01	  0.104969934	-9.228000E+00
426	  0.105170339	-2.004500E+01	  0.105170339	-5.389800E+01	  0.105170339	5.545700E+01	  0.105170339	-9.003000E+00
427	  0.105370738	-1.992200E+01	  0.105370738	-5.553500E+01	  0.105370738	5.523600E+01	  0.105370738	-9.284000E+00
428	  0.105571143	-2.015800E+01	  0.105571143	-5.567100E+01	  0.105571143	5.508700E+01	  0.105571143	-9.020000E+00
429	  0.105771542	-2.004900E+01	  0.105771542	-5.826300E+01	  0.105771542	5.468500E+01	  0.105771542	-9.340000E+00
430	  0.105971940	-2.010000E+01	  0.105971940	-5.962600E+01	  0.105971940	5.441900E+01	  0.105971940	-9.373000E+00
431	  0.106172346	-2.012100E+01	  0.106172346	-5.972200E+01	  0.106172346	5.439300E+01	  0.106172346	-9.354000E+00
432	  0.106372744	-2.030100E+01	  0.106372744	-6.210200E+01	  0.106372744	5.390200E+01	  0.106372744	-9.289000E+00
433	  0.106573142	-2.036100E+01	  0.106573142	-6.303600E+01	  0.106573142	5.371800E+01	  0.106573142	-9.270000E+00
434	  0.106773548	-2.018600E+01	  0.106773548	-6.429200E+01	  0.106773548	5.355500E+01	  0.106773548	-9.537000E+00
435	  0.106973946	-2.027800E+01	  0.106973946	-6.460100E+01	  0.106973946	5.347100E+01	  0.106973946	-9.444000E+00
436	  0.107174344	-2.012200E+01	  0.107174344	-6.465600E+01	  0.107174344	5.351000E+01	  0.107174344	-9.629000E+00
437	  0.107374750	-2.036200E+01	  0.107374750	-6.532700E+01	  0.107374750	5.331900E+01	  0.107374750	-9.380000E+00
438	  0.107575148	-2.029800E+01	  0.107575148	-6.674300E+01	  0.107575148	5.308800E+01	  0.107575148	-9.514000E+00
439	  0.107775547	-2.029100E+01	  0.107775547	-6.882100E+01	  0.107775547	5.272300E+01	  0.107775547	-9.597000E+00
440	  0.107975952	-2.034900E+01	  0.107975952	-7.048300E+01	  0.107975952	5.241900E+01	  0.107975952	-9.579000E+00
441	  0.108176351	-2.049800E+01	  0.108176351	-7.114300E+01	  0.108176351	5.227800E+01	  0.108176351	-9.426000E+00
442	  0.108376749	-2.042700E+01	  0.108376749	-7.130400E+01	  0.108376749	5.226200E+01	  0.108376749	-9.512000E+00
443	  0.108577155	-2.034400E+01	  0.108577155	-7.248300E+01	  0.108577155	5.206900E+01	  0.108577155	-9.633000E+00
444	  0.108777553	-2.065600E+01	  0.108777553	-7.403500E+01	  0.108777553	5.176500E+01	  0.108777553	-9.309000E+00
445	  0.108977959	-2.049500E+01	  0.108977959	-7.588000E+01	  0.108977959	5.146600E+01	  0.108977959	-9.513000E+00
446	  0.109178357	-2.074700E+01	  0.109178357	-7.577600E+01	  0.109178357	5.146600E+01	  0.109178357	-9.232000E+00
447	  0.109378755	-2.059100E+01	  0.109378755	-7.600800E+01	  0.109378755	5.143800E+01	  0.109378755	-9.407000E+00
448	  0.109579161	-2.083100E+01	  0.109579161	-7.794000E+01	  0.109579161	5.110500E+01	  0.109579161	-9.158000E+00
449	  0.109779559	-2.077900E+01	  0.109779559	-7.849500E+01	  0.109779559	5.101600E+01	  0.109779559	-9.216000E+00
450	  0.109979957	-2.081300E+01	  0.109979957	-7.962300E+01	  0.109979957	5.083100E+01	  0.109979957	-9.181000E+00
451	  0.110180363	-2.068100E+01	  0.110180363	-8.101300E+01	  0.110180363	5.060100E+01	  0.110180363	-9.321000E+00
452	  0.110380761	-2.089900E+01	  0.110380761	-8.143800E+01	  0.110380761	5.053900E+01	  0.110380761	-9.085000E+00
453	  0.110581160	-2.087700E+01	  0.110581160	-8.431100E+01	  0.110581160	5.007900E+01	  0.110581160	-9.083000E+00
454	  0.110781565	-2.097000E+01	  0.110781565	-8.418200E+01	  0.110781565	5.010700E+01	  0.110781565	-8.988000E+00
455	  0.110981964	-2.105100E+01	  0.110981964	-8.631900E+01	  0.110981964	4.978200E+01	  0.110981964	-8.873000E+00
456	  0.111182362	-2.111300E+01	  0.111182362	-8.619800E+01	  0.111182362	4.980800E+01	  0.111182362	-8.812000E+00
457	  0.111382768	-2.097200E+01	  0.111382768	-8.876200E+01	  0.111382768	4.939600E+01	  0.111382768	-8.901000E+00
458	  0.111583166	-2.085900E+01	  0.111583166	-8.841600E+01	  0.111583166	4.943100E+01	  0.111583166	-9.025000E+00
459	  0.111783572	-2.106700E+01	  0.111783572	-8.981600E+01	  0.111783572	4.925100E+01	  0.111783572	-8.779000E+00
460	  0.111983970	-2.111100E+01	  0.111983970	-9.027400E+01	  0.111983970	4.919000E+01	  0.111983970	-8.723000E+00
461	  0.112184368	-2.124100E+01	  0.112184368	-9.142600E+01	  0.112184368	4.904400E+01	  0.112184368	-8.564000E+00
462	  0.112384774	-2.108200E+01	  0.112384774	-9.169900E+01	  0.112384774	4.897200E+01	  0.112384774	-8.711000E+00
463	  0.112585172	-2.117800E+01	  0.112585172	-9.371100E+01	  0.112585172	4.869700E+01	  0.112585172	-8.551000E+00
464	  0.112785570	-2.135500E+01	  0.112785570	-9.427200E+01	  0.112785570	4.865700E+01	  0.112785570	-8.363000E+00
465	  0.112985976	-2.133500E+01	  0.112985976	-9.567600E+01	  0.112985976	4.845400E+01	  0.112985976	-8.329000E+00
466	  0.113186374	-2.125400E+01	  0.113186374	-9.648600E+01	  0.113186374	4.831800E+01	  0.113186374	-8.373000E+00
467	  0.113386773	-2.135500E+01	  0.113386773	-9.761200E+01	  0.113386773	4.818900E+01	  0.113386773	-8.232000E+00
468	  0.113587178	-2.136200E+01	  0.113587178	-9.984800E+01	  0.113587178	4.788400E+01	  0.113587178	-8.125000E+00
469	  0.113787577	-2.125600E+01	  0.113787577	-1.012620E+02	  0.113787577	4.765700E+01	  0.113787577	-8.150000E+00
470	  0.113987975	-2.126400E+01	  0.113987975	-1.013250E+02	  0.113987975	4.765200E+01	  0.113987975	-8.139000E+00
471	  0.114188381	-2.156800E+01	  0.114188381	-1.026560E+02	  0.114188381	4.757900E+01	  0.114188381	-7.804000E+00
472	  0.114388779	-2.137500E+01	  0.114388779	-1.036400E+02	  0.114388779	4.738200E+01	  0.114388779	-7.918000E+00
473	  0.114589177	-2.139800E+01	  0.114589177	-1.038660E+02	  0.114589177	4.736100E+01	  0.114589177	-7.885000E+00
474	  0.114789583	-2.139900E+01	  0.114789583	-1.052220E+02	  0.114789583	4.718600E+01	  0.114789583	-7.807000E+00
475	  0.114989981	-2.159000E+01	  0.114989981	-1.063760E+02	  0.114989981	4.711400E+01	  0.114989981	-7.580000E+00
476	  0.115190387	-2.161300E+01	  0.115190387	-1.068890E+02	  0.115190387	4.705900E+01	  0.115190387	-7.531000E+00
477	  0.115390785	-2.162600E+01	  0.115390785	-1.090380E+02	  0.115390785	4.680200E+01	  0.115390785	-7.388000E+00
478	  0.115591183	-2.156200E+01	  0.115591183	-1.091330E+02	  0.115591183	4.676300E+01	  0.115591183	-7.433000E+00
479	  0.115791589	-2.181600E+01	  0.115791589	-1.089980E+02	  0.115791589	4.688500E+01	  0.115791589	-7.241000E+00
480	  0.115991987	-2.165400E+01	  0.115991987	-1.109170E+02	  0.115991987	4.659000E+01	  0.115991987	-7.243000E+00
481	  0.116192386	-2.163200E+01	  0.116192386	-1.119760E+02	  0.116192386	4.645600E+01	  0.116192386	-7.188000E+00
482	  0.116392791	-2.169900E+01	  0.116392791	-1.129090E+02	  0.116392791	4.637900E+01	  0.116392791	-7.073000E+00
483	  0.116593190	-2.186900E+01	  0.116593190	-1.138020E+02	  0.116593190	4.635600E+01	  0.116593190	-6.884000E+00
484	  0.116793588	-2.179800E+01	  0.116793588	-1.145660E+02	  0.116793588	4.623800E+01	  0.116793588	-6.882000E+00
485	  0.116993994	-2.189200E+01	  0.116993994	-1.174430E+02	  0.116993994	4.597100E+01	  0.116993994	-6.604000E+00
486	  0.117194392	-2.163600E+01	  0.117194392	-1.175500E+02	  0.117194392	4.583100E+01	  0.117194392	-6.777000E+00
487	  0.117394790	-2.184700E+01	  0.117394790	-1.191780E+02	  0.117394790	4.576600E+01	  0.117394790	-6.503000E+00
488	  0.117595196	-2.182200E+01	  0.117595196	-1.192280E+02	  0.117595196	4.574800E+01	  0.117595196	-6.516000E+00
489	  0.117795594	-2.183800E+01	  0.117795594	-1.202920E+02	  0.117795594	4.564700E+01	  0.117795594	-6.420000E+00
490	  0.117995992	-2.177000E+01	  0.117995992	-1.210700E+02	  0.117995992	4.553100E+01	  0.117995992	-6.404000E+00
491	  0.118196398	-2.183200E+01	  0.118196398	-1.224490E+02	  0.118196398	4.542600E+01	  0.118196398	-6.249000E+00
492	  0.118396796	-2.203900E+01	  0.118396796	-1.227730E+02	  0.118396796	4.550700E+01	  0.118396796	-6.089000E+00
493	  0.118597202	-2.204000E+01	  0.118597202	-1.251110E+02	  0.118597202	4.528500E+01	  0.118597202	-5.894000E+00
494	  0.118797600	-2.185600E+01	  0.118797600	-1.256530E+02	  0.118797600	4.513000E+01	  0.118797600	-5.962000E+00
495	  0.118997999	-2.202600E+01	  0.118997999	-1.261670E+02	  0.118997999	4.518000E+01	  0.118997999	-5.813000E+00
496	  0.119198404	-2.189500E+01	  0.119198404	-1.263680E+02	  0.119198404	4.508600E+01	  0.119198404	-5.875000E+00
497	  0.119398803	-2.195600E+01	  0.119398803	-1.286840E+02	  0.119398803	4.491200E+01	  0.119398803	-5.633000E+00
498	  0.119599201	-2.196900E+01	  0.119599201	-1.294050E+02	  0.119599201	4.485700E+01	  0.119599201	-5.561000E+00
499	  0.119799607	-2.212700E+01	  0.119799607	-1.301780E+02	  0.119799607	4.488400E+01	  0.119799607	-5.401000E+00
500	  0.120000005	-2.208600E+01	  0.120000005	-1.309580E+02	  0.120000005	4.479500E+01	  0.120000005	-5.353000E+00
