! Anritsu VNA Master:             	Model: MS2036C/10/77
! SN:             	1601066
! /card0/usr/18may12.lna.rl/256a.redo.lna.rl.txt
! Existing Calibration Information:
! TYPE:             	Current Settings	Active Cal Settings
! TIME:             	05/13/2018 01:35:49 PM	05/13/2018 01:31:14 PM
! INTERNAL TEMP:    	50.5 C	49.8 C
! # POINTS:         	500	500
! START FREQ:       	20.000 MHz	20.000 MHz
! STOP FREQ:        	120.000 MHz	120.000 MHz
! SOURCE POWER:     	Low	Low
! IFBW:             	10 Hz	10 Hz
! AVG FACTOR:       	  1 	  1 
! REF PLANE 1:      	0 mm	0 mm
! REF PLANE 2:      	0 mm	0 mm
! CAL TYPE:         	Full S22	Full S22
! CAL METHOD:       	SOLT	SOLT
! CAL LINE TYPE:    	Coax	Coax
! DUT PORT 1:       	K-Conn(M)	K-Conn(M)
! DUT PORT 2:       	K-Conn(M)	K-Conn(M)
! CAL STATUS:       	OK: Accuracy High	--
! PROP-V:       	0.700
! CABLE LOSS:       	0.000 dB/m
! REF IMPEDANCE:       	50.0
! Trace Specific Parameters:	TR1	TR2	TR3	TR4
! TRACE.#.Y (GRAPH TYPE)	LOG MAG	PHASE	REAL IMPEDANCE	IMAGINARY IMPEDANCE
! TRACE.#.X 	FREQ.GHZ	FREQ.GHZ	FREQ.GHZ	FREQ.GHZ
! S-PARAMETER	S22	S22	S22	S22
! SMOOTH/APERTURE %	0	0	0	0
! WINDOW	NSL	NSL	NSL	NSL
! GATING	OFF	OFF	OFF	OFF
! FGTD	OFF	OFF	OFF	OFF
Marker Information per Trace:	TR1	TR2	TR3	TR4
!MK1	--	"MK1 TR2:  12.585 170 MHz,##.##"	--	--
!MK2	--	--	"MK2 TR3:  360.721 kHz,##.##"	--
!MK3	--	--	--	--
!MK4	--	--	--	--
!MK5	--	--	--	--
!MK6	--	--	--	--
!MK7	--	--	--	--
!MK8	--	--	--	--
PNT	TR1.FREQ.GHZ	TR1.LOG MAG.dB	TR2.FREQ.GHZ	TR2.PHASE.deg	TR3.FREQ.GHZ	TR3.REAL IMPEDANCE.ohm	TR4.FREQ.GHZ	TR4.IMAGINARY IMPEDANCE.ohm
1	  0.020000000	-2.000600E+01	  0.020000000	2.629900E+01	  0.020000000	5.958000E+01	  0.020000000	5.328000E+00
2	  0.020200402	-1.991300E+01	  0.020200402	2.411900E+01	  0.020200402	5.992700E+01	  0.020200402	4.998000E+00
3	  0.020400802	-1.989400E+01	  0.020400802	2.169000E+01	  0.020400802	6.019300E+01	  0.020400802	4.550000E+00
4	  0.020601204	-1.993100E+01	  0.020601204	1.955700E+01	  0.020601204	6.034000E+01	  0.020601204	4.113000E+00
5	  0.020801604	-1.969100E+01	  0.020801604	1.654900E+01	  0.020801604	6.090800E+01	  0.020801604	3.634000E+00
6	  0.021002004	-1.973200E+01	  0.021002004	1.473100E+01	  0.021002004	6.098400E+01	  0.021002004	3.232000E+00
7	  0.021202406	-1.970200E+01	  0.021202406	1.255400E+01	  0.021202406	6.116500E+01	  0.021202406	2.781000E+00
8	  0.021402806	-1.963200E+01	  0.021402806	1.032000E+01	  0.021402806	6.138800E+01	  0.021402806	2.319000E+00
9	  0.021603208	-1.964800E+01	  0.021603208	7.231000E+00	  0.021603208	6.149600E+01	  0.021603208	1.629000E+00
10	  0.021803608	-1.959400E+01	  0.021803608	4.270000E+00	  0.021803608	6.165800E+01	  0.021803608	9.720000E-01
11	  0.022004008	-1.950600E+01	  0.022004008	1.730000E+00	  0.022004008	6.182900E+01	  0.022004008	3.990000E-01
12	  0.022204408	-1.937400E+01	  0.022204408	-4.840000E-01	  0.022204408	6.204000E+01	  0.022204408	-1.140000E-01
13	  0.022404809	-1.936900E+01	  0.022404809	-3.289000E+00	  0.022404809	6.202000E+01	  0.022404809	-7.740000E-01
14	  0.022605211	-1.929400E+01	  0.022605211	-6.080000E+00	  0.022605211	6.207000E+01	  0.022605211	-1.443000E+00
15	  0.022805611	-1.923800E+01	  0.022805611	-8.672000E+00	  0.022805611	6.205900E+01	  0.022805611	-2.067000E+00
16	  0.023006011	-1.913000E+01	  0.023006011	-1.195700E+01	  0.023006011	6.205000E+01	  0.023006011	-2.877000E+00
17	  0.023206413	-1.918500E+01	  0.023206413	-1.505600E+01	  0.023206413	6.175000E+01	  0.023206413	-3.566000E+00
18	  0.023406813	-1.913100E+01	  0.023406813	-1.738200E+01	  0.023406813	6.163800E+01	  0.023406813	-4.120000E+00
19	  0.023607215	-1.913400E+01	  0.023607215	-2.074600E+01	  0.023607215	6.131000E+01	  0.023607215	-4.858000E+00
20	  0.023807615	-1.899900E+01	  0.023807615	-2.442000E+01	  0.023807615	6.108300E+01	  0.023807615	-5.739000E+00
21	  0.024008015	-1.898800E+01	  0.024008015	-2.765800E+01	  0.024008015	6.068000E+01	  0.024008015	-6.410000E+00
22	  0.024208417	-1.899100E+01	  0.024208417	-3.064000E+01	  0.024208417	6.025400E+01	  0.024208417	-6.986000E+00
23	  0.024408817	-1.902200E+01	  0.024408817	-3.416400E+01	  0.024408817	5.967800E+01	  0.024408817	-7.596000E+00
24	  0.024609219	-1.891200E+01	  0.024609219	-3.860800E+01	  0.024609219	5.905900E+01	  0.024609219	-8.461000E+00
25	  0.024809619	-1.894500E+01	  0.024809619	-4.224300E+01	  0.024809619	5.837700E+01	  0.024809619	-8.977000E+00
26	  0.025010020	-1.890000E+01	  0.025010020	-4.602100E+01	  0.025010020	5.770800E+01	  0.025010020	-9.548000E+00
27	  0.025210422	-1.896200E+01	  0.025210422	-5.093300E+01	  0.025210422	5.669800E+01	  0.025210422	-1.004800E+01
28	  0.025410822	-1.908000E+01	  0.025410822	-5.505500E+01	  0.025410822	5.579800E+01	  0.025410822	-1.029600E+01
29	  0.025611224	-1.907200E+01	  0.025611224	-6.007900E+01	  0.025611224	5.478300E+01	  0.025611224	-1.069900E+01
30	  0.025811624	-1.918200E+01	  0.025811624	-6.555200E+01	  0.025811624	5.362500E+01	  0.025811624	-1.085700E+01
31	  0.026012026	-1.920700E+01	  0.026012026	-7.038700E+01	  0.026012026	5.263900E+01	  0.026012026	-1.099600E+01
32	  0.026212426	-1.933900E+01	  0.026212426	-7.651200E+01	  0.026212426	5.140600E+01	  0.026212426	-1.091500E+01
33	  0.026412826	-1.955900E+01	  0.026412826	-8.234000E+01	  0.026412826	5.030000E+01	  0.026412826	-1.060600E+01
34	  0.026613226	-1.985500E+01	  0.026613226	-8.868500E+01	  0.026613226	4.920300E+01	  0.026613226	-1.010700E+01
35	  0.026813626	-2.019500E+01	  0.026813626	-9.552500E+01	  0.026813626	4.815500E+01	  0.026813626	-9.463000E+00
36	  0.027014028	-2.067700E+01	  0.027014028	-1.025520E+02	  0.027014028	4.726700E+01	  0.027014028	-8.608000E+00
37	  0.027214428	-2.122800E+01	  0.027214428	-1.095820E+02	  0.027214428	4.656200E+01	  0.027214428	-7.674000E+00
38	  0.027414829	-2.181800E+01	  0.027414829	-1.175530E+02	  0.027414829	4.592300E+01	  0.027414829	-6.648000E+00
39	  0.027615231	-2.270600E+01	  0.027615231	-1.251250E+02	  0.027615231	4.564000E+01	  0.027615231	-5.496000E+00
40	  0.027815631	-2.356200E+01	  0.027815631	-1.333220E+02	  0.027815631	4.544200E+01	  0.027815631	-4.406000E+00
41	  0.028016033	-2.480500E+01	  0.028016033	-1.407320E+02	  0.028016033	4.562100E+01	  0.028016033	-3.332000E+00
42	  0.028216433	-2.612100E+01	  0.028216433	-1.487900E+02	  0.028216433	4.588600E+01	  0.028216433	-2.356000E+00
43	  0.028416833	-2.768500E+01	  0.028416833	-1.562320E+02	  0.028416833	4.633500E+01	  0.028416833	-1.544000E+00
44	  0.028617235	-2.929400E+01	  0.028617235	-1.624380E+02	  0.028617235	4.682300E+01	  0.028617235	-9.700000E-01
45	  0.028817635	-3.117600E+01	  0.028817635	-1.694420E+02	  0.028817635	4.735400E+01	  0.028817635	-4.790000E-01
46	  0.029018037	-3.328800E+01	  0.029018037	-1.782250E+02	  0.029018037	4.788100E+01	  0.029018037	-6.400000E-02
47	  0.029218437	-3.589800E+01	  0.029218437	1.770660E+02	  0.029218437	4.842300E+01	  0.029218437	7.900000E-02
48	  0.029418837	-3.940800E+01	  0.029418837	1.693830E+02	  0.029418837	4.895800E+01	  0.029418837	1.930000E-01
49	  0.029619239	-4.455900E+01	  0.029619239	1.607390E+02	  0.029619239	4.944400E+01	  0.029619239	1.920000E-01
50	  0.029819639	-5.069400E+01	  0.029819639	1.316440E+02	  0.029819639	4.980500E+01	  0.029819639	2.170000E-01
51	  0.030020041	-5.188000E+01	  0.030020041	9.298000E+00	  0.030020041	5.025100E+01	  0.030020041	4.100000E-02
52	  0.030220442	-4.625900E+01	  0.030220442	-1.103700E+01	  0.030220442	5.047900E+01	  0.030220442	-9.400000E-02
53	  0.030420844	-4.247700E+01	  0.030420844	-1.989800E+01	  0.030420844	5.071100E+01	  0.030420844	-2.590000E-01
54	  0.030621244	-4.149600E+01	  0.030621244	-2.672700E+01	  0.030621244	5.075600E+01	  0.030621244	-3.840000E-01
55	  0.030821644	-3.957900E+01	  0.030821644	-3.398000E+01	  0.030821644	5.087400E+01	  0.030821644	-5.960000E-01
56	  0.031022044	-3.865600E+01	  0.031022044	-3.756500E+01	  0.031022044	5.092800E+01	  0.031022044	-7.240000E-01
57	  0.031222444	-3.733500E+01	  0.031222444	-3.926400E+01	  0.031222444	5.105500E+01	  0.031222444	-8.780000E-01
58	  0.031422846	-3.641400E+01	  0.031422846	-4.580000E+01	  0.031422846	5.105200E+01	  0.031422846	-1.106000E+00
59	  0.031623244	-3.664500E+01	  0.031623244	-4.803800E+01	  0.031623244	5.098100E+01	  0.031623244	-1.115000E+00
60	  0.031823646	-3.710300E+01	  0.031823646	-5.336600E+01	  0.031823646	5.082600E+01	  0.031823646	-1.138000E+00
61	  0.032024048	-3.625800E+01	  0.032024048	-5.157300E+01	  0.032024048	5.095000E+01	  0.032024048	-1.228000E+00
62	  0.032224450	-3.563300E+01	  0.032224450	-5.749300E+01	  0.032224450	5.087600E+01	  0.032224450	-1.419000E+00
63	  0.032424849	-3.630900E+01	  0.032424849	-5.929200E+01	  0.032424849	5.076900E+01	  0.032424849	-1.335000E+00
64	  0.032625251	-3.617400E+01	  0.032625251	-6.595300E+01	  0.032625251	5.061600E+01	  0.032625251	-1.436000E+00
65	  0.032825653	-3.669400E+01	  0.032825653	-6.719800E+01	  0.032825653	5.055100E+01	  0.032825653	-1.363000E+00
66	  0.033026051	-3.716200E+01	  0.033026051	-6.548100E+01	  0.033026051	5.056200E+01	  0.033026051	-1.275000E+00
67	  0.033226453	-3.650700E+01	  0.033226453	-6.782600E+01	  0.033226453	5.054700E+01	  0.033226453	-1.399000E+00
68	  0.033426855	-3.680200E+01	  0.033426855	-7.344500E+01	  0.033426855	5.039400E+01	  0.033426855	-1.396000E+00
69	  0.033627257	-3.680500E+01	  0.033627257	-7.172000E+01	  0.033627257	5.043600E+01	  0.033627257	-1.383000E+00
70	  0.033827655	-3.754700E+01	  0.033827655	-7.392100E+01	  0.033827655	5.035200E+01	  0.033827655	-1.283000E+00
71	  0.034028057	-3.856900E+01	  0.034028057	-7.851600E+01	  0.034028057	5.022100E+01	  0.034028057	-1.160000E+00
72	  0.034228459	-3.776600E+01	  0.034228459	-7.954100E+01	  0.034228459	5.021900E+01	  0.034228459	-1.277000E+00
73	  0.034428857	-3.855900E+01	  0.034428857	-8.249500E+01	  0.034428857	5.014000E+01	  0.034428857	-1.173000E+00
74	  0.034629259	-3.903800E+01	  0.034629259	-8.400100E+01	  0.034629259	5.010400E+01	  0.034629259	-1.113000E+00
75	  0.034829661	-3.992600E+01	  0.034829661	-8.412800E+01	  0.034829661	5.009300E+01	  0.034829661	-1.005000E+00
76	  0.035030060	-4.018300E+01	  0.035030060	-8.655100E+01	  0.035030060	5.004900E+01	  0.035030060	-9.780000E-01
77	  0.035230462	-4.137400E+01	  0.035230462	-9.158000E+01	  0.035230462	4.996900E+01	  0.035230462	-8.520000E-01
78	  0.035430863	-4.114100E+01	  0.035430863	-9.612000E+01	  0.035430863	4.989900E+01	  0.035430863	-8.700000E-01
79	  0.035631265	-4.232700E+01	  0.035631265	-8.849200E+01	  0.035631265	5.001400E+01	  0.035631265	-7.640000E-01
80	  0.035831664	-4.269900E+01	  0.035831664	-9.563200E+01	  0.035831664	4.992200E+01	  0.035831664	-7.280000E-01
81	  0.036032066	-4.292000E+01	  0.036032066	-9.981800E+01	  0.036032066	4.987300E+01	  0.036032066	-7.020000E-01
82	  0.036232468	-4.597900E+01	  0.036232468	-9.339800E+01	  0.036232468	4.996700E+01	  0.036232468	-5.010000E-01
83	  0.036432866	-4.484700E+01	  0.036432866	-8.800300E+01	  0.036432866	5.001600E+01	  0.036432866	-5.720000E-01
84	  0.036633268	-4.527700E+01	  0.036633268	-9.048000E+01	  0.036633268	4.999200E+01	  0.036633268	-5.440000E-01
85	  0.036833670	-4.600700E+01	  0.036833670	-8.399200E+01	  0.036833670	5.004900E+01	  0.036833670	-4.980000E-01
86	  0.037034072	-4.906400E+01	  0.037034072	-7.425500E+01	  0.037034072	5.009400E+01	  0.037034072	-3.390000E-01
87	  0.037234470	-4.921200E+01	  0.037234470	-7.551300E+01	  0.037234470	5.008500E+01	  0.037234470	-3.350000E-01
88	  0.037434869	-4.958100E+01	  0.037434869	-5.437500E+01	  0.037434869	5.019200E+01	  0.037434869	-2.700000E-01
89	  0.037635271	-5.057100E+01	  0.037635271	-5.951900E+01	  0.037635271	5.014900E+01	  0.037635271	-2.550000E-01
90	  0.037835669	-5.062700E+01	  0.037835669	-7.002600E+01	  0.037835669	5.009900E+01	  0.037835669	-2.770000E-01
91	  0.038036071	-4.821700E+01	  0.038036071	-4.702100E+01	  0.038036071	5.026400E+01	  0.038036071	-2.850000E-01
92	  0.038236473	-5.018900E+01	  0.038236473	-4.162800E+01	  0.038236473	5.023100E+01	  0.038236473	-2.060000E-01
93	  0.038436871	-5.330500E+01	  0.038436871	-2.329900E+01	  0.038436871	5.019800E+01	  0.038436871	-8.500000E-02
94	  0.038637273	-5.175600E+01	  0.038637273	-2.924200E+01	  0.038637273	5.022500E+01	  0.038637273	-1.260000E-01
95	  0.038837675	-4.916400E+01	  0.038837675	-3.712600E+01	  0.038837675	5.027700E+01	  0.038837675	-2.110000E-01
96	  0.039038073	-4.817100E+01	  0.039038073	-6.044000E+00	  0.039038073	5.038900E+01	  0.039038073	-4.100000E-02
97	  0.039238475	-4.835200E+01	  0.039238475	-1.101100E+01	  0.039238475	5.037600E+01	  0.039238475	-7.300000E-02
98	  0.039438877	-4.862600E+01	  0.039438877	5.252000E+00	  0.039438877	5.037000E+01	  0.039438877	3.400000E-02
99	  0.039639279	-4.622900E+01	  0.039639279	-3.724000E+00	  0.039639279	5.048900E+01	  0.039639279	-3.200000E-02
100	  0.039839678	-4.588000E+01	  0.039839678	-1.327000E+00	  0.039839678	5.051000E+01	  0.039839678	-1.100000E-02
101	  0.040040080	-4.904200E+01	  0.040040080	-1.739100E+01	  0.040040080	5.033700E+01	  0.040040080	-1.060000E-01
102	  0.040240481	-4.658200E+01	  0.040240481	-8.088000E+00	  0.040240481	5.046600E+01	  0.040240481	-6.600000E-02
103	  0.040440880	-4.471900E+01	  0.040440880	-3.152000E+00	  0.040440880	5.058300E+01	  0.040440880	-3.200000E-02
104	  0.040641282	-4.706800E+01	  0.040641282	7.327000E+00	  0.040641282	5.044100E+01	  0.040641282	5.700000E-02
105	  0.040841684	-4.787300E+01	  0.040841684	8.657000E+00	  0.040841684	5.040000E+01	  0.040841684	6.100000E-02
106	  0.041042086	-4.536900E+01	  0.041042086	9.730000E-01	  0.041042086	5.054100E+01	  0.041042086	9.000000E-03
107	  0.041242484	-4.518300E+01	  0.041242484	7.730000E-01	  0.041242484	5.055300E+01	  0.041242484	7.000000E-03
108	  0.041442886	-4.584200E+01	  0.041442886	7.963000E+00	  0.041442886	5.050700E+01	  0.041442886	7.100000E-02
109	  0.041643288	-4.571700E+01	  0.041643288	9.390000E-01	  0.041643288	5.052000E+01	  0.041643288	8.000000E-03
110	  0.041843686	-4.449200E+01	  0.041843686	7.180000E-01	  0.041843686	5.059900E+01	  0.041843686	7.000000E-03
111	  0.042044088	-4.568600E+01	  0.042044088	9.414000E+00	  0.042044088	5.051500E+01	  0.042044088	8.500000E-02
112	  0.042244490	-4.635600E+01	  0.042244490	-1.302200E+01	  0.042244490	5.047000E+01	  0.042244490	-1.090000E-01
113	  0.042444889	-4.445100E+01	  0.042444889	-9.100000E-02	  0.042444889	5.060200E+01	  0.042444889	0.000000E+00
114	  0.042645290	-4.432200E+01	  0.042645290	4.104000E+00	  0.042645290	5.061000E+01	  0.042645290	4.400000E-02
115	  0.042845692	-4.591700E+01	  0.042845692	5.617000E+00	  0.042845692	5.050600E+01	  0.042845692	5.000000E-02
116	  0.043046094	-4.468900E+01	  0.043046094	-4.977000E+00	  0.043046094	5.058300E+01	  0.043046094	-5.100000E-02
117	  0.043246493	-4.400700E+01	  0.043246493	6.360000E+00	  0.043246493	5.063000E+01	  0.043246493	7.000000E-02
118	  0.043446895	-4.602900E+01	  0.043446895	7.501000E+00	  0.043446895	5.049700E+01	  0.043446895	6.500000E-02
119	  0.043647297	-4.456200E+01	  0.043647297	3.186000E+00	  0.043647297	5.059300E+01	  0.043647297	3.300000E-02
120	  0.043847695	-4.574200E+01	  0.043847695	1.881700E+01	  0.043847695	5.049000E+01	  0.043847695	1.680000E-01
121	  0.044048097	-4.529400E+01	  0.044048097	2.650000E+00	  0.044048097	5.054500E+01	  0.044048097	2.500000E-02
122	  0.044248499	-4.427700E+01	  0.044248499	-9.230000E-01	  0.044248499	5.061400E+01	  0.044248499	-9.000000E-03
123	  0.044448901	-4.592100E+01	  0.044448901	1.591600E+01	  0.044448901	5.048800E+01	  0.044448901	1.400000E-01
124	  0.044649299	-4.548700E+01	  0.044649299	6.557000E+00	  0.044649299	5.053000E+01	  0.044649299	6.100000E-02
125	  0.044849701	-4.506400E+01	  0.044849701	9.726000E+00	  0.044849701	5.055300E+01	  0.044849701	9.500000E-02
126	  0.045050103	-4.300800E+01	  0.045050103	1.308100E+01	  0.045050103	5.069300E+01	  0.045050103	1.620000E-01
127	  0.045250501	-4.410200E+01	  0.045250501	-1.667000E+00	  0.045250501	5.062700E+01	  0.045250501	-1.800000E-02
128	  0.045450903	-4.442200E+01	  0.045450903	1.974100E+01	  0.045450903	5.056800E+01	  0.045450903	2.050000E-01
129	  0.045651305	-4.509800E+01	  0.045651305	1.270800E+01	  0.045651305	5.054500E+01	  0.045651305	1.230000E-01
130	  0.045851704	-4.659200E+01	  0.045851704	1.209700E+01	  0.045851704	5.045900E+01	  0.045851704	9.900000E-02
131	  0.046052106	-4.551000E+01	  0.046052106	3.064700E+01	  0.046052106	5.045700E+01	  0.046052106	2.720000E-01
132	  0.046252504	-4.548600E+01	  0.046252504	1.158200E+01	  0.046252504	5.052300E+01	  0.046252504	1.070000E-01
133	  0.046452906	-4.455300E+01	  0.046452906	3.147400E+01	  0.046452906	5.050600E+01	  0.046452906	3.120000E-01
134	  0.046653304	-4.368600E+01	  0.046653304	2.368900E+01	  0.046653304	5.060100E+01	  0.046653304	2.660000E-01
135	  0.046853706	-4.450600E+01	  0.046853706	3.151400E+01	  0.046853706	5.050900E+01	  0.046853706	3.140000E-01
136	  0.047054108	-4.257200E+01	  0.047054108	3.056000E+01	  0.047054108	5.064300E+01	  0.047054108	3.820000E-01
137	  0.047254506	-4.415200E+01	  0.047254506	3.450400E+01	  0.047254506	5.051200E+01	  0.047254506	3.540000E-01
138	  0.047454908	-4.305600E+01	  0.047454908	3.772700E+01	  0.047454908	5.055700E+01	  0.047454908	4.350000E-01
139	  0.047655310	-4.382800E+01	  0.047655310	3.795000E+01	  0.047655310	5.050800E+01	  0.047655310	3.990000E-01
140	  0.047855709	-4.358700E+01	  0.047855709	3.790100E+01	  0.047855709	5.052300E+01	  0.047855709	4.100000E-01
141	  0.048056111	-4.205000E+01	  0.048056111	2.945800E+01	  0.048056111	5.069000E+01	  0.048056111	3.930000E-01
142	  0.048256513	-4.333100E+01	  0.048256513	3.208400E+01	  0.048256513	5.057900E+01	  0.048256513	3.660000E-01
143	  0.048456915	-4.229600E+01	  0.048456915	3.553600E+01	  0.048456915	5.062600E+01	  0.048456915	4.510000E-01
144	  0.048657313	-4.294100E+01	  0.048657313	3.425700E+01	  0.048657313	5.059000E+01	  0.048657313	4.050000E-01
145	  0.048857715	-4.114200E+01	  0.048857715	3.630300E+01	  0.048857715	5.070800E+01	  0.048857715	5.260000E-01
146	  0.049058117	-4.151300E+01	  0.049058117	3.568600E+01	  0.049058117	5.068400E+01	  0.049058117	4.960000E-01
147	  0.049258515	-4.169000E+01	  0.049258515	3.568600E+01	  0.049258515	5.067000E+01	  0.049258515	4.860000E-01
148	  0.049458917	-4.181300E+01	  0.049458917	4.402200E+01	  0.049458917	5.058300E+01	  0.049458917	5.700000E-01
149	  0.049659319	-4.125700E+01	  0.049659319	4.114200E+01	  0.049659319	5.065200E+01	  0.049659319	5.760000E-01
150	  0.049859721	-3.944200E+01	  0.049859721	3.848500E+01	  0.049859721	5.083700E+01	  0.049859721	6.740000E-01
151	  0.050060119	-4.068300E+01	  0.050060119	3.568100E+01	  0.050060119	5.075300E+01	  0.050060119	5.470000E-01
152	  0.050260521	-4.088300E+01	  0.050260521	3.812600E+01	  0.050260521	5.071200E+01	  0.050260521	5.650000E-01
153	  0.050460923	-4.025200E+01	  0.050460923	3.979000E+01	  0.050460923	5.074800E+01	  0.050460923	6.300000E-01
154	  0.050661322	-3.956400E+01	  0.050661322	3.864400E+01	  0.050661322	5.082300E+01	  0.050661322	6.670000E-01
155	  0.050861724	-4.039200E+01	  0.050861724	3.598000E+01	  0.050861724	5.077600E+01	  0.050861724	5.700000E-01
156	  0.051062126	-3.962700E+01	  0.051062126	3.567500E+01	  0.051062126	5.085100E+01	  0.051062126	6.190000E-01
157	  0.051262524	-3.826300E+01	  0.051262524	3.510100E+01	  0.051262524	5.100400E+01	  0.051262524	7.160000E-01
158	  0.051462926	-3.989100E+01	  0.051462926	3.826900E+01	  0.051462926	5.079700E+01	  0.051462926	6.370000E-01
159	  0.051663328	-3.848800E+01	  0.051663328	3.553600E+01	  0.051663328	5.097200E+01	  0.051663328	7.050000E-01
160	  0.051863730	-3.887100E+01	  0.051863730	3.551100E+01	  0.051863730	5.093100E+01	  0.051863730	6.730000E-01
161	  0.052064128	-3.883600E+01	  0.052064128	3.407300E+01	  0.052064128	5.095100E+01	  0.052064128	6.520000E-01
162	  0.052264530	-3.836600E+01	  0.052264530	3.180700E+01	  0.052264530	5.103200E+01	  0.052264530	6.490000E-01
163	  0.052464932	-3.741300E+01	  0.052464932	3.822100E+01	  0.052464932	5.106200E+01	  0.052464932	8.510000E-01
164	  0.052665330	-3.929500E+01	  0.052665330	3.256700E+01	  0.052665330	5.091800E+01	  0.052665330	5.940000E-01
165	  0.052865732	-3.857500E+01	  0.052865732	3.116700E+01	  0.052865732	5.101400E+01	  0.052865732	6.220000E-01
166	  0.053066134	-3.803200E+01	  0.053066134	3.232300E+01	  0.053066134	5.106600E+01	  0.053066134	6.850000E-01
167	  0.053266536	-3.704800E+01	  0.053266536	3.017500E+01	  0.053266536	5.122400E+01	  0.053266536	7.230000E-01
168	  0.053466935	-3.734200E+01	  0.053466935	2.945800E+01	  0.053466935	5.119100E+01	  0.053466935	6.830000E-01
169	  0.053667337	-3.722300E+01	  0.053667337	2.993500E+01	  0.053667337	5.120200E+01	  0.053667337	7.030000E-01
170	  0.053867739	-3.793000E+01	  0.053867739	2.713600E+01	  0.053867739	5.113800E+01	  0.053867739	5.920000E-01
171	  0.054068137	-3.642200E+01	  0.054068137	2.640800E+01	  0.054068137	5.136600E+01	  0.054068137	6.890000E-01
172	  0.054268539	-3.767900E+01	  0.054268539	2.439300E+01	  0.054268539	5.120000E+01	  0.054268539	5.520000E-01
173	  0.054468941	-3.673300E+01	  0.054468941	2.091000E+01	  0.054468941	5.137600E+01	  0.054468941	5.340000E-01
174	  0.054669339	-3.755100E+01	  0.054669339	2.808400E+01	  0.054669339	5.117900E+01	  0.054669339	6.380000E-01
175	  0.054869737	-3.609800E+01	  0.054869737	2.098400E+01	  0.054869737	5.148100E+01	  0.054869737	5.770000E-01
176	  0.055070139	-3.682000E+01	  0.055070139	1.759400E+01	  0.055070139	5.139100E+01	  0.055070139	4.480000E-01
177	  0.055270538	-3.693200E+01	  0.055270538	1.872800E+01	  0.055270538	5.136400E+01	  0.055270538	4.690000E-01
178	  0.055470940	-3.699500E+01	  0.055470940	1.412200E+01	  0.055470940	5.138800E+01	  0.055470940	3.540000E-01
179	  0.055671342	-3.658600E+01	  0.055671342	1.833800E+01	  0.055671342	5.142300E+01	  0.055671342	4.790000E-01
180	  0.055871744	-3.645400E+01	  0.055871744	1.932100E+01	  0.055871744	5.143700E+01	  0.055871744	5.120000E-01
181	  0.056072142	-3.675300E+01	  0.056072142	1.804000E+01	  0.056072142	5.139800E+01	  0.056072142	4.620000E-01
182	  0.056272544	-3.684100E+01	  0.056272544	1.524700E+01	  0.056272544	5.140500E+01	  0.056272544	3.890000E-01
183	  0.056472946	-3.696600E+01	  0.056472946	1.508900E+01	  0.056472946	5.138600E+01	  0.056472946	3.790000E-01
184	  0.056673344	-3.611500E+01	  0.056673344	1.251100E+01	  0.056673344	5.154900E+01	  0.056673344	3.490000E-01
185	  0.056873746	-3.655400E+01	  0.056873746	9.412000E+00	  0.056873746	5.148800E+01	  0.056873746	2.500000E-01
186	  0.057074148	-3.627600E+01	  0.057074148	1.191200E+01	  0.057074148	5.152300E+01	  0.057074148	3.260000E-01
187	  0.057274550	-3.632300E+01	  0.057274550	6.584000E+00	  0.057274550	5.153900E+01	  0.057274550	1.800000E-01
188	  0.057474948	-3.633500E+01	  0.057474948	9.103000E+00	  0.057474948	5.152800E+01	  0.057474948	2.480000E-01
189	  0.057675350	-3.630900E+01	  0.057675350	6.917000E+00	  0.057675350	5.154100E+01	  0.057675350	1.890000E-01
190	  0.057875752	-3.699300E+01	  0.057875752	3.891000E+00	  0.057875752	5.143000E+01	  0.057875752	9.800000E-02
191	  0.058076151	-3.632900E+01	  0.058076151	4.765000E+00	  0.058076151	5.154300E+01	  0.058076151	1.300000E-01
192	  0.058276553	-3.664100E+01	  0.058276553	4.713000E+00	  0.058276553	5.148800E+01	  0.058276553	1.240000E-01
193	  0.058476955	-3.654700E+01	  0.058476955	4.940000E+00	  0.058476955	5.150400E+01	  0.058476955	1.320000E-01
194	  0.058677353	-3.631400E+01	  0.058677353	-3.810000E-01	  0.058677353	5.155200E+01	  0.058677353	-1.000000E-02
195	  0.058877755	-3.626800E+01	  0.058877755	2.720000E-01	  0.058877755	5.156000E+01	  0.058877755	7.000000E-03
196	  0.059078157	-3.627700E+01	  0.059078157	1.395000E+00	  0.059078157	5.155800E+01	  0.059078157	3.800000E-02
197	  0.059278559	-3.664500E+01	  0.059278559	-2.514000E+00	  0.059278559	5.149100E+01	  0.059278559	-6.600000E-02
198	  0.059478957	-3.658800E+01	  0.059478957	-3.292000E+00	  0.059478957	5.150000E+01	  0.059478957	-8.700000E-02
199	  0.059679359	-3.719800E+01	  0.059679359	4.050000E-01	  0.059679359	5.139900E+01	  0.059679359	1.000000E-02
200	  0.059879761	-3.718500E+01	  0.059879761	-5.579000E+00	  0.059879761	5.139500E+01	  0.059879761	-1.380000E-01
201	  0.060080159	-3.734200E+01	  0.060080159	-5.332000E+00	  0.060080159	5.137000E+01	  0.060080159	-1.290000E-01
202	  0.060280561	-3.721300E+01	  0.060280561	-9.292000E+00	  0.060280561	5.137800E+01	  0.060280561	-2.280000E-01
203	  0.060480963	-3.827900E+01	  0.060480963	-7.130000E+00	  0.060480963	5.122400E+01	  0.060480963	-1.550000E-01
204	  0.060681365	-3.767800E+01	  0.060681365	-1.218900E+01	  0.060681365	5.129200E+01	  0.060681365	-2.830000E-01
205	  0.060881764	-3.785700E+01	  0.060881764	-9.525000E+00	  0.060881764	5.127700E+01	  0.060881764	-2.170000E-01
206	  0.061082166	-3.805900E+01	  0.061082166	-1.519100E+01	  0.061082166	5.122000E+01	  0.061082166	-3.350000E-01
207	  0.061282568	-3.785300E+01	  0.061282568	-1.452900E+01	  0.061282568	5.125300E+01	  0.061282568	-3.290000E-01
208	  0.061482966	-3.874300E+01	  0.061482966	-1.220900E+01	  0.061482966	5.114100E+01	  0.061482966	-2.500000E-01
209	  0.061683368	-3.915800E+01	  0.061683368	-1.808900E+01	  0.061683368	5.105700E+01	  0.061683368	-3.490000E-01
210	  0.061883770	-3.883100E+01	  0.061883770	-2.590600E+01	  0.061883770	5.103700E+01	  0.061883770	-5.100000E-01
211	  0.062084168	-3.944600E+01	  0.062084168	-2.241900E+01	  0.062084168	5.099300E+01	  0.062084168	-4.140000E-01
212	  0.062284570	-3.978400E+01	  0.062284570	-2.106000E+01	  0.062284570	5.096400E+01	  0.062284570	-3.750000E-01
213	  0.062484972	-3.931500E+01	  0.062484972	-1.707200E+01	  0.062484972	5.104400E+01	  0.062484972	-3.240000E-01
214	  0.062685370	-4.161100E+01	  0.062685370	-3.212600E+01	  0.062685370	5.070600E+01	  0.062685370	-4.470000E-01
215	  0.062885776	-4.081800E+01	  0.062885776	-3.234100E+01	  0.062885776	5.077200E+01	  0.062885776	-4.940000E-01
216	  0.063086174	-4.214800E+01	  0.063086174	-2.070300E+01	  0.063086174	5.073500E+01	  0.063086174	-2.800000E-01
217	  0.063286573	-4.051400E+01	  0.063286573	-2.679900E+01	  0.063286573	5.084600E+01	  0.063286573	-4.320000E-01
218	  0.063486971	-4.103800E+01	  0.063486971	-2.978800E+01	  0.063486971	5.077400E+01	  0.063486971	-4.470000E-01
219	  0.063687377	-4.271000E+01	  0.063687377	-2.989600E+01	  0.063687377	5.063700E+01	  0.063687377	-3.690000E-01
220	  0.063887775	-4.229900E+01	  0.063887775	-3.176900E+01	  0.063887775	5.065500E+01	  0.063887775	-4.090000E-01
221	  0.064088173	-4.345500E+01	  0.064088173	-2.761200E+01	  0.064088173	5.059700E+01	  0.064088173	-3.150000E-01
222	  0.064288579	-4.237100E+01	  0.064288579	-4.112500E+01	  0.064288579	5.057400E+01	  0.064288579	-5.060000E-01
223	  0.064488977	-4.319700E+01	  0.064488977	-2.809900E+01	  0.064488977	5.061300E+01	  0.064488977	-3.290000E-01
224	  0.064689375	-4.348400E+01	  0.064689375	-2.878600E+01	  0.064689375	5.058900E+01	  0.064689375	-3.260000E-01
225	  0.064889781	-4.571900E+01	  0.064889781	-5.459700E+01	  0.064889781	5.029800E+01	  0.064889781	-4.240000E-01
226	  0.065090179	-4.748700E+01	  0.065090179	-3.174200E+01	  0.065090179	5.035900E+01	  0.065090179	-2.230000E-01
227	  0.065290578	-4.522700E+01	  0.065290578	-3.721500E+01	  0.065290578	5.043700E+01	  0.065290578	-3.340000E-01
228	  0.065490983	-5.045700E+01	  0.065490983	-2.912100E+01	  0.065490983	5.026200E+01	  0.065490983	-1.460000E-01
229	  0.065691382	-5.063200E+01	  0.065691382	-1.984300E+01	  0.065691382	5.027700E+01	  0.065691382	-1.000000E-01
230	  0.065891780	-5.325600E+01	  0.065891780	-7.174100E+01	  0.065891780	5.006700E+01	  0.065891780	-2.060000E-01
231	  0.066092186	-5.295900E+01	  0.066092186	-6.437100E+01	  0.066092186	5.009600E+01	  0.066092186	-2.030000E-01
232	  0.066292584	-5.631900E+01	  0.066292584	3.530000E-01	  0.066292584	5.015200E+01	  0.066292584	0.000000E+00
233	  0.066492982	-6.211600E+01	  0.066492982	-1.463480E+02	  0.066492982	4.993400E+01	  0.066492982	-4.300000E-02
234	  0.066693388	-5.854300E+01	  0.066693388	1.451400E+02	  0.066693388	4.990300E+01	  0.066693388	6.700000E-02
235	  0.066893786	-5.526800E+01	  0.066893786	1.718530E+02	  0.066893786	4.982900E+01	  0.066893786	2.400000E-02
236	  0.067094192	-5.310500E+01	  0.067094192	7.568600E+01	  0.067094192	5.005400E+01	  0.067094192	2.140000E-01
237	  0.067294590	-5.200500E+01	  0.067294590	1.195060E+02	  0.067294590	4.987600E+01	  0.067294590	2.170000E-01
238	  0.067494988	-5.021000E+01	  0.067494988	1.031820E+02	  0.067494988	4.992800E+01	  0.067494988	3.000000E-01
239	  0.067695394	-4.850600E+01	  0.067695394	1.434060E+02	  0.067695394	4.969800E+01	  0.067695394	2.220000E-01
240	  0.067895792	-4.531200E+01	  0.067895792	1.190660E+02	  0.067895792	4.973400E+01	  0.067895792	4.710000E-01
241	  0.068096191	-4.522000E+01	  0.068096191	9.898600E+01	  0.068096191	4.991100E+01	  0.068096191	5.400000E-01
242	  0.068296596	-4.519100E+01	  0.068296596	1.186360E+02	  0.068296596	4.973400E+01	  0.068296596	4.800000E-01
243	  0.068496995	-4.509900E+01	  0.068496995	1.133770E+02	  0.068496995	4.977700E+01	  0.068496995	5.080000E-01
244	  0.068697393	-4.304000E+01	  0.068697393	1.111000E+02	  0.068697393	4.974200E+01	  0.068697393	6.540000E-01
245	  0.068897791	-4.284100E+01	  0.068897791	1.078740E+02	  0.068897791	4.977400E+01	  0.068897791	6.830000E-01
246	  0.069098189	-4.216800E+01	  0.069098189	1.156590E+02	  0.069098189	4.965800E+01	  0.069098189	6.970000E-01
247	  0.069298595	-4.099500E+01	  0.069298595	1.080840E+02	  0.069298595	4.971600E+01	  0.069298595	8.420000E-01
248	  0.069498993	-4.050200E+01	  0.069498993	1.050950E+02	  0.069498993	4.974600E+01	  0.069498993	9.060000E-01
249	  0.069699399	-4.076800E+01	  0.069699399	1.051140E+02	  0.069699399	4.975400E+01	  0.069699399	8.790000E-01
250	  0.069899797	-4.053300E+01	  0.069899797	1.089330E+02	  0.069899797	4.968700E+01	  0.069899797	8.840000E-01
251	  0.070100196	-3.874200E+01	  0.070100196	1.008580E+02	  0.070100196	4.976900E+01	  0.070100196	1.129000E+00
252	  0.070300601	-3.927600E+01	  0.070300601	1.017340E+02	  0.070300601	4.976800E+01	  0.070300601	1.059000E+00
253	  0.070501000	-3.758900E+01	  0.070501000	1.013400E+02	  0.070501000	4.972400E+01	  0.070501000	1.287000E+00
254	  0.070701398	-3.710700E+01	  0.070701398	9.733400E+01	  0.070701398	4.980300E+01	  0.070701398	1.378000E+00
255	  0.070901804	-3.695800E+01	  0.070901804	9.764600E+01	  0.070901804	4.979100E+01	  0.070901804	1.401000E+00
256	  0.071102202	-3.732000E+01	  0.071102202	9.902400E+01	  0.071102202	4.976800E+01	  0.071102202	1.338000E+00
257	  0.071302600	-3.652400E+01	  0.071302600	9.410500E+01	  0.071302600	4.987100E+01	  0.071302600	1.484000E+00
258	  0.071503006	-3.621400E+01	  0.071503006	9.748100E+01	  0.071503006	4.977500E+01	  0.071503006	1.526000E+00
259	  0.071703404	-3.636100E+01	  0.071703404	9.100800E+01	  0.071703404	4.995000E+01	  0.071703404	1.518000E+00
260	  0.071903802	-3.504800E+01	  0.071903802	8.991100E+01	  0.071903802	4.997100E+01	  0.071903802	1.767000E+00
261	  0.072104208	-3.525400E+01	  0.072104208	8.781800E+01	  0.072104208	5.003500E+01	  0.072104208	1.727000E+00
262	  0.072304606	-3.472200E+01	  0.072304606	8.448800E+01	  0.072304606	5.014300E+01	  0.072304606	1.833000E+00
263	  0.072505005	-3.480300E+01	  0.072505005	8.371000E+01	  0.072505005	5.016600E+01	  0.072505005	1.814000E+00
264	  0.072705410	-3.447000E+01	  0.072705410	8.585100E+01	  0.072705410	5.010100E+01	  0.072705410	1.889000E+00
265	  0.072905809	-3.429200E+01	  0.072905809	8.152700E+01	  0.072905809	5.024800E+01	  0.072905809	1.918000E+00
266	  0.073106214	-3.411400E+01	  0.073106214	8.177800E+01	  0.073106214	5.024400E+01	  0.073106214	1.959000E+00
267	  0.073306613	-3.339700E+01	  0.073306613	8.095900E+01	  0.073306613	5.029200E+01	  0.073306613	2.125000E+00
268	  0.073507011	-3.349700E+01	  0.073507011	7.718900E+01	  0.073507011	5.042700E+01	  0.073507011	2.080000E+00
269	  0.073707417	-3.328100E+01	  0.073707417	7.361200E+01	  0.073707417	5.057100E+01	  0.073707417	2.104000E+00
270	  0.073907815	-3.322200E+01	  0.073907815	7.491100E+01	  0.073907815	5.052600E+01	  0.073907815	2.129000E+00
271	  0.074108213	-3.343000E+01	  0.074108213	7.326700E+01	  0.074108213	5.057400E+01	  0.074108213	2.064000E+00
272	  0.074308619	-3.287100E+01	  0.074308619	7.050800E+01	  0.074308619	5.071600E+01	  0.074308619	2.173000E+00
273	  0.074509017	-3.250700E+01	  0.074509017	7.066000E+01	  0.074509017	5.073900E+01	  0.074509017	2.269000E+00
274	  0.074709415	-3.270400E+01	  0.074709415	6.989000E+01	  0.074709415	5.075400E+01	  0.074709415	2.209000E+00
275	  0.074909821	-3.313800E+01	  0.074909821	6.814700E+01	  0.074909821	5.078400E+01	  0.074909821	2.078000E+00
276	  0.075110219	-3.292700E+01	  0.075110219	6.755900E+01	  0.075110219	5.082400E+01	  0.075110219	2.121000E+00
277	  0.075310618	-3.217800E+01	  0.075310618	6.266600E+01	  0.075310618	5.109300E+01	  0.075310618	2.235000E+00
278	  0.075511023	-3.254200E+01	  0.075511023	5.973300E+01	  0.075511023	5.116000E+01	  0.075511023	2.086000E+00
279	  0.075711422	-3.218500E+01	  0.075711422	5.856100E+01	  0.075711422	5.125300E+01	  0.075711422	2.151000E+00
280	  0.075911827	-3.222200E+01	  0.075911827	5.882200E+01	  0.075911827	5.123800E+01	  0.075911827	2.147000E+00
281	  0.076112226	-3.182500E+01	  0.076112226	5.661700E+01	  0.076112226	5.138200E+01	  0.076112226	2.200000E+00
282	  0.076312624	-3.187500E+01	  0.076312624	5.654100E+01	  0.076312624	5.137700E+01	  0.076312624	2.185000E+00
283	  0.076513030	-3.180900E+01	  0.076513030	5.595100E+01	  0.076513030	5.141100E+01	  0.076513030	2.188000E+00
284	  0.076713428	-3.170500E+01	  0.076713428	5.212700E+01	  0.076713428	5.157600E+01	  0.076713428	2.117000E+00
285	  0.076913826	-3.147300E+01	  0.076913826	5.467200E+01	  0.076913826	5.151700E+01	  0.076913826	2.245000E+00
286	  0.077114232	-3.200100E+01	  0.077114232	5.410900E+01	  0.077114232	5.145100E+01	  0.077114232	2.095000E+00
287	  0.077314630	-3.151000E+01	  0.077314630	5.062900E+01	  0.077314630	5.167000E+01	  0.077314630	2.124000E+00
288	  0.077515028	-3.175300E+01	  0.077515028	4.640500E+01	  0.077515028	5.177700E+01	  0.077515028	1.939000E+00
289	  0.077715434	-3.196600E+01	  0.077715434	4.525900E+01	  0.077715434	5.177300E+01	  0.077715434	1.855000E+00
290	  0.077915832	-3.181300E+01	  0.077915832	4.214700E+01	  0.077915832	5.190800E+01	  0.077915832	1.789000E+00
291	  0.078116231	-3.199800E+01	  0.078116231	4.356900E+01	  0.078116231	5.182200E+01	  0.078116231	1.795000E+00
292	  0.078316636	-3.228900E+01	  0.078316636	4.342900E+01	  0.078316636	5.176600E+01	  0.078316636	1.730000E+00
293	  0.078517035	-3.236100E+01	  0.078517035	4.135000E+01	  0.078517035	5.181500E+01	  0.078517035	1.650000E+00
294	  0.078717433	-3.316700E+01	  0.078717433	4.166400E+01	  0.078717433	5.164500E+01	  0.078717433	1.508000E+00
295	  0.078917839	-3.339700E+01	  0.078917839	3.740300E+01	  0.078917839	5.171000E+01	  0.078917839	1.344000E+00
296	  0.079118237	-3.313000E+01	  0.079118237	3.613300E+01	  0.079118237	5.179500E+01	  0.079118237	1.347000E+00
297	  0.079318643	-3.342100E+01	  0.079318643	3.424200E+01	  0.079318643	5.177900E+01	  0.079318643	1.243000E+00
298	  0.079519041	-3.321400E+01	  0.079519041	3.450400E+01	  0.079519041	5.181600E+01	  0.079519041	1.282000E+00
299	  0.079719439	-3.414000E+01	  0.079719439	2.988600E+01	  0.079719439	5.172100E+01	  0.079719439	1.012000E+00
300	  0.079919845	-3.436900E+01	  0.079919845	3.226000E+01	  0.079919845	5.163200E+01	  0.079919845	1.054000E+00
301	  0.080120243	-3.444000E+01	  0.080120243	2.966400E+01	  0.080120243	5.166600E+01	  0.080120243	9.700000E-01
302	  0.080320641	-3.543300E+01	  0.080320641	3.302800E+01	  0.080320641	5.142900E+01	  0.080320641	9.480000E-01
303	  0.080521047	-3.527700E+01	  0.080521047	3.639500E+01	  0.080521047	5.139500E+01	  0.080521047	1.050000E+00
304	  0.080721445	-3.564700E+01	  0.080721445	2.952700E+01	  0.080721445	5.145000E+01	  0.080721445	8.370000E-01
305	  0.080921844	-3.566900E+01	  0.080921844	3.055700E+01	  0.080921844	5.143000E+01	  0.080921844	8.610000E-01
306	  0.081122249	-3.679300E+01	  0.081122249	2.759400E+01	  0.081122249	5.129300E+01	  0.081122249	6.870000E-01
307	  0.081322648	-3.698400E+01	  0.081322648	2.519600E+01	  0.081322648	5.129300E+01	  0.081322648	6.180000E-01
308	  0.081523046	-3.740500E+01	  0.081523046	3.315000E+01	  0.081523046	5.113600E+01	  0.081523046	7.540000E-01
309	  0.081723452	-3.833100E+01	  0.081723452	3.648700E+01	  0.081723452	5.097800E+01	  0.081723452	7.340000E-01
310	  0.081923850	-3.998100E+01	  0.081923850	4.211600E+01	  0.081923850	5.074400E+01	  0.081923850	6.820000E-01
311	  0.082124248	-3.908000E+01	  0.082124248	3.671600E+01	  0.082124248	5.089400E+01	  0.082124248	6.760000E-01
312	  0.082324654	-4.067600E+01	  0.082324654	5.521400E+01	  0.082324654	5.052400E+01	  0.082324654	7.670000E-01
313	  0.082525052	-4.176100E+01	  0.082525052	5.458500E+01	  0.082525052	5.047000E+01	  0.082525052	6.710000E-01
314	  0.082725458	-4.210900E+01	  0.082725458	7.139900E+01	  0.082725458	5.024500E+01	  0.082725458	7.470000E-01
315	  0.082925856	-4.299800E+01	  0.082925856	7.139200E+01	  0.082925856	5.022100E+01	  0.082925856	6.740000E-01
316	  0.083126254	-4.141800E+01	  0.083126254	9.546600E+01	  0.083126254	4.991200E+01	  0.083126254	8.430000E-01
317	  0.083326660	-4.007400E+01	  0.083326660	1.048250E+02	  0.083326660	4.973700E+01	  0.083326660	9.530000E-01
318	  0.083527058	-3.958200E+01	  0.083527058	1.113020E+02	  0.083527058	4.961000E+01	  0.083527058	9.700000E-01
319	  0.083727457	-3.808900E+01	  0.083727457	1.187270E+02	  0.083727457	4.939200E+01	  0.083727457	1.079000E+00
320	  0.083927862	-3.750000E+01	  0.083927862	1.211290E+02	  0.083927862	4.930200E+01	  0.083927862	1.125000E+00
321	  0.084128261	-3.506300E+01	  0.084128261	1.308040E+02	  0.084128261	4.884200E+01	  0.084128261	1.305000E+00
322	  0.084328659	-3.423700E+01	  0.084328659	1.267140E+02	  0.084328659	4.882900E+01	  0.084328659	1.520000E+00
323	  0.084529065	-3.311000E+01	  0.084529065	1.269680E+02	  0.084529065	4.865800E+01	  0.084529065	1.719000E+00
324	  0.084729463	-3.169100E+01	  0.084729463	1.301250E+02	  0.084729463	4.831200E+01	  0.084729463	1.924000E+00
325	  0.084929861	-3.088800E+01	  0.084929861	1.262990E+02	  0.084929861	4.828700E+01	  0.084929861	2.223000E+00
326	  0.085130267	-2.929200E+01	  0.085130267	1.271670E+02	  0.085130267	4.789900E+01	  0.085130267	2.622000E+00
327	  0.085330658	-2.883600E+01	  0.085330658	1.252300E+02	  0.085330658	4.787400E+01	  0.085330658	2.831000E+00
328	  0.085531056	-2.783500E+01	  0.085531056	1.200110E+02	  0.085531056	4.789500E+01	  0.085531056	3.370000E+00
329	  0.085731462	-2.681000E+01	  0.085731462	1.211830E+02	  0.085731462	4.754800E+01	  0.085731462	3.722000E+00
330	  0.085931860	-2.627100E+01	  0.085931860	1.184850E+02	  0.085931860	4.756500E+01	  0.085931860	4.071000E+00
331	  0.086132258	-2.534500E+01	  0.086132258	1.143880E+02	  0.086132258	4.759000E+01	  0.086132258	4.698000E+00
332	  0.086332664	-2.452500E+01	  0.086332664	1.123090E+02	  0.086332664	4.751300E+01	  0.086332664	5.240000E+00
333	  0.086533062	-2.411500E+01	  0.086533062	1.079650E+02	  0.086533062	4.778500E+01	  0.086533062	5.682000E+00
334	  0.086733460	-2.346900E+01	  0.086733460	1.050450E+02	  0.086733460	4.789200E+01	  0.086733460	6.231000E+00
335	  0.086933866	-2.299700E+01	  0.086933866	1.021500E+02	  0.086933866	4.807400E+01	  0.086933866	6.690000E+00
336	  0.087134264	-2.238800E+01	  0.087134264	9.810700E+01	  0.087134264	4.839500E+01	  0.087134264	7.321000E+00
337	  0.087334670	-2.193600E+01	  0.087334670	9.554600E+01	  0.087334670	4.861600E+01	  0.087334670	7.793000E+00
338	  0.087535068	-2.163100E+01	  0.087535068	9.160700E+01	  0.087535068	4.909100E+01	  0.087535068	8.189000E+00
339	  0.087735467	-2.128900E+01	  0.087735467	8.849600E+01	  0.087735467	4.948400E+01	  0.087735467	8.592000E+00
340	  0.087935872	-2.098200E+01	  0.087935872	8.440300E+01	  0.087935872	5.007400E+01	  0.087935872	8.972000E+00
341	  0.088136271	-2.062200E+01	  0.088136271	8.148100E+01	  0.088136271	5.052200E+01	  0.088136271	9.383000E+00
342	  0.088336669	-2.042700E+01	  0.088336669	7.810500E+01	  0.088336669	5.108800E+01	  0.088336669	9.605000E+00
343	  0.088537075	-2.027500E+01	  0.088537075	7.420200E+01	  0.088537075	5.177500E+01	  0.088537075	9.743000E+00
344	  0.088737473	-1.992100E+01	  0.088737473	7.171200E+01	  0.088737473	5.226800E+01	  0.088737473	1.011900E+01
345	  0.088937871	-1.979900E+01	  0.088937871	6.871900E+01	  0.088937871	5.284800E+01	  0.088937871	1.018500E+01
346	  0.089138277	-1.973800E+01	  0.089138277	6.553500E+01	  0.089138277	5.346400E+01	  0.089138277	1.013800E+01
347	  0.089338675	-1.954300E+01	  0.089338675	6.311000E+01	  0.089338675	5.399200E+01	  0.089338675	1.026400E+01
348	  0.089539073	-1.940500E+01	  0.089539073	6.044200E+01	  0.089539073	5.456500E+01	  0.089539073	1.028300E+01
349	  0.089739479	-1.932200E+01	  0.089739479	5.706700E+01	  0.089739479	5.526600E+01	  0.089739479	1.014800E+01
350	  0.089939877	-1.930500E+01	  0.089939877	5.449600E+01	  0.089939877	5.577600E+01	  0.089939877	9.953000E+00
351	  0.090140276	-1.913300E+01	  0.090140276	5.230300E+01	  0.090140276	5.631100E+01	  0.090140276	9.968000E+00
352	  0.090340681	-1.907800E+01	  0.090340681	4.959000E+01	  0.090340681	5.687800E+01	  0.090340681	9.751000E+00
353	  0.090541080	-1.905800E+01	  0.090541080	4.783900E+01	  0.090541080	5.723000E+01	  0.090541080	9.574000E+00
354	  0.090741485	-1.894900E+01	  0.090741485	4.529000E+01	  0.090741485	5.780500E+01	  0.090741485	9.392000E+00
355	  0.090941884	-1.888300E+01	  0.090941884	4.334200E+01	  0.090941884	5.823100E+01	  0.090941884	9.208000E+00
356	  0.091142282	-1.884500E+01	  0.091142282	4.078300E+01	  0.091142282	5.874100E+01	  0.091142282	8.880000E+00
357	  0.091342688	-1.888200E+01	  0.091342688	3.881300E+01	  0.091342688	5.905500E+01	  0.091342688	8.529000E+00
358	  0.091543086	-1.874600E+01	  0.091543086	3.626800E+01	  0.091543086	5.964700E+01	  0.091543086	8.262000E+00
359	  0.091743484	-1.877100E+01	  0.091743484	3.477100E+01	  0.091743484	5.987200E+01	  0.091743484	7.972000E+00
360	  0.091943890	-1.874400E+01	  0.091943890	3.242300E+01	  0.091943890	6.028800E+01	  0.091943890	7.571000E+00
361	  0.092144288	-1.864500E+01	  0.092144288	3.034600E+01	  0.092144288	6.073900E+01	  0.092144288	7.272000E+00
362	  0.092344686	-1.865200E+01	  0.092344686	2.804600E+01	  0.092344686	6.107400E+01	  0.092344686	6.799000E+00
363	  0.092545092	-1.867000E+01	  0.092545092	2.714400E+01	  0.092545092	6.117800E+01	  0.092545092	6.595000E+00
364	  0.092745490	-1.862600E+01	  0.092745490	2.393500E+01	  0.092745490	6.167300E+01	  0.092745490	5.943000E+00
365	  0.092945889	-1.869900E+01	  0.092945889	2.238800E+01	  0.092945889	6.175700E+01	  0.092945889	5.538000E+00
366	  0.093146294	-1.860500E+01	  0.093146294	2.148100E+01	  0.093146294	6.200500E+01	  0.093146294	5.406000E+00
367	  0.093346693	-1.858200E+01	  0.093346693	1.917100E+01	  0.093346693	6.229800E+01	  0.093346693	4.884000E+00
368	  0.093547091	-1.862300E+01	  0.093547091	1.808300E+01	  0.093547091	6.234600E+01	  0.093547091	4.598000E+00
369	  0.093747497	-1.856900E+01	  0.093747497	1.588800E+01	  0.093747497	6.264100E+01	  0.093747497	4.101000E+00
370	  0.093947895	-1.858400E+01	  0.093947895	1.472400E+01	  0.093947895	6.271700E+01	  0.093947895	3.805000E+00
371	  0.094148301	-1.856500E+01	  0.094148301	1.223900E+01	  0.094148301	6.294000E+01	  0.094148301	3.192000E+00
372	  0.094348699	-1.862400E+01	  0.094348699	1.086500E+01	  0.094348699	6.293100E+01	  0.094348699	2.818000E+00
373	  0.094549097	-1.863900E+01	  0.094549097	9.385000E+00	  0.094549097	6.299100E+01	  0.094549097	2.436000E+00
374	  0.094749503	-1.860300E+01	  0.094749503	7.679000E+00	  0.094749503	6.313600E+01	  0.094749503	2.009000E+00
375	  0.094949901	-1.863100E+01	  0.094949901	6.739000E+00	  0.094949901	6.312600E+01	  0.094949901	1.758000E+00
376	  0.095150299	-1.866900E+01	  0.095150299	4.657000E+00	  0.095150299	6.313000E+01	  0.095150299	1.211000E+00
377	  0.095350705	-1.868700E+01	  0.095350705	2.851000E+00	  0.095350705	6.313800E+01	  0.095350705	7.400000E-01
378	  0.095551103	-1.861000E+01	  0.095551103	1.697000E+00	  0.095551103	6.328600E+01	  0.095551103	4.460000E-01
379	  0.095751502	-1.877800E+01	  0.095751502	4.770000E-01	  0.095751502	6.300600E+01	  0.095751502	1.220000E-01
380	  0.095951907	-1.871500E+01	  0.095951907	-1.621000E+00	  0.095951907	6.310700E+01	  0.095951907	-4.190000E-01
381	  0.096152306	-1.868700E+01	  0.096152306	-2.579000E+00	  0.096152306	6.314300E+01	  0.096152306	-6.700000E-01
382	  0.096352704	-1.862500E+01	  0.096352704	-3.424000E+00	  0.096352704	6.323400E+01	  0.096352704	-8.970000E-01
383	  0.096553110	-1.871700E+01	  0.096553110	-5.256000E+00	  0.096553110	6.303100E+01	  0.096553110	-1.356000E+00
384	  0.096753508	-1.873400E+01	  0.096753508	-6.970000E+00	  0.096753508	6.294400E+01	  0.096753508	-1.791000E+00
385	  0.096953906	-1.875200E+01	  0.096953906	-8.428000E+00	  0.096953906	6.285000E+01	  0.096953906	-2.155000E+00
386	  0.097154312	-1.878500E+01	  0.097154312	-1.018900E+01	  0.097154312	6.270500E+01	  0.097154312	-2.585000E+00
387	  0.097354710	-1.874400E+01	  0.097354710	-1.083200E+01	  0.097354710	6.273400E+01	  0.097354710	-2.761000E+00
388	  0.097555116	-1.878000E+01	  0.097555116	-1.262100E+01	  0.097555116	6.255900E+01	  0.097555116	-3.188000E+00
389	  0.097755514	-1.877800E+01	  0.097755514	-1.400800E+01	  0.097755514	6.246100E+01	  0.097755514	-3.527000E+00
390	  0.097955912	-1.887900E+01	  0.097955912	-1.487100E+01	  0.097955912	6.223200E+01	  0.097955912	-3.681000E+00
391	  0.098156318	-1.874300E+01	  0.098156318	-1.634700E+01	  0.098156318	6.232100E+01	  0.098156318	-4.108000E+00
392	  0.098356716	-1.878900E+01	  0.098356716	-1.756100E+01	  0.098356716	6.213700E+01	  0.098356716	-4.367000E+00
393	  0.098557115	-1.885900E+01	  0.098557115	-1.882100E+01	  0.098557115	6.190900E+01	  0.098557115	-4.615000E+00
394	  0.098757520	-1.892000E+01	  0.098757520	-2.030500E+01	  0.098757520	6.166500E+01	  0.098757520	-4.909000E+00
395	  0.098957919	-1.875000E+01	  0.098957919	-2.121600E+01	  0.098957919	6.181700E+01	  0.098957919	-5.235000E+00
396	  0.099158317	-1.882900E+01	  0.099158317	-2.309300E+01	  0.099158317	6.148300E+01	  0.099158317	-5.591000E+00
397	  0.099358723	-1.889600E+01	  0.099358723	-2.359500E+01	  0.099358723	6.132600E+01	  0.099358723	-5.647000E+00
398	  0.099559121	-1.895500E+01	  0.099559121	-2.514800E+01	  0.099559121	6.105300E+01	  0.099559121	-5.927000E+00
399	  0.099759519	-1.893500E+01	  0.099759519	-2.631000E+01	  0.099759519	6.093000E+01	  0.099759519	-6.184000E+00
400	  0.099959925	-1.881900E+01	  0.099959925	-2.719000E+01	  0.099959925	6.096900E+01	  0.099959925	-6.468000E+00
401	  0.100160323	-1.905100E+01	  0.100160323	-2.742800E+01	  0.100160323	6.062700E+01	  0.100160323	-6.308000E+00
402	  0.100360721	-1.900600E+01	  0.100360721	-2.912700E+01	  0.100360721	6.045300E+01	  0.100360721	-6.682000E+00
403	  0.100561127	-1.901100E+01	  0.100561127	-3.187300E+01	  0.100561127	6.004600E+01	  0.100561127	-7.196000E+00
404	  0.100761525	-1.925700E+01	  0.100761525	-3.220800E+01	  0.100761525	5.970200E+01	  0.100761525	-7.015000E+00
405	  0.100961931	-1.901500E+01	  0.100961931	-3.342100E+01	  0.100961931	5.980300E+01	  0.100961931	-7.472000E+00
406	  0.101162329	-1.933600E+01	  0.101162329	-3.426500E+01	  0.101162329	5.930700E+01	  0.101162329	-7.293000E+00
407	  0.101362728	-1.903300E+01	  0.101362728	-3.459900E+01	  0.101362728	5.959600E+01	  0.101362728	-7.660000E+00
408	  0.101563133	-1.895700E+01	  0.101563133	-3.805300E+01	  0.101563133	5.910800E+01	  0.101563133	-8.321000E+00
409	  0.101763532	-1.920300E+01	  0.101763532	-3.771600E+01	  0.101763532	5.890500E+01	  0.101763532	-7.995000E+00
410	  0.101963930	-1.922900E+01	  0.101963930	-3.898000E+01	  0.101963930	5.866900E+01	  0.101963930	-8.163000E+00
411	  0.102164336	-1.934500E+01	  0.102164336	-4.132300E+01	  0.102164336	5.816100E+01	  0.102164336	-8.379000E+00
412	  0.102364734	-1.943600E+01	  0.102364734	-4.087100E+01	  0.102364734	5.815200E+01	  0.102364734	-8.214000E+00
413	  0.102565132	-1.921900E+01	  0.102565132	-4.244700E+01	  0.102565132	5.808400E+01	  0.102565132	-8.681000E+00
414	  0.102765530	-1.938800E+01	  0.102765530	-4.377600E+01	  0.102765530	5.769900E+01	  0.102765530	-8.665000E+00
415	  0.102965929	-1.944300E+01	  0.102965929	-4.486600E+01	  0.102965929	5.746300E+01	  0.102965929	-8.743000E+00
416	  0.103166327	-1.938500E+01	  0.103166327	-4.607900E+01	  0.103166327	5.729500E+01	  0.103166327	-8.962000E+00
417	  0.103366733	-1.942200E+01	  0.103366733	-4.697200E+01	  0.103366733	5.710500E+01	  0.103366733	-9.025000E+00
418	  0.103567131	-1.957100E+01	  0.103567131	-4.663800E+01	  0.103567131	5.704800E+01	  0.103567131	-8.812000E+00
419	  0.103767529	-1.938700E+01	  0.103767529	-4.908100E+01	  0.103767529	5.674700E+01	  0.103767529	-9.309000E+00
420	  0.103967935	-1.952600E+01	  0.103967935	-4.958100E+01	  0.103967935	5.655600E+01	  0.103967935	-9.196000E+00
421	  0.104168333	-1.953200E+01	  0.104168333	-5.109500E+01	  0.104168333	5.627500E+01	  0.104168333	-9.346000E+00
422	  0.104368731	-1.958100E+01	  0.104368731	-5.322700E+01	  0.104368731	5.585100E+01	  0.104368731	-9.494000E+00
423	  0.104569137	-1.952100E+01	  0.104569137	-5.382900E+01	  0.104569137	5.577500E+01	  0.104569137	-9.622000E+00
424	  0.104769535	-1.950400E+01	  0.104769535	-5.420600E+01	  0.104769535	5.571400E+01	  0.104769535	-9.677000E+00
425	  0.104969934	-1.976400E+01	  0.104969934	-5.576400E+01	  0.104969934	5.527900E+01	  0.104969934	-9.491000E+00
426	  0.105170339	-1.953300E+01	  0.105170339	-5.661500E+01	  0.105170339	5.524300E+01	  0.105170339	-9.843000E+00
427	  0.105370738	-1.976100E+01	  0.105370738	-5.752500E+01	  0.105370738	5.495700E+01	  0.105370738	-9.632000E+00
428	  0.105571143	-1.969000E+01	  0.105571143	-5.950700E+01	  0.105571143	5.462000E+01	  0.105571143	-9.860000E+00
429	  0.105771542	-1.960900E+01	  0.105771542	-6.018500E+01	  0.105771542	5.452700E+01	  0.105771542	-1.000600E+01
430	  0.105971940	-2.002800E+01	  0.105971940	-6.104400E+01	  0.105971940	5.419500E+01	  0.105971940	-9.548000E+00
431	  0.106172346	-1.969000E+01	  0.106172346	-6.178500E+01	  0.106172346	5.419000E+01	  0.106172346	-1.000400E+01
432	  0.106372744	-1.976800E+01	  0.106372744	-6.319700E+01	  0.106372744	5.389500E+01	  0.106372744	-9.986000E+00
433	  0.106573142	-1.969300E+01	  0.106573142	-6.398800E+01	  0.106573142	5.377200E+01	  0.106573142	-1.012000E+01
434	  0.106773548	-2.000400E+01	  0.106773548	-6.528900E+01	  0.106773548	5.343100E+01	  0.106773548	-9.801000E+00
435	  0.106973946	-1.984400E+01	  0.106973946	-6.655800E+01	  0.106973946	5.324200E+01	  0.106973946	-1.005000E+01
436	  0.107174344	-1.986000E+01	  0.107174344	-6.767300E+01	  0.107174344	5.303000E+01	  0.107174344	-1.007400E+01
437	  0.107374750	-1.999900E+01	  0.107374750	-6.845400E+01	  0.107374750	5.285300E+01	  0.107374750	-9.932000E+00
438	  0.107575148	-2.004400E+01	  0.107575148	-6.871200E+01	  0.107575148	5.279600E+01	  0.107575148	-9.885000E+00
439	  0.107775547	-2.014800E+01	  0.107775547	-7.174900E+01	  0.107775547	5.222700E+01	  0.107775547	-9.847000E+00
440	  0.107975952	-2.015300E+01	  0.107975952	-7.252100E+01	  0.107975952	5.208800E+01	  0.107975952	-9.857000E+00
441	  0.108176351	-2.014100E+01	  0.108176351	-7.263900E+01	  0.108176351	5.206900E+01	  0.108176351	-9.874000E+00
442	  0.108376749	-2.005200E+01	  0.108376749	-7.320100E+01	  0.108376749	5.197800E+01	  0.108376749	-9.990000E+00
443	  0.108577155	-2.022900E+01	  0.108577155	-7.616300E+01	  0.108577155	5.143300E+01	  0.108577155	-9.820000E+00
444	  0.108777553	-2.006300E+01	  0.108777553	-7.518800E+01	  0.108777553	5.161800E+01	  0.108777553	-1.000600E+01
445	  0.108977959	-2.028100E+01	  0.108977959	-7.645400E+01	  0.108977959	5.137900E+01	  0.108977959	-9.762000E+00
446	  0.109178357	-2.031100E+01	  0.109178357	-7.860100E+01	  0.109178357	5.100400E+01	  0.109178357	-9.738000E+00
447	  0.109378755	-2.038300E+01	  0.109378755	-7.807300E+01	  0.109378755	5.109500E+01	  0.109378755	-9.655000E+00
448	  0.109579161	-2.026500E+01	  0.109579161	-7.917700E+01	  0.109579161	5.090400E+01	  0.109579161	-9.791000E+00
449	  0.109779559	-2.046700E+01	  0.109779559	-8.047200E+01	  0.109779559	5.068500E+01	  0.109779559	-9.559000E+00
450	  0.109979957	-2.042700E+01	  0.109979957	-8.173200E+01	  0.109979957	5.047100E+01	  0.109979957	-9.596000E+00
451	  0.110180363	-2.039500E+01	  0.110180363	-8.331900E+01	  0.110180363	5.020100E+01	  0.110180363	-9.616000E+00
452	  0.110380761	-2.046400E+01	  0.110380761	-8.282200E+01	  0.110380761	5.029000E+01	  0.110380761	-9.545000E+00
453	  0.110581160	-2.048400E+01	  0.110581160	-8.358500E+01	  0.110581160	5.016400E+01	  0.110581160	-9.514000E+00
454	  0.110781565	-2.053200E+01	  0.110781565	-8.512700E+01	  0.110781565	4.991300E+01	  0.110781565	-9.438000E+00
455	  0.110981964	-2.048900E+01	  0.110981964	-8.638100E+01	  0.110981964	4.970200E+01	  0.110981964	-9.461000E+00
456	  0.111182362	-2.045100E+01	  0.111182362	-8.799300E+01	  0.111182362	4.943200E+01	  0.111182362	-9.464000E+00
457	  0.111382768	-2.060800E+01	  0.111382768	-8.805000E+01	  0.111382768	4.944900E+01	  0.111382768	-9.296000E+00
458	  0.111583166	-2.060800E+01	  0.111583166	-8.948500E+01	  0.111583166	4.921900E+01	  0.111583166	-9.258000E+00
459	  0.111783572	-2.074800E+01	  0.111783572	-9.093300E+01	  0.111783572	4.902000E+01	  0.111783572	-9.070000E+00
460	  0.111983970	-2.055400E+01	  0.111983970	-9.098100E+01	  0.111983970	4.897100E+01	  0.111983970	-9.268000E+00
461	  0.112184368	-2.049800E+01	  0.112184368	-9.220800E+01	  0.112184368	4.876400E+01	  0.112184368	-9.285000E+00
462	  0.112384774	-2.067000E+01	  0.112384774	-9.316800E+01	  0.112384774	4.865600E+01	  0.112384774	-9.072000E+00
463	  0.112585172	-2.087700E+01	  0.112585172	-9.397200E+01	  0.112585172	4.858500E+01	  0.112585172	-8.835000E+00
464	  0.112785570	-2.070200E+01	  0.112785570	-9.516400E+01	  0.112785570	4.836000E+01	  0.112785570	-8.960000E+00
465	  0.112985976	-2.076200E+01	  0.112985976	-9.672000E+01	  0.112985976	4.814400E+01	  0.112985976	-8.833000E+00
466	  0.113186374	-2.098000E+01	  0.113186374	-9.754300E+01	  0.113186374	4.808900E+01	  0.113186374	-8.585000E+00
467	  0.113386773	-2.087100E+01	  0.113386773	-9.865700E+01	  0.113386773	4.789500E+01	  0.113386773	-8.636000E+00
468	  0.113587178	-2.094700E+01	  0.113587178	-9.952800E+01	  0.113587178	4.779400E+01	  0.113587178	-8.521000E+00
469	  0.113787577	-2.084400E+01	  0.113787577	-1.001110E+02	  0.113787577	4.767600E+01	  0.113787577	-8.588000E+00
470	  0.113987975	-2.092600E+01	  0.113987975	-1.020270E+02	  0.113987975	4.743500E+01	  0.113987975	-8.408000E+00
471	  0.114188381	-2.095500E+01	  0.114188381	-1.021590E+02	  0.114188381	4.742800E+01	  0.114188381	-8.374000E+00
472	  0.114388779	-2.099200E+01	  0.114388779	-1.027870E+02	  0.114388779	4.735500E+01	  0.114388779	-8.304000E+00
473	  0.114589177	-2.100700E+01	  0.114589177	-1.032880E+02	  0.114589177	4.729200E+01	  0.114589177	-8.262000E+00
474	  0.114789583	-2.105100E+01	  0.114789583	-1.064050E+02	  0.114789583	4.689200E+01	  0.114789583	-8.034000E+00
475	  0.114989981	-2.105100E+01	  0.114989981	-1.062850E+02	  0.114989981	4.690800E+01	  0.114989981	-8.041000E+00
476	  0.115190387	-2.115000E+01	  0.115190387	-1.072810E+02	  0.115190387	4.682000E+01	  0.115190387	-7.892000E+00
477	  0.115390785	-2.109100E+01	  0.115390785	-1.086360E+02	  0.115390785	4.662000E+01	  0.115390785	-7.853000E+00
478	  0.115591183	-2.124800E+01	  0.115591183	-1.095800E+02	  0.115591183	4.657100E+01	  0.115591183	-7.658000E+00
479	  0.115791589	-2.116900E+01	  0.115791589	-1.105290E+02	  0.115791589	4.641800E+01	  0.115791589	-7.657000E+00
480	  0.115991987	-2.108300E+01	  0.115991987	-1.113300E+02	  0.115991987	4.627800E+01	  0.115991987	-7.669000E+00
481	  0.116192386	-2.117800E+01	  0.116192386	-1.112220E+02	  0.116192386	4.633600E+01	  0.116192386	-7.600000E+00
482	  0.116392791	-2.131600E+01	  0.116392791	-1.115200E+02	  0.116392791	4.636500E+01	  0.116392791	-7.468000E+00
483	  0.116593190	-2.134300E+01	  0.116593190	-1.147910E+02	  0.116593190	4.599100E+01	  0.116593190	-7.206000E+00
484	  0.116793588	-2.137700E+01	  0.116793588	-1.140970E+02	  0.116793588	4.608800E+01	  0.116793588	-7.232000E+00
485	  0.116993994	-2.137500E+01	  0.116993994	-1.154190E+02	  0.116993994	4.593500E+01	  0.116993994	-7.134000E+00
486	  0.117194392	-2.136700E+01	  0.117194392	-1.167750E+02	  0.117194392	4.577700E+01	  0.117194392	-7.034000E+00
487	  0.117394790	-2.152200E+01	  0.117394790	-1.179310E+02	  0.117394790	4.573000E+01	  0.117394790	-6.829000E+00
488	  0.117595196	-2.129700E+01	  0.117595196	-1.176460E+02	  0.117595196	4.564200E+01	  0.117595196	-7.016000E+00
489	  0.117795594	-2.133400E+01	  0.117795594	-1.202060E+02	  0.117795594	4.538200E+01	  0.117795594	-6.776000E+00
490	  0.117995992	-2.124600E+01	  0.117995992	-1.205840E+02	  0.117995992	4.529200E+01	  0.117995992	-6.806000E+00
491	  0.118196398	-2.146600E+01	  0.118196398	-1.214470E+02	  0.118196398	4.532500E+01	  0.118196398	-6.578000E+00
492	  0.118396796	-2.155200E+01	  0.118396796	-1.235910E+02	  0.118396796	4.515500E+01	  0.118396796	-6.336000E+00
493	  0.118597202	-2.153200E+01	  0.118597202	-1.242130E+02	  0.118597202	4.508100E+01	  0.118597202	-6.294000E+00
494	  0.118797600	-2.145100E+01	  0.118797600	-1.244380E+02	  0.118797600	4.501200E+01	  0.118797600	-6.327000E+00
495	  0.118997999	-2.171300E+01	  0.118997999	-1.246700E+02	  0.118997999	4.514200E+01	  0.118997999	-6.137000E+00
496	  0.119198404	-2.153100E+01	  0.119198404	-1.256970E+02	  0.119198404	4.493600E+01	  0.119198404	-6.162000E+00
497	  0.119398803	-2.168900E+01	  0.119398803	-1.274220E+02	  0.119398803	4.486700E+01	  0.119398803	-5.906000E+00
498	  0.119599201	-2.154600E+01	  0.119599201	-1.285090E+02	  0.119599201	4.468000E+01	  0.119599201	-5.893000E+00
499	  0.119799607	-2.166700E+01	  0.119799607	-1.290940E+02	  0.119799607	4.470100E+01	  0.119799607	-5.765000E+00
500	  0.120000005	-2.139900E+01	  0.120000005	-1.302350E+02	  0.120000005	4.443000E+01	  0.120000005	-5.815000E+00
