! Anritsu VNA Master:             	Model: MS2036C/10/77
! SN:             	1601066
! /bd0/18may09/b255.ew.m2.txt
! Existing Calibration Information:
! TYPE:             	Current Settings	Active Cal Settings
! TIME:             	05/09/2018 08:11:06 PM	05/09/2018 08:05:48 PM
! INTERNAL TEMP:    	54.3 C	54.5 C
! # POINTS:         	494	494
! START FREQ:       	20.000 MHz	20.000 MHz
! STOP FREQ:        	118.797 594 MHz	118.797 594 MHz
! SOURCE POWER:     	High	High
! IFBW:             	50 Hz	50 Hz
! AVG FACTOR:       	  1 	  1 
! REF PLANE 1:      	0 mm	0 mm
! REF PLANE 2:      	0 mm	0 mm
! CAL TYPE:         	Full S22	Full S22
! CAL METHOD:       	SOLT	SOLT
! CAL LINE TYPE:    	Coax	Coax
! DUT PORT 1:       	K-Conn(M)	K-Conn(M)
! DUT PORT 2:       	K-Conn(M)	K-Conn(M)
! CAL STATUS:       	OK: Accuracy High	--
! PROP-V:       	0.700
! CABLE LOSS:       	0.000 dB/m
! REF IMPEDANCE:       	50.0
! Trace Specific Parameters:	TR1	TR2	TR3	TR4
! TRACE.#.Y (GRAPH TYPE)	LOG MAG	PHASE	REAL IMPEDANCE	IMAGINARY IMPEDANCE
! TRACE.#.X 	FREQ.GHZ	FREQ.GHZ	FREQ.GHZ	FREQ.GHZ
! S-PARAMETER	S22	S22	S22	S22
! SMOOTH/APERTURE %	0	0	0	0
! WINDOW	NSL	NSL	NSL	NSL
! GATING	OFF	OFF	OFF	OFF
! FGTD	OFF	OFF	OFF	OFF
Marker Information per Trace:	TR1	TR2	TR3	TR4
!MK1	--	"MK1 TR2:  20.000 MHz,PH:-125.58°"	--	--
!MK2	--	--	"MK2 TR3:  70.100 200 MHz,Z:(16.689 ohm, -1.482 ohm)"	--
!MK3	--	--	--	--
!MK4	--	--	--	--
!MK5	--	--	--	--
!MK6	--	--	--	--
!MK7	--	--	--	--
!MK8	--	--	--	--
PNT	TR1.FREQ.GHZ	TR1.LOG MAG.dB	TR2.FREQ.GHZ	TR2.PHASE.deg	TR3.FREQ.GHZ	TR3.REAL IMPEDANCE.ohm	TR4.FREQ.GHZ	TR4.IMAGINARY IMPEDANCE.ohm
1	  0.020000000	-9.020000E-01	  0.020000000	-1.255790E+02	  0.020000000	3.278000E+00	  0.020000000	-2.562000E+01
2	  0.020200402	-9.100000E-01	  0.020200402	-1.270230E+02	  0.020200402	3.267000E+00	  0.020200402	-2.483100E+01
3	  0.020400802	-9.190000E-01	  0.020400802	-1.284760E+02	  0.020400802	3.256000E+00	  0.020400802	-2.404600E+01
4	  0.020601204	-9.280000E-01	  0.020601204	-1.299420E+02	  0.020601204	3.248000E+00	  0.020601204	-2.326400E+01
5	  0.020801604	-9.390000E-01	  0.020801604	-1.314350E+02	  0.020801604	3.247000E+00	  0.020801604	-2.247700E+01
6	  0.021002004	-9.460000E-01	  0.021002004	-1.329520E+02	  0.021002004	3.235000E+00	  0.021002004	-2.168800E+01
7	  0.021202406	-9.550000E-01	  0.021202406	-1.344510E+02	  0.021202406	3.230000E+00	  0.021202406	-2.091700E+01
8	  0.021402806	-9.640000E-01	  0.021402806	-1.359460E+02	  0.021402806	3.224000E+00	  0.021402806	-2.015600E+01
9	  0.021603208	-9.730000E-01	  0.021603208	-1.374560E+02	  0.021603208	3.221000E+00	  0.021603208	-1.939500E+01
10	  0.021803608	-9.840000E-01	  0.021803608	-1.389470E+02	  0.021803608	3.224000E+00	  0.021803608	-1.865200E+01
11	  0.022004008	-9.950000E-01	  0.022004008	-1.404390E+02	  0.022004008	3.231000E+00	  0.022004008	-1.791500E+01
12	  0.022204408	-1.006000E+00	  0.022204408	-1.419570E+02	  0.022204408	3.237000E+00	  0.022204408	-1.717200E+01
13	  0.022404809	-1.017000E+00	  0.022404809	-1.435110E+02	  0.022404809	3.243000E+00	  0.022404809	-1.641900E+01
14	  0.022605211	-1.025000E+00	  0.022605211	-1.450730E+02	  0.022605211	3.237000E+00	  0.022605211	-1.566900E+01
15	  0.022805611	-1.036000E+00	  0.022805611	-1.466300E+02	  0.022805611	3.245000E+00	  0.022805611	-1.492800E+01
16	  0.023006011	-1.046000E+00	  0.023006011	-1.481890E+02	  0.023006011	3.250000E+00	  0.023006011	-1.419100E+01
17	  0.023206413	-1.055000E+00	  0.023206413	-1.497360E+02	  0.023206413	3.255000E+00	  0.023206413	-1.346700E+01
18	  0.023406813	-1.066000E+00	  0.023406813	-1.512970E+02	  0.023406813	3.265000E+00	  0.023406813	-1.274100E+01
19	  0.023607215	-1.077000E+00	  0.023607215	-1.528700E+02	  0.023607215	3.278000E+00	  0.023607215	-1.201400E+01
20	  0.023807615	-1.091000E+00	  0.023807615	-1.544490E+02	  0.023807615	3.297000E+00	  0.023807615	-1.128900E+01
21	  0.024008015	-1.104000E+00	  0.024008015	-1.560630E+02	  0.024008015	3.317000E+00	  0.024008015	-1.055400E+01
22	  0.024208417	-1.115000E+00	  0.024208417	-1.576880E+02	  0.024208417	3.331000E+00	  0.024208417	-9.818000E+00
23	  0.024408817	-1.126000E+00	  0.024408817	-1.593320E+02	  0.024408817	3.345000E+00	  0.024408817	-9.077000E+00
24	  0.024609219	-1.137000E+00	  0.024609219	-1.609570E+02	  0.024609219	3.359000E+00	  0.024609219	-8.349000E+00
25	  0.024809619	-1.151000E+00	  0.024809619	-1.626030E+02	  0.024809619	3.385000E+00	  0.024809619	-7.615000E+00
26	  0.025010020	-1.167000E+00	  0.025010020	-1.642560E+02	  0.025010020	3.418000E+00	  0.025010020	-6.881000E+00
27	  0.025210422	-1.180000E+00	  0.025210422	-1.659040E+02	  0.025210422	3.445000E+00	  0.025210422	-6.152000E+00
28	  0.025410822	-1.197000E+00	  0.025410822	-1.675760E+02	  0.025410822	3.482000E+00	  0.025410822	-5.415000E+00
29	  0.025611224	-1.212000E+00	  0.025611224	-1.692600E+02	  0.025611224	3.515000E+00	  0.025611224	-4.676000E+00
30	  0.025811624	-1.229000E+00	  0.025811624	-1.709570E+02	  0.025811624	3.555000E+00	  0.025811624	-3.933000E+00
31	  0.026012026	-1.244000E+00	  0.026012026	-1.726660E+02	  0.026012026	3.591000E+00	  0.026012026	-3.187000E+00
32	  0.026212426	-1.261000E+00	  0.026212426	-1.743780E+02	  0.026212426	3.632000E+00	  0.026212426	-2.441000E+00
33	  0.026412826	-1.279000E+00	  0.026412826	-1.760950E+02	  0.026412826	3.680000E+00	  0.026412826	-1.695000E+00
34	  0.026613226	-1.297000E+00	  0.026613226	-1.778360E+02	  0.026613226	3.729000E+00	  0.026613226	-9.380000E-01
35	  0.026813626	-1.318000E+00	  0.026813626	-1.795760E+02	  0.026813626	3.787000E+00	  0.026813626	-1.830000E-01
36	  0.027014028	-1.339000E+00	  0.027014028	1.786820E+02	  0.027014028	3.848000E+00	  0.027014028	5.710000E-01
37	  0.027214428	-1.360000E+00	  0.027214428	1.769330E+02	  0.027214428	3.911000E+00	  0.027214428	1.330000E+00
38	  0.027414829	-1.382000E+00	  0.027414829	1.751720E+02	  0.027414829	3.978000E+00	  0.027414829	2.094000E+00
39	  0.027615231	-1.403000E+00	  0.027615231	1.733890E+02	  0.027615231	4.045000E+00	  0.027615231	2.868000E+00
40	  0.027815631	-1.428000E+00	  0.027815631	1.716120E+02	  0.027815631	4.122000E+00	  0.027815631	3.641000E+00
41	  0.028016033	-1.451000E+00	  0.028016033	1.698080E+02	  0.028016033	4.199000E+00	  0.028016033	4.427000E+00
42	  0.028216433	-1.477000E+00	  0.028216433	1.680080E+02	  0.028216433	4.288000E+00	  0.028216433	5.213000E+00
43	  0.028416833	-1.504000E+00	  0.028416833	1.661860E+02	  0.028416833	4.381000E+00	  0.028416833	6.011000E+00
44	  0.028617235	-1.528000E+00	  0.028617235	1.643810E+02	  0.028617235	4.469000E+00	  0.028617235	6.803000E+00
45	  0.028817635	-1.555000E+00	  0.028817635	1.625520E+02	  0.028817635	4.568000E+00	  0.028817635	7.609000E+00
46	  0.029018037	-1.584000E+00	  0.029018037	1.607320E+02	  0.029018037	4.677000E+00	  0.029018037	8.415000E+00
47	  0.029218437	-1.613000E+00	  0.029218437	1.588870E+02	  0.029218437	4.789000E+00	  0.029218437	9.234000E+00
48	  0.029418837	-1.643000E+00	  0.029418837	1.570320E+02	  0.029418837	4.908000E+00	  0.029418837	1.006300E+01
49	  0.029619239	-1.674000E+00	  0.029619239	1.551580E+02	  0.029619239	5.036000E+00	  0.029619239	1.090500E+01
50	  0.029819639	-1.705000E+00	  0.029819639	1.532850E+02	  0.029819639	5.166000E+00	  0.029819639	1.175200E+01
51	  0.030020041	-1.737000E+00	  0.030020041	1.514030E+02	  0.030020041	5.305000E+00	  0.030020041	1.260800E+01
52	  0.030220442	-1.768000E+00	  0.030220442	1.495110E+02	  0.030220442	5.443000E+00	  0.030220442	1.347500E+01
53	  0.030420844	-1.800000E+00	  0.030420844	1.476290E+02	  0.030420844	5.594000E+00	  0.030420844	1.434400E+01
54	  0.030621244	-1.835000E+00	  0.030621244	1.457430E+02	  0.030621244	5.757000E+00	  0.030621244	1.522200E+01
55	  0.030821642	-1.870000E+00	  0.030821642	1.438510E+02	  0.030821642	5.926000E+00	  0.030821642	1.611000E+01
56	  0.031022044	-1.907000E+00	  0.031022044	1.419320E+02	  0.031022044	6.109000E+00	  0.031022044	1.701800E+01
57	  0.031222444	-1.936000E+00	  0.031222444	1.400350E+02	  0.031222444	6.273000E+00	  0.031222444	1.792700E+01
58	  0.031422846	-1.972000E+00	  0.031422846	1.380640E+02	  0.031422846	6.472000E+00	  0.031422846	1.888000E+01
59	  0.031623244	-2.009000E+00	  0.031623244	1.361100E+02	  0.031623244	6.677000E+00	  0.031623244	1.983500E+01
60	  0.031823646	-2.047000E+00	  0.031823646	1.341560E+02	  0.031823646	6.899000E+00	  0.031823646	2.080000E+01
61	  0.032024048	-2.088000E+00	  0.032024048	1.322080E+02	  0.032024048	7.135000E+00	  0.032024048	2.177400E+01
62	  0.032224450	-2.127000E+00	  0.032224450	1.302400E+02	  0.032224450	7.380000E+00	  0.032224450	2.277000E+01
63	  0.032424849	-2.168000E+00	  0.032424849	1.282580E+02	  0.032424849	7.640000E+00	  0.032424849	2.378700E+01
64	  0.032625251	-2.210000E+00	  0.032625251	1.262620E+02	  0.032625251	7.919000E+00	  0.032625251	2.482400E+01
65	  0.032825653	-2.250000E+00	  0.032825653	1.242430E+02	  0.032825653	8.206000E+00	  0.032825653	2.589000E+01
66	  0.033026051	-2.291000E+00	  0.033026051	1.222460E+02	  0.033026051	8.508000E+00	  0.033026051	2.695900E+01
67	  0.033226453	-2.331000E+00	  0.033226453	1.202070E+02	  0.033226453	8.823000E+00	  0.033226453	2.806900E+01
68	  0.033426855	-2.374000E+00	  0.033426855	1.182150E+02	  0.033426855	9.162000E+00	  0.033426855	2.917000E+01
69	  0.033627257	-2.418000E+00	  0.033627257	1.161970E+02	  0.033627257	9.527000E+00	  0.033627257	3.030300E+01
70	  0.033827655	-2.462000E+00	  0.033827655	1.141660E+02	  0.033827655	9.907000E+00	  0.033827655	3.146400E+01
71	  0.034028057	-2.506000E+00	  0.034028057	1.121660E+02	  0.034028057	1.030700E+01	  0.034028057	3.262600E+01
72	  0.034228459	-2.552000E+00	  0.034228459	1.101140E+02	  0.034228459	1.074200E+01	  0.034228459	3.384100E+01
73	  0.034428857	-2.597000E+00	  0.034428857	1.080800E+02	  0.034428857	1.119800E+01	  0.034428857	3.506700E+01
74	  0.034629259	-2.644000E+00	  0.034629259	1.060060E+02	  0.034629259	1.168800E+01	  0.034629259	3.634300E+01
75	  0.034829661	-2.692000E+00	  0.034829661	1.039360E+02	  0.034829661	1.221400E+01	  0.034829661	3.763900E+01
76	  0.035030060	-2.741000E+00	  0.035030060	1.018730E+02	  0.035030060	1.277600E+01	  0.035030060	3.895700E+01
77	  0.035230462	-2.789000E+00	  0.035230462	9.981500E+01	  0.035230462	1.336100E+01	  0.035230462	4.030100E+01
78	  0.035430863	-2.838000E+00	  0.035430863	9.775700E+01	  0.035430863	1.399100E+01	  0.035430863	4.167100E+01
79	  0.035631265	-2.887000E+00	  0.035631265	9.569800E+01	  0.035631265	1.465600E+01	  0.035631265	4.307400E+01
80	  0.035831664	-2.935000E+00	  0.035831664	9.361300E+01	  0.035831664	1.536600E+01	  0.035831664	4.452700E+01
81	  0.036032066	-2.983000E+00	  0.036032066	9.152800E+01	  0.036032066	1.612400E+01	  0.036032066	4.601200E+01
82	  0.036232468	-3.031000E+00	  0.036232468	8.945600E+01	  0.036232468	1.692700E+01	  0.036232468	4.752300E+01
83	  0.036432866	-3.081000E+00	  0.036432866	8.735100E+01	  0.036432866	1.780300E+01	  0.036432866	4.909300E+01
84	  0.036633268	-3.123000E+00	  0.036633268	8.527100E+01	  0.036633268	1.869100E+01	  0.036633268	5.069400E+01
85	  0.036833670	-3.168000E+00	  0.036833670	8.318300E+01	  0.036833670	1.965700E+01	  0.036833670	5.233700E+01
86	  0.037034072	-3.212000E+00	  0.037034072	8.106200E+01	  0.037034072	2.070200E+01	  0.037034072	5.405000E+01
87	  0.037234470	-3.252000E+00	  0.037234470	7.894900E+01	  0.037234470	2.179400E+01	  0.037234470	5.581100E+01
88	  0.037434869	-3.288000E+00	  0.037434869	7.678800E+01	  0.037434869	2.297000E+01	  0.037434869	5.767400E+01
89	  0.037635271	-3.322000E+00	  0.037635271	7.456800E+01	  0.037635271	2.425000E+01	  0.037635271	5.965300E+01
90	  0.037835669	-3.361000E+00	  0.037835669	7.227600E+01	  0.037835669	2.571600E+01	  0.037835669	6.173900E+01
91	  0.038036071	-3.414000E+00	  0.038036071	6.989400E+01	  0.038036071	2.745300E+01	  0.038036071	6.392300E+01
92	  0.038236473	-3.486000E+00	  0.038236473	6.757000E+01	  0.038236473	2.944200E+01	  0.038236473	6.601600E+01
93	  0.038436871	-3.568000E+00	  0.038436871	6.530600E+01	  0.038436871	3.162900E+01	  0.038436871	6.802400E+01
94	  0.038637273	-3.647000E+00	  0.038637273	6.313400E+01	  0.038637273	3.390800E+01	  0.038637273	6.995700E+01
95	  0.038837675	-3.718000E+00	  0.038837675	6.101100E+01	  0.038837675	3.626800E+01	  0.038837675	7.188300E+01
96	  0.039038073	-3.784000E+00	  0.039038073	5.893000E+01	  0.039038073	3.873400E+01	  0.039038073	7.379700E+01
97	  0.039238475	-3.847000E+00	  0.039238475	5.683500E+01	  0.039238475	4.139600E+01	  0.039238475	7.573300E+01
98	  0.039438877	-3.906000E+00	  0.039438877	5.476000E+01	  0.039438877	4.422300E+01	  0.039438877	7.765500E+01
99	  0.039639279	-3.964000E+00	  0.039639279	5.267800E+01	  0.039639279	4.727000E+01	  0.039639279	7.957500E+01
100	  0.039839678	-4.021000E+00	  0.039839678	5.055900E+01	  0.039839678	5.062100E+01	  0.039839678	8.149200E+01
101	  0.040040080	-4.076000E+00	  0.040040080	4.846100E+01	  0.040040080	5.419900E+01	  0.040040080	8.334200E+01
102	  0.040240481	-4.128000E+00	  0.040240481	4.635200E+01	  0.040240481	5.806600E+01	  0.040240481	8.514800E+01
103	  0.040440880	-4.180000E+00	  0.040440880	4.426300E+01	  0.040440880	6.221000E+01	  0.040440880	8.682500E+01
104	  0.040641282	-4.232000E+00	  0.040641282	4.216100E+01	  0.040641282	6.670800E+01	  0.040641282	8.836300E+01
105	  0.040841684	-4.283000E+00	  0.040841684	4.007900E+01	  0.040841684	7.151800E+01	  0.040841684	8.968300E+01
106	  0.041042086	-4.338000E+00	  0.041042086	3.801000E+01	  0.041042086	7.666600E+01	  0.041042086	9.071000E+01
107	  0.041242484	-4.390000E+00	  0.041242484	3.590400E+01	  0.041242484	8.225600E+01	  0.041242484	9.149100E+01
108	  0.041442886	-4.439000E+00	  0.041442886	3.381700E+01	  0.041442886	8.815900E+01	  0.041442886	9.193500E+01
109	  0.041643288	-4.488000E+00	  0.041643288	3.171400E+01	  0.041643288	9.447000E+01	  0.041643288	9.196100E+01
110	  0.041843686	-4.536000E+00	  0.041843686	2.961200E+01	  0.041843686	1.011280E+02	  0.041843686	9.147100E+01
111	  0.042044088	-4.585000E+00	  0.042044088	2.753800E+01	  0.042044088	1.080010E+02	  0.042044088	9.033900E+01
112	  0.042244490	-4.632000E+00	  0.042244490	2.545700E+01	  0.042244490	1.151470E+02	  0.042244490	8.853400E+01
113	  0.042444889	-4.680000E+00	  0.042444889	2.339600E+01	  0.042444889	1.223880E+02	  0.042444889	8.596900E+01
114	  0.042645290	-4.725000E+00	  0.042645290	2.133800E+01	  0.042645290	1.296990E+02	  0.042645290	8.260500E+01
115	  0.042845692	-4.774000E+00	  0.042845692	1.926800E+01	  0.042845692	1.369600E+02	  0.042845692	7.822600E+01
116	  0.043046094	-4.818000E+00	  0.043046094	1.721400E+01	  0.043046094	1.439980E+02	  0.043046094	7.301600E+01
117	  0.043246493	-4.862000E+00	  0.043246493	1.516700E+01	  0.043246493	1.506400E+02	  0.043246493	6.685300E+01
118	  0.043446895	-4.902000E+00	  0.043446895	1.312800E+01	  0.043446895	1.567840E+02	  0.043446895	5.985900E+01
119	  0.043647297	-4.944000E+00	  0.043647297	1.107000E+01	  0.043647297	1.622410E+02	  0.043647297	5.187300E+01
120	  0.043847695	-4.983000E+00	  0.043847695	9.055000E+00	  0.043847695	1.667510E+02	  0.043847695	4.332300E+01
121	  0.044048097	-5.025000E+00	  0.044048097	7.040000E+00	  0.044048097	1.701610E+02	  0.044048097	3.411000E+01
122	  0.044248499	-5.061000E+00	  0.044248499	5.036000E+00	  0.044248499	1.726080E+02	  0.044248499	2.458500E+01
123	  0.044448901	-5.102000E+00	  0.044448901	3.051000E+00	  0.044448901	1.736960E+02	  0.044448901	1.486900E+01
124	  0.044649299	-5.136000E+00	  0.044649299	1.050000E+00	  0.044649299	1.738300E+02	  0.044649299	5.087000E+00
125	  0.044849701	-5.172000E+00	  0.044849701	-9.260000E-01	  0.044849701	1.727340E+02	  0.044849701	-4.423000E+00
126	  0.045050103	-5.206000E+00	  0.045050103	-2.910000E+00	  0.045050103	1.706060E+02	  0.045050103	-1.362100E+01
127	  0.045250501	-5.237000E+00	  0.045250501	-4.871000E+00	  0.045250501	1.676000E+02	  0.045250501	-2.223000E+01
128	  0.045450903	-5.273000E+00	  0.045450903	-6.807000E+00	  0.045450903	1.636690E+02	  0.045450903	-3.007200E+01
129	  0.045651305	-5.304000E+00	  0.045651305	-8.750000E+00	  0.045651305	1.591740E+02	  0.045651305	-3.729100E+01
130	  0.045851704	-5.335000E+00	  0.045851704	-1.068600E+01	  0.045851704	1.541380E+02	  0.045851704	-4.372200E+01
131	  0.046052102	-5.364000E+00	  0.046052102	-1.261300E+01	  0.046052102	1.487850E+02	  0.046052102	-4.940300E+01
132	  0.046252504	-5.391000E+00	  0.046252504	-1.449700E+01	  0.046252504	1.432970E+02	  0.046252504	-5.423500E+01
133	  0.046452906	-5.421000E+00	  0.046452906	-1.640200E+01	  0.046452906	1.375570E+02	  0.046452906	-5.836900E+01
134	  0.046653304	-5.450000E+00	  0.046653304	-1.829600E+01	  0.046653304	1.317990E+02	  0.046653304	-6.179800E+01
135	  0.046853706	-5.475000E+00	  0.046853706	-2.018500E+01	  0.046853706	1.261260E+02	  0.046853706	-6.466300E+01
136	  0.047054108	-5.501000E+00	  0.047054108	-2.206200E+01	  0.047054108	1.205530E+02	  0.047054108	-6.691900E+01
137	  0.047254506	-5.527000E+00	  0.047254506	-2.395800E+01	  0.047254506	1.150670E+02	  0.047254506	-6.869800E+01
138	  0.047454908	-5.549000E+00	  0.047454908	-2.581600E+01	  0.047454908	1.098660E+02	  0.047454908	-7.002200E+01
139	  0.047655310	-5.574000E+00	  0.047655310	-2.766500E+01	  0.047655310	1.048680E+02	  0.047655310	-7.090200E+01
140	  0.047855709	-5.596000E+00	  0.047855709	-2.948700E+01	  0.047855709	1.001520E+02	  0.047855709	-7.145900E+01
141	  0.048056111	-5.622000E+00	  0.048056111	-3.130700E+01	  0.048056111	9.564300E+01	  0.048056111	-7.167300E+01
142	  0.048256513	-5.642000E+00	  0.048256513	-3.311600E+01	  0.048256513	9.138400E+01	  0.048256513	-7.170500E+01
143	  0.048456915	-5.664000E+00	  0.048456915	-3.492200E+01	  0.048456915	8.734100E+01	  0.048456915	-7.149700E+01
144	  0.048657313	-5.683000E+00	  0.048657313	-3.673600E+01	  0.048657313	8.349000E+01	  0.048657313	-7.113400E+01
145	  0.048857715	-5.702000E+00	  0.048857715	-3.852400E+01	  0.048857715	7.989500E+01	  0.048857715	-7.061000E+01
146	  0.049058117	-5.717000E+00	  0.049058117	-4.031300E+01	  0.049058117	7.648500E+01	  0.049058117	-7.000800E+01
147	  0.049258515	-5.735000E+00	  0.049258515	-4.207800E+01	  0.049258515	7.330800E+01	  0.049258515	-6.925700E+01
148	  0.049458917	-5.755000E+00	  0.049458917	-4.382400E+01	  0.049458917	7.034200E+01	  0.049458917	-6.839700E+01
149	  0.049659319	-5.769000E+00	  0.049659319	-4.556300E+01	  0.049659319	6.753800E+01	  0.049659319	-6.752300E+01
150	  0.049859721	-5.785000E+00	  0.049859721	-4.728200E+01	  0.049859721	6.492000E+01	  0.049859721	-6.658000E+01
151	  0.050060119	-5.799000E+00	  0.050060119	-4.899900E+01	  0.050060119	6.244600E+01	  0.050060119	-6.559400E+01
152	  0.050260521	-5.811000E+00	  0.050260521	-5.071900E+01	  0.050260521	6.009300E+01	  0.050260521	-6.458800E+01
153	  0.050460923	-5.824000E+00	  0.050460923	-5.241000E+01	  0.050460923	5.790600E+01	  0.050460923	-6.355800E+01
154	  0.050661322	-5.835000E+00	  0.050661322	-5.410600E+01	  0.050661322	5.582500E+01	  0.050661322	-6.250800E+01
155	  0.050861724	-5.843000E+00	  0.050861724	-5.576000E+01	  0.050861724	5.389400E+01	  0.050861724	-6.148000E+01
156	  0.051062126	-5.857000E+00	  0.051062126	-5.743100E+01	  0.051062126	5.206600E+01	  0.051062126	-6.038300E+01
157	  0.051262524	-5.868000E+00	  0.051262524	-5.906500E+01	  0.051262524	5.036200E+01	  0.051262524	-5.931800E+01
158	  0.051462926	-5.878000E+00	  0.051462926	-6.068800E+01	  0.051462926	4.875000E+01	  0.051462926	-5.826100E+01
159	  0.051663328	-5.882000E+00	  0.051663328	-6.232100E+01	  0.051663328	4.718900E+01	  0.051663328	-5.722500E+01
160	  0.051863730	-5.892000E+00	  0.051863730	-6.391500E+01	  0.051863730	4.576100E+01	  0.051863730	-5.617900E+01
161	  0.052064128	-5.900000E+00	  0.052064128	-6.553000E+01	  0.052064128	4.438000E+01	  0.052064128	-5.512800E+01
162	  0.052264530	-5.899000E+00	  0.052264530	-6.711700E+01	  0.052264530	4.305400E+01	  0.052264530	-5.414100E+01
163	  0.052464932	-5.906000E+00	  0.052464932	-6.869100E+01	  0.052464932	4.183200E+01	  0.052464932	-5.312400E+01
164	  0.052665330	-5.916000E+00	  0.052665330	-7.025400E+01	  0.052665330	4.068800E+01	  0.052665330	-5.210200E+01
165	  0.052865732	-5.922000E+00	  0.052865732	-7.179900E+01	  0.052865732	3.959700E+01	  0.052865732	-5.111400E+01
166	  0.053066134	-5.928000E+00	  0.053066134	-7.334600E+01	  0.053066134	3.855200E+01	  0.053066134	-5.013200E+01
167	  0.053266536	-5.938000E+00	  0.053266536	-7.487400E+01	  0.053266536	3.758400E+01	  0.053266536	-4.915200E+01
168	  0.053466935	-5.942000E+00	  0.053466935	-7.637700E+01	  0.053466935	3.665500E+01	  0.053466935	-4.821700E+01
169	  0.053667337	-5.943000E+00	  0.053667337	-7.789700E+01	  0.053667337	3.574100E+01	  0.053667337	-4.729200E+01
170	  0.053867739	-5.949000E+00	  0.053867739	-7.939300E+01	  0.053867739	3.489900E+01	  0.053867739	-4.637200E+01
171	  0.054068137	-5.955000E+00	  0.054068137	-8.089800E+01	  0.054068137	3.409100E+01	  0.054068137	-4.545300E+01
172	  0.054268539	-5.956000E+00	  0.054268539	-8.236900E+01	  0.054268539	3.331900E+01	  0.054268539	-4.457500E+01
173	  0.054468941	-5.962000E+00	  0.054468941	-8.384200E+01	  0.054468941	3.259100E+01	  0.054468941	-4.369300E+01
174	  0.054669335	-5.970000E+00	  0.054669335	-8.530500E+01	  0.054669335	3.191100E+01	  0.054669335	-4.281600E+01
175	  0.054869737	-5.976000E+00	  0.054869737	-8.674100E+01	  0.054869737	3.126200E+01	  0.054869737	-4.197100E+01
176	  0.055070139	-5.981000E+00	  0.055070139	-8.817600E+01	  0.055070139	3.063600E+01	  0.055070139	-4.113800E+01
177	  0.055270538	-5.983000E+00	  0.055270538	-8.957600E+01	  0.055270538	3.004100E+01	  0.055270538	-4.033900E+01
178	  0.055470940	-5.986000E+00	  0.055470940	-9.101200E+01	  0.055470940	2.945500E+01	  0.055470940	-3.952800E+01
179	  0.055671342	-5.991000E+00	  0.055671342	-9.242800E+01	  0.055671342	2.890900E+01	  0.055671342	-3.873000E+01
180	  0.055871744	-5.987000E+00	  0.055871744	-9.380900E+01	  0.055871744	2.836800E+01	  0.055871744	-3.797800E+01
181	  0.056072142	-5.991000E+00	  0.056072142	-9.520500E+01	  0.056072142	2.786600E+01	  0.056072142	-3.720800E+01
182	  0.056272544	-5.991000E+00	  0.056272544	-9.659600E+01	  0.056272544	2.737000E+01	  0.056272544	-3.645800E+01
183	  0.056472946	-5.992000E+00	  0.056472946	-9.794700E+01	  0.056472946	2.691300E+01	  0.056472946	-3.573200E+01
184	  0.056673344	-5.992000E+00	  0.056673344	-9.929000E+01	  0.056673344	2.647100E+01	  0.056673344	-3.501900E+01
185	  0.056873746	-5.996000E+00	  0.056873746	-1.006200E+02	  0.056873746	2.606200E+01	  0.056873746	-3.431200E+01
186	  0.057074148	-5.993000E+00	  0.057074148	-1.019670E+02	  0.057074148	2.563900E+01	  0.057074148	-3.361600E+01
187	  0.057274550	-5.993000E+00	  0.057274550	-1.032850E+02	  0.057274550	2.524900E+01	  0.057274550	-3.293500E+01
188	  0.057474948	-5.988000E+00	  0.057474948	-1.046230E+02	  0.057474948	2.485000E+01	  0.057474948	-3.226000E+01
189	  0.057675350	-5.988000E+00	  0.057675350	-1.059560E+02	  0.057675350	2.448400E+01	  0.057675350	-3.158200E+01
190	  0.057875752	-5.984000E+00	  0.057875752	-1.072720E+02	  0.057875752	2.412300E+01	  0.057875752	-3.092600E+01
191	  0.058076151	-5.984000E+00	  0.058076151	-1.085590E+02	  0.058076151	2.379400E+01	  0.058076151	-3.028300E+01
192	  0.058276553	-5.982000E+00	  0.058276553	-1.098480E+02	  0.058276553	2.346800E+01	  0.058276553	-2.964700E+01
193	  0.058476955	-5.977000E+00	  0.058476955	-1.111340E+02	  0.058476955	2.314500E+01	  0.058476955	-2.902300E+01
194	  0.058677353	-5.980000E+00	  0.058677353	-1.124340E+02	  0.058677353	2.285400E+01	  0.058677353	-2.838500E+01
195	  0.058877755	-5.977000E+00	  0.058877755	-1.137160E+02	  0.058877755	2.256000E+01	  0.058877755	-2.776900E+01
196	  0.059078157	-5.972000E+00	  0.059078157	-1.149950E+02	  0.059078157	2.226900E+01	  0.059078157	-2.716100E+01
197	  0.059278559	-5.970000E+00	  0.059278559	-1.162610E+02	  0.059278559	2.200000E+01	  0.059278559	-2.656000E+01
198	  0.059478957	-5.965000E+00	  0.059478957	-1.175410E+02	  0.059478957	2.172700E+01	  0.059478957	-2.596200E+01
199	  0.059679359	-5.962000E+00	  0.059679359	-1.187890E+02	  0.059679359	2.147700E+01	  0.059679359	-2.537900E+01
200	  0.059879761	-5.964000E+00	  0.059879761	-1.200530E+02	  0.059879761	2.124600E+01	  0.059879761	-2.478700E+01
201	  0.060080159	-5.965000E+00	  0.060080159	-1.212920E+02	  0.060080159	2.102700E+01	  0.060080159	-2.421100E+01
202	  0.060280561	-5.964000E+00	  0.060280561	-1.225420E+02	  0.060280561	2.080300E+01	  0.060280561	-2.363800E+01
203	  0.060480963	-5.961000E+00	  0.060480963	-1.237760E+02	  0.060480963	2.058500E+01	  0.060480963	-2.307800E+01
204	  0.060681365	-5.960000E+00	  0.060681365	-1.250150E+02	  0.060681365	2.038100E+01	  0.060681365	-2.251600E+01
205	  0.060881764	-5.958000E+00	  0.060881764	-1.262540E+02	  0.060881764	2.018100E+01	  0.060881764	-2.196000E+01
206	  0.061082166	-5.954000E+00	  0.061082166	-1.274740E+02	  0.061082166	1.998500E+01	  0.061082166	-2.141700E+01
207	  0.061282568	-5.955000E+00	  0.061282568	-1.287080E+02	  0.061282568	1.980400E+01	  0.061282568	-2.086700E+01
208	  0.061482966	-5.955000E+00	  0.061482966	-1.299230E+02	  0.061482966	1.963400E+01	  0.061482966	-2.032900E+01
209	  0.061683368	-5.953000E+00	  0.061683368	-1.311440E+02	  0.061683368	1.945900E+01	  0.061683368	-1.979400E+01
210	  0.061883770	-5.953000E+00	  0.061883770	-1.323410E+02	  0.061883770	1.930100E+01	  0.061883770	-1.927100E+01
211	  0.062084168	-5.954000E+00	  0.062084168	-1.335490E+02	  0.062084168	1.914900E+01	  0.062084168	-1.874400E+01
212	  0.062284570	-5.951000E+00	  0.062284570	-1.347390E+02	  0.062284570	1.899600E+01	  0.062284570	-1.823100E+01
213	  0.062484972	-5.942000E+00	  0.062484972	-1.358810E+02	  0.062484972	1.883500E+01	  0.062484972	-1.774700E+01
214	  0.062685370	-5.939000E+00	  0.062685370	-1.370790E+02	  0.062685370	1.868900E+01	  0.062685370	-1.723600E+01
215	  0.062885776	-5.937000E+00	  0.062885776	-1.382590E+02	  0.062885776	1.855400E+01	  0.062885776	-1.673500E+01
216	  0.063086174	-5.939000E+00	  0.063086174	-1.394170E+02	  0.063086174	1.843500E+01	  0.063086174	-1.624300E+01
217	  0.063286573	-5.934000E+00	  0.063286573	-1.405720E+02	  0.063286573	1.830200E+01	  0.063286573	-1.575900E+01
218	  0.063486971	-5.936000E+00	  0.063486971	-1.417220E+02	  0.063486971	1.819400E+01	  0.063486971	-1.527400E+01
219	  0.063687377	-5.933000E+00	  0.063687377	-1.428360E+02	  0.063687377	1.807900E+01	  0.063687377	-1.481000E+01
220	  0.063887775	-5.931000E+00	  0.063887775	-1.439900E+02	  0.063887775	1.797000E+01	  0.063887775	-1.433000E+01
221	  0.064088173	-5.932000E+00	  0.064088173	-1.451460E+02	  0.064088173	1.786900E+01	  0.064088173	-1.385000E+01
222	  0.064288579	-5.934000E+00	  0.064288579	-1.462870E+02	  0.064288579	1.777900E+01	  0.064288579	-1.337700E+01
223	  0.064488977	-5.933000E+00	  0.064488977	-1.474130E+02	  0.064488977	1.768400E+01	  0.064488977	-1.291500E+01
224	  0.064689375	-5.935000E+00	  0.064689375	-1.485230E+02	  0.064689375	1.760200E+01	  0.064689375	-1.245800E+01
225	  0.064889781	-5.936000E+00	  0.064889781	-1.496310E+02	  0.064889781	1.752200E+01	  0.064889781	-1.200500E+01
226	  0.065090179	-5.936000E+00	  0.065090179	-1.507440E+02	  0.065090179	1.744300E+01	  0.065090179	-1.155100E+01
227	  0.065290578	-5.936000E+00	  0.065290578	-1.518120E+02	  0.065290578	1.736900E+01	  0.065290578	-1.111800E+01
228	  0.065490983	-5.939000E+00	  0.065490983	-1.529250E+02	  0.065490983	1.730400E+01	  0.065490983	-1.066600E+01
229	  0.065691382	-5.940000E+00	  0.065691382	-1.539990E+02	  0.065691382	1.723700E+01	  0.065691382	-1.023300E+01
230	  0.065891780	-5.940000E+00	  0.065891780	-1.550810E+02	  0.065891780	1.717500E+01	  0.065891780	-9.798000E+00
231	  0.066092186	-5.948000E+00	  0.066092186	-1.561430E+02	  0.066092186	1.713300E+01	  0.066092186	-9.369000E+00
232	  0.066292584	-5.946000E+00	  0.066292584	-1.572160E+02	  0.066292584	1.707100E+01	  0.066292584	-8.940000E+00
233	  0.066492982	-5.953000E+00	  0.066492982	-1.582570E+02	  0.066492982	1.703500E+01	  0.066492982	-8.523000E+00
234	  0.066693388	-5.959000E+00	  0.066693388	-1.593040E+02	  0.066693388	1.699800E+01	  0.066693388	-8.104000E+00
235	  0.066893786	-5.959000E+00	  0.066893786	-1.603260E+02	  0.066893786	1.695000E+01	  0.066893786	-7.699000E+00
236	  0.067094192	-5.965000E+00	  0.067094192	-1.613670E+02	  0.067094192	1.691900E+01	  0.067094192	-7.285000E+00
237	  0.067294590	-5.967000E+00	  0.067294590	-1.623810E+02	  0.067294590	1.688300E+01	  0.067294590	-6.883000E+00
238	  0.067494988	-5.976000E+00	  0.067494988	-1.633950E+02	  0.067494988	1.686700E+01	  0.067494988	-6.481000E+00
239	  0.067695394	-5.976000E+00	  0.067695394	-1.644170E+02	  0.067695394	1.683000E+01	  0.067695394	-6.078000E+00
240	  0.067895792	-5.980000E+00	  0.067895792	-1.654310E+02	  0.067895792	1.680300E+01	  0.067895792	-5.679000E+00
241	  0.068096191	-5.988000E+00	  0.068096191	-1.664300E+02	  0.068096191	1.679400E+01	  0.068096191	-5.285000E+00
242	  0.068296596	-5.994000E+00	  0.068296596	-1.674560E+02	  0.068296596	1.677700E+01	  0.068296596	-4.883000E+00
243	  0.068496995	-5.994000E+00	  0.068496995	-1.684290E+02	  0.068496995	1.675200E+01	  0.068496995	-4.502000E+00
244	  0.068697393	-5.998000E+00	  0.068697393	-1.693990E+02	  0.068697393	1.673700E+01	  0.068697393	-4.122000E+00
245	  0.068897791	-6.001000E+00	  0.068897791	-1.703900E+02	  0.068897791	1.672300E+01	  0.068897791	-3.735000E+00
246	  0.069098189	-6.004000E+00	  0.069098189	-1.713650E+02	  0.069098189	1.670800E+01	  0.069098189	-3.355000E+00
247	  0.069298595	-6.008000E+00	  0.069298595	-1.723440E+02	  0.069298595	1.670200E+01	  0.069298595	-2.973000E+00
248	  0.069498993	-6.009000E+00	  0.069498993	-1.733240E+02	  0.069498993	1.668800E+01	  0.069498993	-2.592000E+00
249	  0.069699399	-6.015000E+00	  0.069699399	-1.742960E+02	  0.069699399	1.668900E+01	  0.069699399	-2.213000E+00
250	  0.069899797	-6.017000E+00	  0.069899797	-1.752460E+02	  0.069899797	1.668500E+01	  0.069899797	-1.844000E+00
251	  0.070100196	-6.022000E+00	  0.070100196	-1.761800E+02	  0.070100196	1.668800E+01	  0.070100196	-1.481000E+00
252	  0.070300601	-6.022000E+00	  0.070300601	-1.771300E+02	  0.070300601	1.668100E+01	  0.070300601	-1.113000E+00
253	  0.070501000	-6.023000E+00	  0.070501000	-1.780950E+02	  0.070501000	1.667800E+01	  0.070501000	-7.380000E-01
254	  0.070701398	-6.027000E+00	  0.070701398	-1.790100E+02	  0.070701398	1.668400E+01	  0.070701398	-3.830000E-01
255	  0.070901804	-6.026000E+00	  0.070901804	-1.799450E+02	  0.070901804	1.668100E+01	  0.070901804	-2.100000E-02
256	  0.071102202	-6.032000E+00	  0.071102202	1.790900E+02	  0.071102202	1.669600E+01	  0.071102202	3.520000E-01
257	  0.071302600	-6.034000E+00	  0.071302600	1.781460E+02	  0.071302600	1.670500E+01	  0.071302600	7.180000E-01
258	  0.071503006	-6.037000E+00	  0.071503006	1.772030E+02	  0.071503006	1.671900E+01	  0.071503006	1.084000E+00
259	  0.071703404	-6.039000E+00	  0.071703404	1.762980E+02	  0.071703404	1.672900E+01	  0.071703404	1.434000E+00
260	  0.071903802	-6.045000E+00	  0.071903802	1.753560E+02	  0.071903802	1.675300E+01	  0.071903802	1.799000E+00
261	  0.072104208	-6.047000E+00	  0.072104208	1.744200E+02	  0.072104208	1.677000E+01	  0.072104208	2.162000E+00
262	  0.072304606	-6.051000E+00	  0.072304606	1.735150E+02	  0.072304606	1.679300E+01	  0.072304606	2.513000E+00
263	  0.072505005	-6.049000E+00	  0.072505005	1.725840E+02	  0.072505005	1.680300E+01	  0.072505005	2.875000E+00
264	  0.072705410	-6.053000E+00	  0.072705410	1.716500E+02	  0.072705410	1.683000E+01	  0.072705410	3.237000E+00
265	  0.072905809	-6.058000E+00	  0.072905809	1.707340E+02	  0.072905809	1.686100E+01	  0.072905809	3.593000E+00
266	  0.073106214	-6.059000E+00	  0.073106214	1.698400E+02	  0.073106214	1.688300E+01	  0.073106214	3.941000E+00
267	  0.073306613	-6.068000E+00	  0.073306613	1.689060E+02	  0.073306613	1.692900E+01	  0.073306613	4.303000E+00
268	  0.073507011	-6.073000E+00	  0.073507011	1.679960E+02	  0.073507011	1.696700E+01	  0.073507011	4.657000E+00
269	  0.073707417	-6.073000E+00	  0.073707417	1.670970E+02	  0.073707417	1.699300E+01	  0.073707417	5.007000E+00
270	  0.073907815	-6.081000E+00	  0.073907815	1.661900E+02	  0.073907815	1.704000E+01	  0.073907815	5.360000E+00
271	  0.074108213	-6.085000E+00	  0.074108213	1.653010E+02	  0.074108213	1.708000E+01	  0.074108213	5.707000E+00
272	  0.074308619	-6.092000E+00	  0.074308619	1.643800E+02	  0.074308619	1.713000E+01	  0.074308619	6.066000E+00
273	  0.074509017	-6.096000E+00	  0.074509017	1.634960E+02	  0.074509017	1.717300E+01	  0.074509017	6.411000E+00
274	  0.074709415	-6.099000E+00	  0.074709415	1.625890E+02	  0.074709415	1.721600E+01	  0.074709415	6.766000E+00
275	  0.074909821	-6.108000E+00	  0.074909821	1.616850E+02	  0.074909821	1.727900E+01	  0.074909821	7.119000E+00
276	  0.075110219	-6.119000E+00	  0.075110219	1.608190E+02	  0.075110219	1.734400E+01	  0.075110219	7.456000E+00
277	  0.075310618	-6.122000E+00	  0.075310618	1.599570E+02	  0.075310618	1.739200E+01	  0.075310618	7.795000E+00
278	  0.075511023	-6.125000E+00	  0.075511023	1.590690E+02	  0.075511023	1.744500E+01	  0.075511023	8.144000E+00
279	  0.075711422	-6.131000E+00	  0.075711422	1.582070E+02	  0.075711422	1.750400E+01	  0.075711422	8.482000E+00
280	  0.075911827	-6.139000E+00	  0.075911827	1.573240E+02	  0.075911827	1.756900E+01	  0.075911827	8.829000E+00
281	  0.076112226	-6.146000E+00	  0.076112226	1.564560E+02	  0.076112226	1.763700E+01	  0.076112226	9.171000E+00
282	  0.076312624	-6.157000E+00	  0.076312624	1.555790E+02	  0.076312624	1.771700E+01	  0.076312624	9.514000E+00
283	  0.076513030	-6.165000E+00	  0.076513030	1.547550E+02	  0.076513030	1.778700E+01	  0.076513030	9.839000E+00
284	  0.076713428	-6.176000E+00	  0.076713428	1.538660E+02	  0.076713428	1.787000E+01	  0.076713428	1.018900E+01
285	  0.076913826	-6.183000E+00	  0.076913826	1.530070E+02	  0.076913826	1.794400E+01	  0.076913826	1.052900E+01
286	  0.077114232	-6.194000E+00	  0.077114232	1.521590E+02	  0.077114232	1.803100E+01	  0.077114232	1.086300E+01
287	  0.077314630	-6.204000E+00	  0.077314630	1.513180E+02	  0.077314630	1.811600E+01	  0.077314630	1.119500E+01
288	  0.077515028	-6.215000E+00	  0.077515028	1.504640E+02	  0.077515028	1.820600E+01	  0.077515028	1.153300E+01
289	  0.077715434	-6.228000E+00	  0.077715434	1.496120E+02	  0.077715434	1.830400E+01	  0.077715434	1.186900E+01
290	  0.077915832	-6.236000E+00	  0.077915832	1.487590E+02	  0.077915832	1.839100E+01	  0.077915832	1.220800E+01
291	  0.078116231	-6.244000E+00	  0.078116231	1.479220E+02	  0.078116231	1.848000E+01	  0.078116231	1.254200E+01
292	  0.078316636	-6.260000E+00	  0.078316636	1.470740E+02	  0.078316636	1.859300E+01	  0.078316636	1.287600E+01
293	  0.078517035	-6.274000E+00	  0.078517035	1.462140E+02	  0.078517035	1.870200E+01	  0.078517035	1.321700E+01
294	  0.078717433	-6.287000E+00	  0.078717433	1.453840E+02	  0.078717433	1.880900E+01	  0.078717433	1.354700E+01
295	  0.078917839	-6.299000E+00	  0.078917839	1.445330E+02	  0.078917839	1.891900E+01	  0.078917839	1.388600E+01
296	  0.079118237	-6.313000E+00	  0.079118237	1.437270E+02	  0.079118237	1.903200E+01	  0.079118237	1.420600E+01
297	  0.079318643	-6.325000E+00	  0.079318643	1.428930E+02	  0.079318643	1.914300E+01	  0.079318643	1.454000E+01
298	  0.079519041	-6.341000E+00	  0.079519041	1.420700E+02	  0.079519041	1.926900E+01	  0.079519041	1.486600E+01
299	  0.079719439	-6.356000E+00	  0.079719439	1.412380E+02	  0.079719439	1.939400E+01	  0.079719439	1.519800E+01
300	  0.079919845	-6.370000E+00	  0.079919845	1.404050E+02	  0.079919845	1.951900E+01	  0.079919845	1.553100E+01
301	  0.080120243	-6.383000E+00	  0.080120243	1.395620E+02	  0.080120243	1.964300E+01	  0.080120243	1.587000E+01
302	  0.080320641	-6.399000E+00	  0.080320641	1.387310E+02	  0.080320641	1.977900E+01	  0.080320641	1.620100E+01
303	  0.080521047	-6.412000E+00	  0.080521047	1.379510E+02	  0.080521047	1.990300E+01	  0.080521047	1.651500E+01
304	  0.080721445	-6.429000E+00	  0.080721445	1.371340E+02	  0.080721445	2.004500E+01	  0.080721445	1.684100E+01
305	  0.080921844	-6.446000E+00	  0.080921844	1.363240E+02	  0.080921844	2.018800E+01	  0.080921844	1.716500E+01
306	  0.081122249	-6.462000E+00	  0.081122249	1.355520E+02	  0.081122249	2.032600E+01	  0.081122249	1.747400E+01
307	  0.081322648	-6.477000E+00	  0.081322648	1.347440E+02	  0.081322648	2.047100E+01	  0.081322648	1.779900E+01
308	  0.081523046	-6.489000E+00	  0.081523046	1.338980E+02	  0.081523046	2.061300E+01	  0.081523046	1.814300E+01
309	  0.081723452	-6.505000E+00	  0.081723452	1.331370E+02	  0.081723452	2.075700E+01	  0.081723452	1.844900E+01
310	  0.081923850	-6.517000E+00	  0.081923850	1.323450E+02	  0.081923850	2.089700E+01	  0.081923850	1.877200E+01
311	  0.082124248	-6.532000E+00	  0.082124248	1.315530E+02	  0.082124248	2.104900E+01	  0.082124248	1.909300E+01
312	  0.082324654	-6.549000E+00	  0.082324654	1.308080E+02	  0.082324654	2.120200E+01	  0.082324654	1.939200E+01
313	  0.082525052	-6.568000E+00	  0.082525052	1.300360E+02	  0.082525052	2.136600E+01	  0.082525052	1.970100E+01
314	  0.082725458	-6.582000E+00	  0.082725458	1.292740E+02	  0.082725458	2.151900E+01	  0.082725458	2.001100E+01
315	  0.082925856	-6.599000E+00	  0.082925856	1.285470E+02	  0.082925856	2.167800E+01	  0.082925856	2.030400E+01
316	  0.083126254	-6.621000E+00	  0.083126254	1.277570E+02	  0.083126254	2.186400E+01	  0.083126254	2.061800E+01
317	  0.083326660	-6.639000E+00	  0.083326660	1.270210E+02	  0.083326660	2.203000E+01	  0.083326660	2.091400E+01
318	  0.083527058	-6.655000E+00	  0.083527058	1.262600E+02	  0.083527058	2.220000E+01	  0.083527058	2.122300E+01
319	  0.083727457	-6.673000E+00	  0.083727457	1.255420E+02	  0.083727457	2.236900E+01	  0.083727457	2.151100E+01
320	  0.083927862	-6.692000E+00	  0.083927862	1.247990E+02	  0.083927862	2.255100E+01	  0.083927862	2.180900E+01
321	  0.084128261	-6.715000E+00	  0.084128261	1.240620E+02	  0.084128261	2.274200E+01	  0.084128261	2.210100E+01
322	  0.084328659	-6.738000E+00	  0.084328659	1.233510E+02	  0.084328659	2.293400E+01	  0.084328659	2.238100E+01
323	  0.084529065	-6.755000E+00	  0.084529065	1.226420E+02	  0.084529065	2.311100E+01	  0.084529065	2.266700E+01
324	  0.084729463	-6.778000E+00	  0.084729463	1.219080E+02	  0.084729463	2.331200E+01	  0.084729463	2.295800E+01
325	  0.084929854	-6.795000E+00	  0.084929854	1.211690E+02	  0.084929854	2.350000E+01	  0.084929854	2.325600E+01
326	  0.085130259	-6.817000E+00	  0.085130259	1.204400E+02	  0.085130259	2.370600E+01	  0.085130259	2.354500E+01
327	  0.085330658	-6.837000E+00	  0.085330658	1.197020E+02	  0.085330658	2.390600E+01	  0.085330658	2.384100E+01
328	  0.085531056	-6.862000E+00	  0.085531056	1.189990E+02	  0.085531056	2.412100E+01	  0.085531056	2.411300E+01
329	  0.085731462	-6.885000E+00	  0.085731462	1.182700E+02	  0.085731462	2.433600E+01	  0.085731462	2.440100E+01
330	  0.085931860	-6.907000E+00	  0.085931860	1.175790E+02	  0.085931860	2.454400E+01	  0.085931860	2.467300E+01
331	  0.086132258	-6.931000E+00	  0.086132258	1.169030E+02	  0.086132258	2.475900E+01	  0.086132258	2.493400E+01
332	  0.086332664	-6.959000E+00	  0.086332664	1.161830E+02	  0.086332664	2.499700E+01	  0.086332664	2.521000E+01
333	  0.086533062	-6.980000E+00	  0.086533062	1.154760E+02	  0.086533062	2.521400E+01	  0.086533062	2.548900E+01
334	  0.086733460	-7.001000E+00	  0.086733460	1.147760E+02	  0.086733460	2.543300E+01	  0.086733460	2.576500E+01
335	  0.086933866	-7.024000E+00	  0.086933866	1.140830E+02	  0.086933866	2.565900E+01	  0.086933866	2.603500E+01
336	  0.087134264	-7.045000E+00	  0.087134264	1.134210E+02	  0.087134264	2.587800E+01	  0.087134264	2.629300E+01
337	  0.087334670	-7.070000E+00	  0.087334670	1.127010E+02	  0.087334670	2.612100E+01	  0.087334670	2.657100E+01
338	  0.087535068	-7.098000E+00	  0.087535068	1.120390E+02	  0.087535068	2.636500E+01	  0.087535068	2.681700E+01
339	  0.087735467	-7.122000E+00	  0.087735467	1.113640E+02	  0.087735467	2.660300E+01	  0.087735467	2.707600E+01
340	  0.087935872	-7.151000E+00	  0.087935872	1.106830E+02	  0.087935872	2.686000E+01	  0.087935872	2.732700E+01
341	  0.088136271	-7.175000E+00	  0.088136271	1.100100E+02	  0.088136271	2.710300E+01	  0.088136271	2.758300E+01
342	  0.088336669	-7.200000E+00	  0.088336669	1.093350E+02	  0.088336669	2.735500E+01	  0.088336669	2.783600E+01
343	  0.088537075	-7.223000E+00	  0.088537075	1.086760E+02	  0.088537075	2.759900E+01	  0.088537075	2.808600E+01
344	  0.088737473	-7.247000E+00	  0.088737473	1.080250E+02	  0.088737473	2.784600E+01	  0.088737473	2.833000E+01
345	  0.088937871	-7.270000E+00	  0.088937871	1.073430E+02	  0.088937871	2.810400E+01	  0.088937871	2.858800E+01
346	  0.089138277	-7.294000E+00	  0.089138277	1.067110E+02	  0.089138277	2.835000E+01	  0.089138277	2.882400E+01
347	  0.089338675	-7.322000E+00	  0.089338675	1.060430E+02	  0.089338675	2.862400E+01	  0.089338675	2.906500E+01
348	  0.089539073	-7.347000E+00	  0.089539073	1.054030E+02	  0.089539073	2.888300E+01	  0.089539073	2.929900E+01
349	  0.089739479	-7.377000E+00	  0.089739479	1.047760E+02	  0.089739479	2.916000E+01	  0.089739479	2.951500E+01
350	  0.089939877	-7.405000E+00	  0.089939877	1.041380E+02	  0.089939877	2.943300E+01	  0.089939877	2.974000E+01
351	  0.090140276	-7.429000E+00	  0.090140276	1.035240E+02	  0.090140276	2.969100E+01	  0.090140276	2.996200E+01
352	  0.090340681	-7.455000E+00	  0.090340681	1.028920E+02	  0.090340681	2.996400E+01	  0.090340681	3.018500E+01
353	  0.090541080	-7.486000E+00	  0.090541080	1.022270E+02	  0.090541080	3.026600E+01	  0.090541080	3.041100E+01
354	  0.090741485	-7.513000E+00	  0.090741485	1.016300E+02	  0.090741485	3.053900E+01	  0.090741485	3.061400E+01
355	  0.090941884	-7.542000E+00	  0.090941884	1.010130E+02	  0.090941884	3.082300E+01	  0.090941884	3.082200E+01
356	  0.091142282	-7.574000E+00	  0.091142282	1.003910E+02	  0.091142282	3.112400E+01	  0.091142282	3.102100E+01
357	  0.091342688	-7.605000E+00	  0.091342688	9.978900E+01	  0.091342688	3.141600E+01	  0.091342688	3.121500E+01
358	  0.091543086	-7.637000E+00	  0.091543086	9.915900E+01	  0.091543086	3.172600E+01	  0.091543086	3.141400E+01
359	  0.091743484	-7.659000E+00	  0.091743484	9.853400E+01	  0.091743484	3.200800E+01	  0.091743484	3.163400E+01
360	  0.091943890	-7.693000E+00	  0.091943890	9.795600E+01	  0.091943890	3.231100E+01	  0.091943890	3.180200E+01
361	  0.092144288	-7.722000E+00	  0.092144288	9.731000E+01	  0.092144288	3.262600E+01	  0.092144288	3.201300E+01
362	  0.092344686	-7.751000E+00	  0.092344686	9.671100E+01	  0.092344686	3.292900E+01	  0.092344686	3.219800E+01
363	  0.092545092	-7.779000E+00	  0.092545092	9.610000E+01	  0.092545092	3.323500E+01	  0.092545092	3.239200E+01
364	  0.092745490	-7.814000E+00	  0.092745490	9.553100E+01	  0.092745490	3.354900E+01	  0.092745490	3.254600E+01
365	  0.092945889	-7.843000E+00	  0.092945889	9.495700E+01	  0.092945889	3.385200E+01	  0.092945889	3.271400E+01
366	  0.093146294	-7.875000E+00	  0.093146294	9.435500E+01	  0.093146294	3.417400E+01	  0.093146294	3.288800E+01
367	  0.093346693	-7.905000E+00	  0.093346693	9.377800E+01	  0.093346693	3.448600E+01	  0.093346693	3.305100E+01
368	  0.093547091	-7.931000E+00	  0.093547091	9.318600E+01	  0.093547091	3.479500E+01	  0.093547091	3.322900E+01
369	  0.093747497	-7.962000E+00	  0.093747497	9.263000E+01	  0.093747497	3.510500E+01	  0.093747497	3.338000E+01
370	  0.093947895	-7.991000E+00	  0.093947895	9.204200E+01	  0.093947895	3.542900E+01	  0.093947895	3.354300E+01
371	  0.094148301	-8.025000E+00	  0.094148301	9.151000E+01	  0.094148301	3.574100E+01	  0.094148301	3.367100E+01
372	  0.094348699	-8.052000E+00	  0.094348699	9.097200E+01	  0.094348699	3.604100E+01	  0.094348699	3.381700E+01
373	  0.094549097	-8.085000E+00	  0.094549097	9.043000E+01	  0.094549097	3.636200E+01	  0.094549097	3.394400E+01
374	  0.094749503	-8.113000E+00	  0.094749503	8.992000E+01	  0.094749503	3.665800E+01	  0.094749503	3.407100E+01
375	  0.094949901	-8.142000E+00	  0.094949901	8.940400E+01	  0.094949901	3.696300E+01	  0.094949901	3.419300E+01
376	  0.095150299	-8.166000E+00	  0.095150299	8.888500E+01	  0.095150299	3.725600E+01	  0.095150299	3.433200E+01
377	  0.095350705	-8.192000E+00	  0.095350705	8.838200E+01	  0.095350705	3.755100E+01	  0.095350705	3.445600E+01
378	  0.095551103	-8.223000E+00	  0.095551103	8.785900E+01	  0.095551103	3.787100E+01	  0.095551103	3.456900E+01
379	  0.095751502	-8.247000E+00	  0.095751502	8.738900E+01	  0.095751502	3.814700E+01	  0.095751502	3.468200E+01
380	  0.095951907	-8.279000E+00	  0.095951907	8.691800E+01	  0.095951907	3.844700E+01	  0.095951907	3.476900E+01
381	  0.096152306	-8.307000E+00	  0.096152306	8.642200E+01	  0.096152306	3.875200E+01	  0.096152306	3.487500E+01
382	  0.096352704	-8.329000E+00	  0.096352704	8.596100E+01	  0.096352704	3.902800E+01	  0.096352704	3.498200E+01
383	  0.096553110	-8.351000E+00	  0.096553110	8.553000E+01	  0.096553110	3.929000E+01	  0.096553110	3.507700E+01
384	  0.096753508	-8.379000E+00	  0.096753508	8.509600E+01	  0.096753508	3.956800E+01	  0.096753508	3.515500E+01
385	  0.096953906	-8.404000E+00	  0.096953906	8.466500E+01	  0.096953906	3.984200E+01	  0.096953906	3.523500E+01
386	  0.097154312	-8.428000E+00	  0.097154312	8.420200E+01	  0.097154312	4.013000E+01	  0.097154312	3.533100E+01
387	  0.097354710	-8.452000E+00	  0.097354710	8.381000E+01	  0.097354710	4.038400E+01	  0.097354710	3.539700E+01
388	  0.097555116	-8.476000E+00	  0.097555116	8.336400E+01	  0.097555116	4.066600E+01	  0.097555116	3.548200E+01
389	  0.097755514	-8.503000E+00	  0.097755514	8.295800E+01	  0.097755514	4.093600E+01	  0.097755514	3.554100E+01
390	  0.097955912	-8.526000E+00	  0.097955912	8.256500E+01	  0.097955912	4.119100E+01	  0.097955912	3.560700E+01
391	  0.098156318	-8.546000E+00	  0.098156318	8.216800E+01	  0.098156318	4.144300E+01	  0.098156318	3.568100E+01
392	  0.098356716	-8.569000E+00	  0.098356716	8.177600E+01	  0.098356716	4.169900E+01	  0.098356716	3.574500E+01
393	  0.098557115	-8.585000E+00	  0.098557115	8.136700E+01	  0.098557115	4.195200E+01	  0.098557115	3.583200E+01
394	  0.098757520	-8.613000E+00	  0.098757520	8.095500E+01	  0.098757520	4.223300E+01	  0.098757520	3.588100E+01
395	  0.098957919	-8.625000E+00	  0.098957919	8.057900E+01	  0.098957919	4.246000E+01	  0.098957919	3.597000E+01
396	  0.099158317	-8.649000E+00	  0.099158317	8.016500E+01	  0.099158317	4.273600E+01	  0.099158317	3.603000E+01
397	  0.099358723	-8.665000E+00	  0.099358723	7.977200E+01	  0.099358723	4.298400E+01	  0.099358723	3.610800E+01
398	  0.099559121	-8.681000E+00	  0.099559121	7.940200E+01	  0.099559121	4.322200E+01	  0.099559121	3.617500E+01
399	  0.099759519	-8.699000E+00	  0.099759519	7.899600E+01	  0.099759519	4.348400E+01	  0.099759519	3.624700E+01
400	  0.099959925	-8.701000E+00	  0.099959925	7.863700E+01	  0.099959925	4.368700E+01	  0.099959925	3.636000E+01
401	  0.100160323	-8.725000E+00	  0.100160323	7.826400E+01	  0.100160323	4.394800E+01	  0.100160323	3.639500E+01
402	  0.100360721	-8.731000E+00	  0.100360721	7.789700E+01	  0.100360721	4.416500E+01	  0.100360721	3.649500E+01
403	  0.100561127	-8.742000E+00	  0.100561127	7.751200E+01	  0.100561127	4.440700E+01	  0.100561127	3.658000E+01
404	  0.100761525	-8.763000E+00	  0.100761525	7.714000E+01	  0.100761525	4.466400E+01	  0.100761525	3.662000E+01
405	  0.100961931	-8.761000E+00	  0.100961931	7.673800E+01	  0.100961931	4.489000E+01	  0.100961931	3.675900E+01
406	  0.101162329	-8.761000E+00	  0.101162329	7.639500E+01	  0.101162329	4.508900E+01	  0.101162329	3.686700E+01
407	  0.101362728	-8.769000E+00	  0.101362728	7.595400E+01	  0.101362728	4.536300E+01	  0.101362728	3.697500E+01
408	  0.101563133	-8.772000E+00	  0.101563133	7.562600E+01	  0.101563133	4.556100E+01	  0.101563133	3.706800E+01
409	  0.101763532	-8.782000E+00	  0.101763532	7.526200E+01	  0.101763532	4.579700E+01	  0.101763532	3.714300E+01
410	  0.101963930	-8.785000E+00	  0.101963930	7.482300E+01	  0.101963930	4.606600E+01	  0.101963930	3.726600E+01
411	  0.102164328	-8.781000E+00	  0.102164328	7.441400E+01	  0.102164328	4.630400E+01	  0.102164328	3.740800E+01
412	  0.102364726	-8.778000E+00	  0.102364726	7.399700E+01	  0.102364726	4.655000E+01	  0.102364726	3.754800E+01
413	  0.102565125	-8.790000E+00	  0.102565125	7.359100E+01	  0.102565125	4.682400E+01	  0.102565125	3.762000E+01
414	  0.102765530	-8.781000E+00	  0.102765530	7.323200E+01	  0.102765530	4.702700E+01	  0.102765530	3.776700E+01
415	  0.102965929	-8.779000E+00	  0.102965929	7.281200E+01	  0.102965929	4.728500E+01	  0.102965929	3.789900E+01
416	  0.103166327	-8.772000E+00	  0.103166327	7.237900E+01	  0.103166327	4.754300E+01	  0.103166327	3.805700E+01
417	  0.103366733	-8.776000E+00	  0.103366733	7.199900E+01	  0.103366733	4.779300E+01	  0.103366733	3.815000E+01
418	  0.103567131	-8.769000E+00	  0.103567131	7.152600E+01	  0.103567131	4.808000E+01	  0.103567131	3.832000E+01
419	  0.103767529	-8.764000E+00	  0.103767529	7.107400E+01	  0.103767529	4.836300E+01	  0.103767529	3.847100E+01
420	  0.103967935	-8.756000E+00	  0.103967935	7.066500E+01	  0.103967935	4.861500E+01	  0.103967935	3.862200E+01
421	  0.104168333	-8.756000E+00	  0.104168333	7.021900E+01	  0.104168333	4.890900E+01	  0.104168333	3.874600E+01
422	  0.104368731	-8.756000E+00	  0.104368731	6.983100E+01	  0.104368731	4.916700E+01	  0.104368731	3.885400E+01
423	  0.104569137	-8.743000E+00	  0.104569137	6.935900E+01	  0.104569137	4.946000E+01	  0.104569137	3.904300E+01
424	  0.104769535	-8.740000E+00	  0.104769535	6.885400E+01	  0.104769535	4.979600E+01	  0.104769535	3.919600E+01
425	  0.104969934	-8.732000E+00	  0.104969934	6.844600E+01	  0.104969934	5.006200E+01	  0.104969934	3.933900E+01
426	  0.105170339	-8.734000E+00	  0.105170339	6.793300E+01	  0.105170339	5.041900E+01	  0.105170339	3.946900E+01
427	  0.105370738	-8.731000E+00	  0.105370738	6.744600E+01	  0.105370738	5.075400E+01	  0.105370738	3.961100E+01
428	  0.105571143	-8.725000E+00	  0.105571143	6.694900E+01	  0.105571143	5.109500E+01	  0.105571143	3.976600E+01
429	  0.105771542	-8.723000E+00	  0.105771542	6.648600E+01	  0.105771542	5.142200E+01	  0.105771542	3.989400E+01
430	  0.105971940	-8.713000E+00	  0.105971940	6.599900E+01	  0.105971940	5.175500E+01	  0.105971940	4.006400E+01
431	  0.106172346	-8.716000E+00	  0.106172346	6.549300E+01	  0.106172346	5.212900E+01	  0.106172346	4.017400E+01
432	  0.106372744	-8.708000E+00	  0.106372744	6.501000E+01	  0.106372744	5.247100E+01	  0.106372744	4.032900E+01
433	  0.106573142	-8.705000E+00	  0.106573142	6.454100E+01	  0.106573142	5.281400E+01	  0.106573142	4.045400E+01
434	  0.106773548	-8.704000E+00	  0.106773548	6.397900E+01	  0.106773548	5.323300E+01	  0.106773548	4.059200E+01
435	  0.106973946	-8.687000E+00	  0.106973946	6.354400E+01	  0.106973946	5.353800E+01	  0.106973946	4.077500E+01
436	  0.107174344	-8.693000E+00	  0.107174344	6.303100E+01	  0.107174344	5.393900E+01	  0.107174344	4.086000E+01
437	  0.107374750	-8.691000E+00	  0.107374750	6.249400E+01	  0.107374750	5.435100E+01	  0.107374750	4.098900E+01
438	  0.107575148	-8.679000E+00	  0.107575148	6.192300E+01	  0.107575148	5.478300E+01	  0.107575148	4.116700E+01
439	  0.107775547	-8.672000E+00	  0.107775547	6.144800E+01	  0.107775547	5.514800E+01	  0.107775547	4.130300E+01
440	  0.107975952	-8.665000E+00	  0.107975952	6.093600E+01	  0.107975952	5.554900E+01	  0.107975952	4.144300E+01
441	  0.108176351	-8.664000E+00	  0.108176351	6.040500E+01	  0.108176351	5.597600E+01	  0.108176351	4.155300E+01
442	  0.108376749	-8.651000E+00	  0.108376749	5.988200E+01	  0.108376749	5.638700E+01	  0.108376749	4.171700E+01
443	  0.108577155	-8.649000E+00	  0.108577155	5.938400E+01	  0.108577155	5.679500E+01	  0.108577155	4.182300E+01
444	  0.108777553	-8.640000E+00	  0.108777553	5.880300E+01	  0.108777553	5.727000E+01	  0.108777553	4.197200E+01
445	  0.108977959	-8.639000E+00	  0.108977959	5.822000E+01	  0.108977959	5.776100E+01	  0.108977959	4.207600E+01
446	  0.109178357	-8.626000E+00	  0.109178357	5.767400E+01	  0.109178357	5.821300E+01	  0.109178357	4.223600E+01
447	  0.109378755	-8.623000E+00	  0.109378755	5.710800E+01	  0.109378755	5.869800E+01	  0.109378755	4.233700E+01
448	  0.109579161	-8.611000E+00	  0.109579161	5.654700E+01	  0.109579161	5.917600E+01	  0.109579161	4.248800E+01
449	  0.109779559	-8.607000E+00	  0.109779559	5.600600E+01	  0.109779559	5.965000E+01	  0.109779559	4.258300E+01
450	  0.109979957	-8.602000E+00	  0.109979957	5.540900E+01	  0.109979957	6.017800E+01	  0.109979957	4.269100E+01
451	  0.110180363	-8.586000E+00	  0.110180363	5.484900E+01	  0.110180363	6.067100E+01	  0.110180363	4.285300E+01
452	  0.110380761	-8.587000E+00	  0.110380761	5.422700E+01	  0.110380761	6.123900E+01	  0.110380761	4.291500E+01
453	  0.110581160	-8.584000E+00	  0.110581160	5.356900E+01	  0.110581160	6.184500E+01	  0.110581160	4.299700E+01
454	  0.110781565	-8.583000E+00	  0.110781565	5.299600E+01	  0.110781565	6.237800E+01	  0.110781565	4.305000E+01
455	  0.110981964	-8.580000E+00	  0.110981964	5.238200E+01	  0.110981964	6.295500E+01	  0.110981964	4.311700E+01
456	  0.111182362	-8.571000E+00	  0.111182362	5.175200E+01	  0.111182362	6.355200E+01	  0.111182362	4.321400E+01
457	  0.111382768	-8.558000E+00	  0.111382768	5.114000E+01	  0.111382768	6.413800E+01	  0.111382768	4.332800E+01
458	  0.111583166	-8.570000E+00	  0.111583166	5.044500E+01	  0.111583166	6.481800E+01	  0.111583166	4.327400E+01
459	  0.111783572	-8.558000E+00	  0.111783572	4.981700E+01	  0.111783572	6.543500E+01	  0.111783572	4.337200E+01
460	  0.111983970	-8.555000E+00	  0.111983970	4.911900E+01	  0.111983970	6.613100E+01	  0.111983970	4.339600E+01
461	  0.112184368	-8.548000E+00	  0.112184368	4.844000E+01	  0.112184368	6.681500E+01	  0.112184368	4.343800E+01
462	  0.112384774	-8.555000E+00	  0.112384774	4.777100E+01	  0.112384774	6.749400E+01	  0.112384774	4.337900E+01
463	  0.112585172	-8.563000E+00	  0.112585172	4.706100E+01	  0.112585172	6.822100E+01	  0.112585172	4.329800E+01
464	  0.112785570	-8.556000E+00	  0.112785570	4.635100E+01	  0.112785570	6.896000E+01	  0.112785570	4.330100E+01
465	  0.112985976	-8.561000E+00	  0.112985976	4.560600E+01	  0.112985976	6.973700E+01	  0.112985976	4.321100E+01
466	  0.113186374	-8.563000E+00	  0.113186374	4.486000E+01	  0.113186374	7.052500E+01	  0.113186374	4.312200E+01
467	  0.113386773	-8.558000E+00	  0.113386773	4.413900E+01	  0.113386773	7.129700E+01	  0.113386773	4.307200E+01
468	  0.113587178	-8.571000E+00	  0.113587178	4.341700E+01	  0.113587178	7.206200E+01	  0.113587178	4.288300E+01
469	  0.113787577	-8.573000E+00	  0.113787577	4.262600E+01	  0.113787577	7.291700E+01	  0.113787577	4.273900E+01
470	  0.113987975	-8.576000E+00	  0.113987975	4.188300E+01	  0.113987975	7.372400E+01	  0.113987975	4.258100E+01
471	  0.114188381	-8.585000E+00	  0.114188381	4.108300E+01	  0.114188381	7.459300E+01	  0.114188381	4.235300E+01
472	  0.114388779	-8.593000E+00	  0.114388779	4.031100E+01	  0.114388779	7.543300E+01	  0.114388779	4.211200E+01
473	  0.114589177	-8.604000E+00	  0.114589177	3.951300E+01	  0.114589177	7.630200E+01	  0.114589177	4.182500E+01
474	  0.114789583	-8.606000E+00	  0.114789583	3.871000E+01	  0.114789583	7.719400E+01	  0.114789583	4.157600E+01
475	  0.114989981	-8.616000E+00	  0.114989981	3.791200E+01	  0.114989981	7.807000E+01	  0.114989981	4.125100E+01
476	  0.115190387	-8.628000E+00	  0.115190387	3.708100E+01	  0.115190387	7.897600E+01	  0.115190387	4.087100E+01
477	  0.115390785	-8.648000E+00	  0.115390785	3.624400E+01	  0.115390785	7.987000E+01	  0.115390785	4.040800E+01
478	  0.115591183	-8.659000E+00	  0.115591183	3.539600E+01	  0.115591183	8.079700E+01	  0.115591183	3.998200E+01
479	  0.115791589	-8.677000E+00	  0.115791589	3.454500E+01	  0.115791589	8.170400E+01	  0.115791589	3.947400E+01
480	  0.115991987	-8.693000E+00	  0.115991987	3.365700E+01	  0.115991987	8.265100E+01	  0.115991987	3.893200E+01
481	  0.116192386	-8.714000E+00	  0.116192386	3.279100E+01	  0.116192386	8.355100E+01	  0.116192386	3.833600E+01
482	  0.116392791	-8.739000E+00	  0.116392791	3.188500E+01	  0.116392791	8.447100E+01	  0.116392791	3.766000E+01
483	  0.116593190	-8.760000E+00	  0.116593190	3.102300E+01	  0.116593190	8.534800E+01	  0.116593190	3.701200E+01
484	  0.116793588	-8.792000E+00	  0.116793588	3.006200E+01	  0.116793588	8.626900E+01	  0.116793588	3.618400E+01
485	  0.116993994	-8.820000E+00	  0.116993994	2.914000E+01	  0.116993994	8.715100E+01	  0.116993994	3.538900E+01
486	  0.117194392	-8.855000E+00	  0.117194392	2.820500E+01	  0.117194392	8.798900E+01	  0.117194392	3.449600E+01
487	  0.117394790	-8.888000E+00	  0.117394790	2.726100E+01	  0.117394790	8.882300E+01	  0.117394790	3.358200E+01
488	  0.117595196	-8.927000E+00	  0.117595196	2.628800E+01	  0.117595196	8.962900E+01	  0.117595196	3.257600E+01
489	  0.117795594	-8.968000E+00	  0.117795594	2.532800E+01	  0.117795594	9.037800E+01	  0.117795594	3.153400E+01
490	  0.117995992	-9.012000E+00	  0.117995992	2.433400E+01	  0.117995992	9.111300E+01	  0.117995992	3.042300E+01
491	  0.118196398	-9.059000E+00	  0.118196398	2.330300E+01	  0.118196398	9.182600E+01	  0.118196398	2.923200E+01
492	  0.118396796	-9.110000E+00	  0.118396796	2.226300E+01	  0.118396796	9.247600E+01	  0.118396796	2.798000E+01
493	  0.118597202	-9.159000E+00	  0.118597202	2.123800E+01	  0.118597202	9.308400E+01	  0.118597202	2.673800E+01
494	  0.118797600	-9.219000E+00	  0.118797600	2.016500E+01	  0.118797600	9.361500E+01	  0.118797600	2.536600E+01
