! Anritsu VNA Master:             	Model: MS2036C/10/77
! SN:             	1601066
! /card0/usr/18may27.balun/5b.47.txt
! Existing Calibration Information:
! TYPE:             	Current Settings	Active Cal Settings
! TIME:             	05/27/2018 03:28:45 PM	05/27/2018 03:21:57 PM
! INTERNAL TEMP:    	52.5 C	52.3 C
! # POINTS:         	500	500
! START FREQ:       	20.000 MHz	20.000 MHz
! STOP FREQ:        	120.000 MHz	120.000 MHz
! SOURCE POWER:     	High	High
! IFBW:             	50 Hz	50 Hz
! AVG FACTOR:       	  1 	  1 
! REF PLANE 1:      	0 mm	0 mm
! REF PLANE 2:      	0 mm	0 mm
! CAL TYPE:         	Full S11	Full S11
! CAL METHOD:       	SOLT	SOLT
! CAL LINE TYPE:    	Coax	Coax
! DUT PORT 1:       	K-Conn(M)	K-Conn(M)
! DUT PORT 2:       	K-Conn(M)	K-Conn(M)
! CAL STATUS:       	OK: Accuracy High	--
! PROP-V:       	0.700
! CABLE LOSS:       	0.000 dB/m
! REF IMPEDANCE:       	50.0
! Trace Specific Parameters:	TR1	TR2	TR3	TR4
! TRACE.#.Y (GRAPH TYPE)	LOG MAG	PHASE	REAL IMPEDANCE	IMAGINARY IMPEDANCE
! TRACE.#.X 	FREQ.GHZ	FREQ.GHZ	FREQ.GHZ	FREQ.GHZ
! S-PARAMETER	S11	S11	S11	S11
! SMOOTH/APERTURE %	0	0	0	0
! WINDOW	NSL	NSL	NSL	NSL
! GATING	OFF	OFF	OFF	OFF
! FGTD	OFF	OFF	OFF	OFF
Marker Information per Trace:	TR1	TR2	TR3	TR4
!MK1	--	--	--	"MK1 TR4:  70.100 200 MHz,Z:(0.883 ohm, -1.285 ohm)"
!MK2	--	--	--	--
!MK3	--	--	--	--
!MK4	--	--	--	--
!MK5	--	--	--	--
!MK6	--	--	--	--
!MK7	--	--	--	--
!MK8	--	--	--	--
PNT	TR1.FREQ.GHZ	TR1.LOG MAG.dB	TR2.FREQ.GHZ	TR2.PHASE.deg	TR3.FREQ.GHZ	TR3.REAL IMPEDANCE.ohm	TR4.FREQ.GHZ	TR4.IMAGINARY IMPEDANCE.ohm
1	  0.020000000	-4.300000E-02	  0.020000000	-5.600800E+01	  0.020000000	5.700000E-01	  0.020000000	-9.401600E+01
2	  0.020200402	-3.900000E-02	  0.020200402	-5.655000E+01	  0.020200402	5.100000E-01	  0.020200402	-9.295400E+01
3	  0.020400802	-3.600000E-02	  0.020400802	-5.705300E+01	  0.020400802	4.550000E-01	  0.020400802	-9.198400E+01
4	  0.020601204	-3.300000E-02	  0.020601204	-5.758400E+01	  0.020601204	4.190000E-01	  0.020601204	-9.097700E+01
5	  0.020801604	-3.300000E-02	  0.020801604	-5.811600E+01	  0.020801604	4.110000E-01	  0.020801604	-8.998500E+01
6	  0.021002004	-3.200000E-02	  0.021002004	-5.865500E+01	  0.021002004	3.850000E-01	  0.021002004	-8.899600E+01
7	  0.021202406	-3.600000E-02	  0.021202406	-5.921500E+01	  0.021202406	4.270000E-01	  0.021202406	-8.798700E+01
8	  0.021402806	-3.900000E-02	  0.021402806	-5.976400E+01	  0.021402806	4.530000E-01	  0.021402806	-8.701300E+01
9	  0.021603208	-4.100000E-02	  0.021603208	-6.031100E+01	  0.021603208	4.730000E-01	  0.021603208	-8.605800E+01
10	  0.021803608	-4.600000E-02	  0.021803608	-6.084700E+01	  0.021803608	5.170000E-01	  0.021803608	-8.514000E+01
11	  0.022004008	-4.700000E-02	  0.022004008	-6.138200E+01	  0.022004008	5.270000E-01	  0.022004008	-8.423600E+01
12	  0.022204408	-4.900000E-02	  0.022204408	-6.195200E+01	  0.022204408	5.400000E-01	  0.022204408	-8.328900E+01
13	  0.022404809	-5.700000E-02	  0.022404809	-6.255200E+01	  0.022404809	6.100000E-01	  0.022404809	-8.230800E+01
14	  0.022605211	-6.200000E-02	  0.022605211	-6.314000E+01	  0.022605211	6.520000E-01	  0.022605211	-8.136400E+01
15	  0.022805611	-5.900000E-02	  0.022805611	-6.371900E+01	  0.022805611	6.100000E-01	  0.022805611	-8.045100E+01
16	  0.023006011	-4.900000E-02	  0.023006011	-6.431600E+01	  0.023006011	5.070000E-01	  0.023006011	-7.952500E+01
17	  0.023206413	-4.500000E-02	  0.023206413	-6.490300E+01	  0.023206413	4.540000E-01	  0.023206413	-7.862800E+01
18	  0.023406813	-4.100000E-02	  0.023406813	-6.546500E+01	  0.023406813	4.060000E-01	  0.023406813	-7.778300E+01
19	  0.023607215	-4.200000E-02	  0.023607215	-6.603400E+01	  0.023607215	4.130000E-01	  0.023607215	-7.694000E+01
20	  0.023807615	-4.200000E-02	  0.023807615	-6.656300E+01	  0.023807615	4.010000E-01	  0.023807615	-7.616900E+01
21	  0.024008015	-4.600000E-02	  0.024008015	-6.705900E+01	  0.024008015	4.390000E-01	  0.024008015	-7.545400E+01
22	  0.024208417	-5.000000E-02	  0.024208417	-6.755600E+01	  0.024208417	4.710000E-01	  0.024208417	-7.474800E+01
23	  0.024408817	-5.600000E-02	  0.024408817	-6.802100E+01	  0.024408817	5.210000E-01	  0.024408817	-7.409500E+01
24	  0.024609219	-6.200000E-02	  0.024609219	-6.850700E+01	  0.024609219	5.710000E-01	  0.024609219	-7.342000E+01
25	  0.024809619	-6.900000E-02	  0.024809619	-6.903100E+01	  0.024809619	6.210000E-01	  0.024809619	-7.270300E+01
26	  0.025010020	-6.900000E-02	  0.025010020	-6.957100E+01	  0.025010020	6.110000E-01	  0.025010020	-7.197400E+01
27	  0.025210422	-6.900000E-02	  0.025210422	-7.011400E+01	  0.025210422	6.070000E-01	  0.025210422	-7.125100E+01
28	  0.025410822	-7.100000E-02	  0.025410822	-7.066100E+01	  0.025410822	6.120000E-01	  0.025410822	-7.053300E+01
29	  0.025611224	-6.900000E-02	  0.025611224	-7.121200E+01	  0.025611224	5.920000E-01	  0.025611224	-6.982000E+01
30	  0.025811624	-6.900000E-02	  0.025811624	-7.174600E+01	  0.025811624	5.790000E-01	  0.025811624	-6.913700E+01
31	  0.026012026	-6.500000E-02	  0.026012026	-7.228100E+01	  0.026012026	5.430000E-01	  0.026012026	-6.846100E+01
32	  0.026212426	-6.200000E-02	  0.026212426	-7.282300E+01	  0.026212426	5.130000E-01	  0.026212426	-6.778600E+01
33	  0.026412826	-5.900000E-02	  0.026412826	-7.333700E+01	  0.026412826	4.840000E-01	  0.026412826	-6.715300E+01
34	  0.026613226	-6.200000E-02	  0.026613226	-7.385000E+01	  0.026613226	4.970000E-01	  0.026613226	-6.653000E+01
35	  0.026813626	-6.500000E-02	  0.026813626	-7.434000E+01	  0.026813626	5.200000E-01	  0.026813626	-6.594100E+01
36	  0.027014028	-6.800000E-02	  0.027014028	-7.481300E+01	  0.027014028	5.370000E-01	  0.027014028	-6.537900E+01
37	  0.027214428	-7.700000E-02	  0.027214428	-7.532500E+01	  0.027214428	5.990000E-01	  0.027214428	-6.477500E+01
38	  0.027414829	-8.900000E-02	  0.027414829	-7.588700E+01	  0.027414829	6.770000E-01	  0.027414829	-6.412200E+01
39	  0.027615231	-9.600000E-02	  0.027615231	-7.648200E+01	  0.027615231	7.240000E-01	  0.027615231	-6.343900E+01
40	  0.027815631	-1.000000E-01	  0.027815631	-7.710400E+01	  0.027815631	7.410000E-01	  0.027815631	-6.273500E+01
41	  0.028016033	-9.800000E-02	  0.028016033	-7.773400E+01	  0.028016033	7.210000E-01	  0.028016033	-6.203200E+01
42	  0.028216433	-9.100000E-02	  0.028216433	-7.838600E+01	  0.028216433	6.590000E-01	  0.028216433	-6.131600E+01
43	  0.028416833	-8.400000E-02	  0.028416833	-7.899500E+01	  0.028416833	6.010000E-01	  0.028416833	-6.065500E+01
44	  0.028617235	-7.600000E-02	  0.028617235	-7.962000E+01	  0.028617235	5.340000E-01	  0.028617235	-5.998700E+01
45	  0.028817635	-6.800000E-02	  0.028817635	-8.017500E+01	  0.028817635	4.720000E-01	  0.028817635	-5.940000E+01
46	  0.029018037	-6.000000E-02	  0.029018037	-8.067800E+01	  0.029018037	4.160000E-01	  0.029018037	-5.887300E+01
47	  0.029218437	-5.200000E-02	  0.029218437	-8.113200E+01	  0.029218437	3.580000E-01	  0.029218437	-5.840400E+01
48	  0.029418837	-4.900000E-02	  0.029418837	-8.156300E+01	  0.029418837	3.360000E-01	  0.029418837	-5.796100E+01
49	  0.029619239	-4.700000E-02	  0.029619239	-8.197900E+01	  0.029619239	3.190000E-01	  0.029619239	-5.753700E+01
50	  0.029819639	-5.100000E-02	  0.029819639	-8.241300E+01	  0.029819639	3.430000E-01	  0.029819639	-5.710000E+01
51	  0.030020041	-5.600000E-02	  0.030020041	-8.287700E+01	  0.030020041	3.710000E-01	  0.030020041	-5.663500E+01
52	  0.030220442	-6.500000E-02	  0.030220442	-8.337000E+01	  0.030220442	4.260000E-01	  0.030220442	-5.614500E+01
53	  0.030420844	-7.600000E-02	  0.030420844	-8.388600E+01	  0.030420844	4.940000E-01	  0.030420844	-5.563800E+01
54	  0.030621244	-8.500000E-02	  0.030621244	-8.440900E+01	  0.030621244	5.450000E-01	  0.030621244	-5.512900E+01
55	  0.030821644	-9.100000E-02	  0.030821644	-8.494800E+01	  0.030821644	5.770000E-01	  0.030821644	-5.461100E+01
56	  0.031022044	-8.900000E-02	  0.031022044	-8.547400E+01	  0.031022044	5.580000E-01	  0.031022044	-5.411000E+01
57	  0.031222444	-9.000000E-02	  0.031222444	-8.601100E+01	  0.031222444	5.580000E-01	  0.031222444	-5.360400E+01
58	  0.031422846	-9.000000E-02	  0.031422846	-8.651600E+01	  0.031422846	5.540000E-01	  0.031422846	-5.313200E+01
59	  0.031623244	-9.000000E-02	  0.031623244	-8.703500E+01	  0.031623244	5.500000E-01	  0.031623244	-5.265300E+01
60	  0.031823646	-8.800000E-02	  0.031823646	-8.753700E+01	  0.031823646	5.340000E-01	  0.031823646	-5.219300E+01
61	  0.032024048	-8.600000E-02	  0.032024048	-8.801200E+01	  0.032024048	5.140000E-01	  0.032024048	-5.176200E+01
62	  0.032224450	-8.800000E-02	  0.032224450	-8.847000E+01	  0.032224450	5.210000E-01	  0.032224450	-5.135000E+01
63	  0.032424849	-9.600000E-02	  0.032424849	-8.895400E+01	  0.032424849	5.680000E-01	  0.032424849	-5.091700E+01
64	  0.032625251	-1.060000E-01	  0.032625251	-8.945900E+01	  0.032625251	6.160000E-01	  0.032625251	-5.047000E+01
65	  0.032825653	-1.170000E-01	  0.032825653	-9.000300E+01	  0.032825653	6.780000E-01	  0.032825653	-4.999200E+01
66	  0.033026051	-1.260000E-01	  0.033026051	-9.056500E+01	  0.033026051	7.180000E-01	  0.033026051	-4.950300E+01
67	  0.033226453	-1.320000E-01	  0.033226453	-9.114800E+01	  0.033226453	7.490000E-01	  0.033226453	-4.900100E+01
68	  0.033426855	-1.340000E-01	  0.033426855	-9.178500E+01	  0.033426855	7.530000E-01	  0.033426855	-4.845900E+01
69	  0.033627257	-1.400000E-01	  0.033627257	-9.241900E+01	  0.033627257	7.770000E-01	  0.033627257	-4.792600E+01
70	  0.033827655	-1.420000E-01	  0.033827655	-9.303100E+01	  0.033827655	7.770000E-01	  0.033827655	-4.741600E+01
71	  0.034028057	-1.350000E-01	  0.034028057	-9.364600E+01	  0.034028057	7.330000E-01	  0.034028057	-4.691000E+01
72	  0.034228459	-1.280000E-01	  0.034228459	-9.421800E+01	  0.034228459	6.870000E-01	  0.034228459	-4.644300E+01
73	  0.034428857	-1.170000E-01	  0.034428857	-9.477500E+01	  0.034428857	6.250000E-01	  0.034428857	-4.599300E+01
74	  0.034629259	-1.030000E-01	  0.034629259	-9.527300E+01	  0.034629259	5.430000E-01	  0.034629259	-4.559400E+01
75	  0.034829661	-9.700000E-02	  0.034829661	-9.575200E+01	  0.034829661	5.080000E-01	  0.034829661	-4.521300E+01
76	  0.035030060	-9.300000E-02	  0.035030060	-9.619500E+01	  0.035030060	4.860000E-01	  0.035030060	-4.486300E+01
77	  0.035230462	-8.800000E-02	  0.035230462	-9.663900E+01	  0.035230462	4.590000E-01	  0.035230462	-4.451500E+01
78	  0.035430863	-9.200000E-02	  0.035430863	-9.705500E+01	  0.035430863	4.720000E-01	  0.035430863	-4.419000E+01
79	  0.035631265	-9.800000E-02	  0.035631265	-9.749500E+01	  0.035631265	5.030000E-01	  0.035631265	-4.384900E+01
80	  0.035831664	-1.090000E-01	  0.035831664	-9.796000E+01	  0.035831664	5.540000E-01	  0.035831664	-4.349100E+01
81	  0.036032066	-1.170000E-01	  0.036032066	-9.846800E+01	  0.036032066	5.880000E-01	  0.036032066	-4.310300E+01
82	  0.036232468	-1.260000E-01	  0.036232468	-9.898800E+01	  0.036232468	6.270000E-01	  0.036232468	-4.270900E+01
83	  0.036432866	-1.310000E-01	  0.036432866	-9.952900E+01	  0.036432866	6.490000E-01	  0.036432866	-4.230100E+01
84	  0.036633268	-1.360000E-01	  0.036633268	-1.000830E+02	  0.036633268	6.660000E-01	  0.036633268	-4.188800E+01
85	  0.036833670	-1.370000E-01	  0.036833670	-1.005860E+02	  0.036833670	6.670000E-01	  0.036833670	-4.151600E+01
86	  0.037034072	-1.320000E-01	  0.037034072	-1.011220E+02	  0.037034072	6.400000E-01	  0.037034072	-4.112300E+01
87	  0.037234470	-1.220000E-01	  0.037234470	-1.016020E+02	  0.037234470	5.860000E-01	  0.037234470	-4.077400E+01
88	  0.037434869	-1.130000E-01	  0.037434869	-1.020630E+02	  0.037434869	5.390000E-01	  0.037434869	-4.044000E+01
89	  0.037635271	-1.090000E-01	  0.037635271	-1.024860E+02	  0.037635271	5.190000E-01	  0.037635271	-4.013600E+01
90	  0.037835669	-1.130000E-01	  0.037835669	-1.029320E+02	  0.037835669	5.310000E-01	  0.037835669	-3.981700E+01
91	  0.038036071	-1.200000E-01	  0.038036071	-1.034050E+02	  0.038036071	5.620000E-01	  0.038036071	-3.948000E+01
92	  0.038236473	-1.270000E-01	  0.038236473	-1.039060E+02	  0.038236473	5.930000E-01	  0.038236473	-3.912600E+01
93	  0.038436871	-1.360000E-01	  0.038436871	-1.044010E+02	  0.038436871	6.280000E-01	  0.038436871	-3.877800E+01
94	  0.038637273	-1.440000E-01	  0.038637273	-1.049350E+02	  0.038637273	6.600000E-01	  0.038637273	-3.840600E+01
95	  0.038837675	-1.520000E-01	  0.038837675	-1.054850E+02	  0.038837675	6.940000E-01	  0.038837675	-3.802500E+01
96	  0.039038073	-1.610000E-01	  0.039038073	-1.060670E+02	  0.039038073	7.290000E-01	  0.039038073	-3.762600E+01
97	  0.039238475	-1.660000E-01	  0.039238475	-1.066490E+02	  0.039238475	7.440000E-01	  0.039238475	-3.723000E+01
98	  0.039438877	-1.680000E-01	  0.039438877	-1.072060E+02	  0.039438877	7.480000E-01	  0.039438877	-3.685300E+01
99	  0.039639279	-1.650000E-01	  0.039639279	-1.077630E+02	  0.039639279	7.290000E-01	  0.039639279	-3.647900E+01
100	  0.039839678	-1.570000E-01	  0.039839678	-1.083100E+02	  0.039839678	6.900000E-01	  0.039839678	-3.611500E+01
101	  0.040040080	-1.500000E-01	  0.040040080	-1.088180E+02	  0.040040080	6.560000E-01	  0.040040080	-3.578000E+01
102	  0.040240481	-1.440000E-01	  0.040240481	-1.092970E+02	  0.040240481	6.260000E-01	  0.040240481	-3.546500E+01
103	  0.040440880	-1.390000E-01	  0.040440880	-1.097630E+02	  0.040440880	5.980000E-01	  0.040440880	-3.516100E+01
104	  0.040641282	-1.350000E-01	  0.040641282	-1.102250E+02	  0.040641282	5.790000E-01	  0.040641282	-3.486000E+01
105	  0.040841684	-1.350000E-01	  0.040841684	-1.106690E+02	  0.040841684	5.750000E-01	  0.040841684	-3.457300E+01
106	  0.041042086	-1.390000E-01	  0.041042086	-1.111110E+02	  0.041042086	5.890000E-01	  0.041042086	-3.428900E+01
107	  0.041242484	-1.470000E-01	  0.041242484	-1.115540E+02	  0.041242484	6.200000E-01	  0.041242484	-3.400500E+01
108	  0.041442886	-1.590000E-01	  0.041442886	-1.120110E+02	  0.041442886	6.660000E-01	  0.041442886	-3.371400E+01
109	  0.041643288	-1.690000E-01	  0.041643288	-1.125280E+02	  0.041643288	7.040000E-01	  0.041643288	-3.338600E+01
110	  0.041843686	-1.760000E-01	  0.041843686	-1.130370E+02	  0.041843686	7.300000E-01	  0.041843686	-3.306500E+01
111	  0.042044088	-1.770000E-01	  0.042044088	-1.135670E+02	  0.042044088	7.300000E-01	  0.042044088	-3.273400E+01
112	  0.042244490	-1.740000E-01	  0.042244490	-1.140990E+02	  0.042244490	7.140000E-01	  0.042244490	-3.240400E+01
113	  0.042444889	-1.630000E-01	  0.042444889	-1.146300E+02	  0.042444889	6.630000E-01	  0.042444889	-3.207600E+01
114	  0.042645290	-1.540000E-01	  0.042645290	-1.150820E+02	  0.042645290	6.250000E-01	  0.042645290	-3.179900E+01
115	  0.042845692	-1.470000E-01	  0.042845692	-1.155340E+02	  0.042845692	5.930000E-01	  0.042845692	-3.152300E+01
116	  0.043046094	-1.470000E-01	  0.043046094	-1.159800E+02	  0.043046094	5.910000E-01	  0.043046094	-3.125100E+01
117	  0.043246493	-1.500000E-01	  0.043246493	-1.164550E+02	  0.043246493	5.980000E-01	  0.043246493	-3.096400E+01
118	  0.043446895	-1.540000E-01	  0.043446895	-1.169140E+02	  0.043446895	6.120000E-01	  0.043446895	-3.068800E+01
119	  0.043647297	-1.620000E-01	  0.043647297	-1.173890E+02	  0.043647297	6.380000E-01	  0.043647297	-3.040300E+01
120	  0.043847695	-1.660000E-01	  0.043847695	-1.178610E+02	  0.043847695	6.520000E-01	  0.043847695	-3.012100E+01
121	  0.044048097	-1.740000E-01	  0.044048097	-1.183650E+02	  0.044048097	6.790000E-01	  0.044048097	-2.982200E+01
122	  0.044248499	-1.810000E-01	  0.044248499	-1.188790E+02	  0.044248499	7.020000E-01	  0.044248499	-2.951800E+01
123	  0.044448901	-1.880000E-01	  0.044448901	-1.194210E+02	  0.044448901	7.290000E-01	  0.044448901	-2.920000E+01
124	  0.044649299	-1.930000E-01	  0.044649299	-1.199540E+02	  0.044649299	7.410000E-01	  0.044649299	-2.888800E+01
125	  0.044849701	-1.900000E-01	  0.044849701	-1.204890E+02	  0.044849701	7.270000E-01	  0.044849701	-2.857800E+01
126	  0.045050103	-1.860000E-01	  0.045050103	-1.209880E+02	  0.045050103	7.090000E-01	  0.045050103	-2.829000E+01
127	  0.045250501	-1.860000E-01	  0.045250501	-1.214970E+02	  0.045250501	7.040000E-01	  0.045250501	-2.799800E+01
128	  0.045450903	-1.810000E-01	  0.045450903	-1.219900E+02	  0.045450903	6.810000E-01	  0.045450903	-2.771700E+01
129	  0.045651305	-1.780000E-01	  0.045651305	-1.224870E+02	  0.045651305	6.660000E-01	  0.045651305	-2.743400E+01
130	  0.045851704	-1.770000E-01	  0.045851704	-1.229790E+02	  0.045851704	6.590000E-01	  0.045851704	-2.715500E+01
131	  0.046052106	-1.730000E-01	  0.046052106	-1.234570E+02	  0.046052106	6.420000E-01	  0.046052106	-2.688600E+01
132	  0.046252504	-1.740000E-01	  0.046252504	-1.239070E+02	  0.046252504	6.450000E-01	  0.046252504	-2.663300E+01
133	  0.046452906	-1.760000E-01	  0.046452906	-1.243180E+02	  0.046452906	6.480000E-01	  0.046452906	-2.640400E+01
134	  0.046653304	-1.850000E-01	  0.046653304	-1.247550E+02	  0.046653304	6.800000E-01	  0.046653304	-2.616000E+01
135	  0.046853706	-1.990000E-01	  0.046853706	-1.252170E+02	  0.046853706	7.280000E-01	  0.046853706	-2.590300E+01
136	  0.047054108	-2.070000E-01	  0.047054108	-1.257270E+02	  0.047054108	7.550000E-01	  0.047054108	-2.562100E+01
137	  0.047254506	-2.110000E-01	  0.047254506	-1.262400E+02	  0.047254506	7.650000E-01	  0.047254506	-2.533900E+01
138	  0.047454908	-2.080000E-01	  0.047454908	-1.267440E+02	  0.047454908	7.510000E-01	  0.047454908	-2.506400E+01
139	  0.047655310	-2.000000E-01	  0.047655310	-1.272360E+02	  0.047655310	7.170000E-01	  0.047655310	-2.479600E+01
140	  0.047855709	-1.930000E-01	  0.047855709	-1.277010E+02	  0.047855709	6.900000E-01	  0.047855709	-2.454400E+01
141	  0.048056111	-1.880000E-01	  0.048056111	-1.281440E+02	  0.048056111	6.700000E-01	  0.048056111	-2.430400E+01
142	  0.048256513	-1.860000E-01	  0.048256513	-1.286050E+02	  0.048256513	6.610000E-01	  0.048256513	-2.405700E+01
143	  0.048456915	-1.890000E-01	  0.048456915	-1.290620E+02	  0.048456915	6.700000E-01	  0.048456915	-2.381100E+01
144	  0.048657313	-1.910000E-01	  0.048657313	-1.294890E+02	  0.048657313	6.740000E-01	  0.048657313	-2.358300E+01
145	  0.048857715	-1.940000E-01	  0.048857715	-1.299350E+02	  0.048857715	6.820000E-01	  0.048857715	-2.334600E+01
146	  0.049058117	-1.990000E-01	  0.049058117	-1.303940E+02	  0.049058117	6.980000E-01	  0.049058117	-2.310200E+01
147	  0.049258515	-2.060000E-01	  0.049258515	-1.308560E+02	  0.049258515	7.190000E-01	  0.049258515	-2.285800E+01
148	  0.049458917	-2.140000E-01	  0.049458917	-1.313390E+02	  0.049458917	7.420000E-01	  0.049458917	-2.260300E+01
149	  0.049659319	-2.160000E-01	  0.049659319	-1.318450E+02	  0.049659319	7.480000E-01	  0.049659319	-2.233800E+01
150	  0.049859721	-2.180000E-01	  0.049859721	-1.323550E+02	  0.049859721	7.520000E-01	  0.049859721	-2.207100E+01
151	  0.050060119	-2.180000E-01	  0.050060119	-1.328300E+02	  0.050060119	7.470000E-01	  0.050060119	-2.182400E+01
152	  0.050260521	-2.200000E-01	  0.050260521	-1.333070E+02	  0.050260521	7.510000E-01	  0.050260521	-2.157600E+01
153	  0.050460923	-2.190000E-01	  0.050460923	-1.337870E+02	  0.050460923	7.450000E-01	  0.050460923	-2.132900E+01
154	  0.050661322	-2.190000E-01	  0.050661322	-1.342790E+02	  0.050661322	7.430000E-01	  0.050661322	-2.107600E+01
155	  0.050861724	-2.180000E-01	  0.050861724	-1.347700E+02	  0.050861724	7.390000E-01	  0.050861724	-2.082400E+01
156	  0.051062126	-2.160000E-01	  0.051062126	-1.352700E+02	  0.051062126	7.270000E-01	  0.051062126	-2.056800E+01
157	  0.051262524	-2.130000E-01	  0.051262524	-1.357500E+02	  0.051262524	7.150000E-01	  0.051262524	-2.032400E+01
158	  0.051462926	-2.110000E-01	  0.051462926	-1.361930E+02	  0.051462926	7.080000E-01	  0.051462926	-2.009900E+01
159	  0.051663328	-2.100000E-01	  0.051663328	-1.366280E+02	  0.051663328	7.020000E-01	  0.051663328	-1.987900E+01
160	  0.051863730	-2.180000E-01	  0.051863730	-1.370390E+02	  0.051863730	7.250000E-01	  0.051863730	-1.967200E+01
161	  0.052064128	-2.250000E-01	  0.052064128	-1.375000E+02	  0.052064128	7.470000E-01	  0.052064128	-1.944000E+01
162	  0.052264530	-2.310000E-01	  0.052264530	-1.379790E+02	  0.052264530	7.650000E-01	  0.052264530	-1.919900E+01
163	  0.052464932	-2.350000E-01	  0.052464932	-1.384760E+02	  0.052464932	7.740000E-01	  0.052464932	-1.895000E+01
164	  0.052665330	-2.330000E-01	  0.052665330	-1.389750E+02	  0.052665330	7.660000E-01	  0.052665330	-1.870200E+01
165	  0.052865732	-2.300000E-01	  0.052865732	-1.394580E+02	  0.052865732	7.540000E-01	  0.052865732	-1.846200E+01
166	  0.053066134	-2.230000E-01	  0.053066134	-1.399340E+02	  0.053066134	7.290000E-01	  0.053066134	-1.822700E+01
167	  0.053266536	-2.200000E-01	  0.053266536	-1.403860E+02	  0.053266536	7.170000E-01	  0.053266536	-1.800400E+01
168	  0.053466935	-2.200000E-01	  0.053466935	-1.408400E+02	  0.053466935	7.140000E-01	  0.053466935	-1.778100E+01
169	  0.053667337	-2.190000E-01	  0.053667337	-1.412750E+02	  0.053667337	7.080000E-01	  0.053667337	-1.756700E+01
170	  0.053867739	-2.180000E-01	  0.053867739	-1.417180E+02	  0.053867739	7.060000E-01	  0.053867739	-1.735000E+01
171	  0.054068137	-2.200000E-01	  0.054068137	-1.421460E+02	  0.054068137	7.090000E-01	  0.054068137	-1.714100E+01
172	  0.054268539	-2.250000E-01	  0.054268539	-1.425600E+02	  0.054268539	7.230000E-01	  0.054268539	-1.694000E+01
173	  0.054468941	-2.310000E-01	  0.054468941	-1.430100E+02	  0.054468941	7.410000E-01	  0.054468941	-1.672100E+01
174	  0.054669339	-2.360000E-01	  0.054669339	-1.434680E+02	  0.054669339	7.540000E-01	  0.054669339	-1.649900E+01
175	  0.054869737	-2.380000E-01	  0.054869737	-1.439350E+02	  0.054869737	7.600000E-01	  0.054869737	-1.627300E+01
176	  0.055070139	-2.370000E-01	  0.055070139	-1.443960E+02	  0.055070139	7.550000E-01	  0.055070139	-1.605100E+01
177	  0.055270538	-2.390000E-01	  0.055270538	-1.448330E+02	  0.055270538	7.590000E-01	  0.055270538	-1.584100E+01
178	  0.055470940	-2.410000E-01	  0.055470940	-1.452810E+02	  0.055470940	7.620000E-01	  0.055470940	-1.562600E+01
179	  0.055671342	-2.440000E-01	  0.055671342	-1.457420E+02	  0.055671342	7.710000E-01	  0.055671342	-1.540500E+01
180	  0.055871744	-2.460000E-01	  0.055871744	-1.462000E+02	  0.055871744	7.750000E-01	  0.055871744	-1.518700E+01
181	  0.056072142	-2.460000E-01	  0.056072142	-1.466690E+02	  0.056072142	7.730000E-01	  0.056072142	-1.496400E+01
182	  0.056272544	-2.470000E-01	  0.056272544	-1.471630E+02	  0.056272544	7.730000E-01	  0.056272544	-1.473000E+01
183	  0.056472946	-2.460000E-01	  0.056472946	-1.476090E+02	  0.056472946	7.670000E-01	  0.056472946	-1.451800E+01
184	  0.056673344	-2.440000E-01	  0.056673344	-1.480740E+02	  0.056673344	7.600000E-01	  0.056673344	-1.429800E+01
185	  0.056873746	-2.450000E-01	  0.056873746	-1.484970E+02	  0.056873746	7.620000E-01	  0.056873746	-1.409900E+01
186	  0.057074148	-2.460000E-01	  0.057074148	-1.489380E+02	  0.057074148	7.640000E-01	  0.057074148	-1.389200E+01
187	  0.057274550	-2.510000E-01	  0.057274550	-1.493830E+02	  0.057274550	7.780000E-01	  0.057274550	-1.368300E+01
188	  0.057474948	-2.540000E-01	  0.057474948	-1.498220E+02	  0.057474948	7.850000E-01	  0.057474948	-1.347700E+01
189	  0.057675350	-2.590000E-01	  0.057675350	-1.502960E+02	  0.057675350	8.000000E-01	  0.057675350	-1.325500E+01
190	  0.057875752	-2.590000E-01	  0.057875752	-1.507650E+02	  0.057875752	7.980000E-01	  0.057875752	-1.303700E+01
191	  0.058076151	-2.600000E-01	  0.058076151	-1.512340E+02	  0.058076151	7.970000E-01	  0.058076151	-1.281800E+01
192	  0.058276553	-2.560000E-01	  0.058276553	-1.517050E+02	  0.058276553	7.840000E-01	  0.058276553	-1.260000E+01
193	  0.058476955	-2.530000E-01	  0.058476955	-1.521570E+02	  0.058476955	7.740000E-01	  0.058476955	-1.239000E+01
194	  0.058677353	-2.510000E-01	  0.058677353	-1.526170E+02	  0.058677353	7.680000E-01	  0.058677353	-1.217700E+01
195	  0.058877755	-2.500000E-01	  0.058877755	-1.530530E+02	  0.058877755	7.610000E-01	  0.058877755	-1.197600E+01
196	  0.059078157	-2.480000E-01	  0.059078157	-1.534590E+02	  0.059078157	7.540000E-01	  0.059078157	-1.178900E+01
197	  0.059278559	-2.500000E-01	  0.059278559	-1.538880E+02	  0.059278559	7.590000E-01	  0.059278559	-1.159200E+01
198	  0.059478957	-2.530000E-01	  0.059478957	-1.543060E+02	  0.059478957	7.680000E-01	  0.059478957	-1.140000E+01
199	  0.059679359	-2.570000E-01	  0.059679359	-1.547360E+02	  0.059679359	7.780000E-01	  0.059679359	-1.120200E+01
200	  0.059879761	-2.610000E-01	  0.059879761	-1.551830E+02	  0.059879761	7.900000E-01	  0.059879761	-1.099800E+01
201	  0.060080159	-2.630000E-01	  0.060080159	-1.556120E+02	  0.060080159	7.940000E-01	  0.060080159	-1.080100E+01
202	  0.060280561	-2.620000E-01	  0.060280561	-1.560430E+02	  0.060280561	7.890000E-01	  0.060280561	-1.060500E+01
203	  0.060480963	-2.630000E-01	  0.060480963	-1.564520E+02	  0.060480963	7.900000E-01	  0.060480963	-1.041900E+01
204	  0.060681365	-2.670000E-01	  0.060681365	-1.568900E+02	  0.060681365	8.010000E-01	  0.060681365	-1.021900E+01
205	  0.060881764	-2.690000E-01	  0.060881764	-1.573090E+02	  0.060881764	8.070000E-01	  0.060881764	-1.002900E+01
206	  0.061082166	-2.720000E-01	  0.061082166	-1.577600E+02	  0.061082166	8.150000E-01	  0.061082166	-9.825000E+00
207	  0.061282568	-2.740000E-01	  0.061282568	-1.582110E+02	  0.061282568	8.200000E-01	  0.061282568	-9.620000E+00
208	  0.061482966	-2.750000E-01	  0.061482966	-1.586690E+02	  0.061482966	8.220000E-01	  0.061482966	-9.413000E+00
209	  0.061683368	-2.750000E-01	  0.061683368	-1.591210E+02	  0.061683368	8.200000E-01	  0.061683368	-9.209000E+00
210	  0.061883770	-2.750000E-01	  0.061883770	-1.595620E+02	  0.061883770	8.170000E-01	  0.061883770	-9.010000E+00
211	  0.062084168	-2.760000E-01	  0.062084168	-1.600040E+02	  0.062084168	8.190000E-01	  0.062084168	-8.811000E+00
212	  0.062284570	-2.770000E-01	  0.062284570	-1.604400E+02	  0.062284570	8.210000E-01	  0.062284570	-8.616000E+00
213	  0.062484972	-2.790000E-01	  0.062484972	-1.608630E+02	  0.062484972	8.260000E-01	  0.062484972	-8.426000E+00
214	  0.062685370	-2.780000E-01	  0.062685370	-1.612920E+02	  0.062685370	8.220000E-01	  0.062685370	-8.233000E+00
215	  0.062885776	-2.810000E-01	  0.062885776	-1.617350E+02	  0.062885776	8.320000E-01	  0.062885776	-8.035000E+00
216	  0.063086174	-2.850000E-01	  0.063086174	-1.621830E+02	  0.063086174	8.420000E-01	  0.063086174	-7.834000E+00
217	  0.063286573	-2.840000E-01	  0.063286573	-1.626340E+02	  0.063286573	8.370000E-01	  0.063286573	-7.633000E+00
218	  0.063486971	-2.860000E-01	  0.063486971	-1.630870E+02	  0.063486971	8.410000E-01	  0.063486971	-7.431000E+00
219	  0.063687377	-2.820000E-01	  0.063687377	-1.635340E+02	  0.063687377	8.290000E-01	  0.063687377	-7.232000E+00
220	  0.063887775	-2.760000E-01	  0.063887775	-1.639640E+02	  0.063887775	8.110000E-01	  0.063887775	-7.040000E+00
221	  0.064088173	-2.750000E-01	  0.064088173	-1.643760E+02	  0.064088173	8.090000E-01	  0.064088173	-6.857000E+00
222	  0.064288579	-2.760000E-01	  0.064288579	-1.647880E+02	  0.064288579	8.100000E-01	  0.064288579	-6.674000E+00
223	  0.064488977	-2.770000E-01	  0.064488977	-1.652000E+02	  0.064488977	8.110000E-01	  0.064488977	-6.492000E+00
224	  0.064689375	-2.770000E-01	  0.064689375	-1.656340E+02	  0.064689375	8.120000E-01	  0.064689375	-6.299000E+00
225	  0.064889781	-2.780000E-01	  0.064889781	-1.660220E+02	  0.064889781	8.140000E-01	  0.064889781	-6.127000E+00
226	  0.065090179	-2.800000E-01	  0.065090179	-1.664450E+02	  0.065090179	8.180000E-01	  0.065090179	-5.940000E+00
227	  0.065290578	-2.820000E-01	  0.065290578	-1.668410E+02	  0.065290578	8.230000E-01	  0.065290578	-5.765000E+00
228	  0.065490983	-2.810000E-01	  0.065490983	-1.672560E+02	  0.065490983	8.210000E-01	  0.065490983	-5.581000E+00
229	  0.065691382	-2.850000E-01	  0.065691382	-1.676350E+02	  0.065691382	8.310000E-01	  0.065691382	-5.414000E+00
230	  0.065891780	-2.860000E-01	  0.065891780	-1.680530E+02	  0.065891780	8.340000E-01	  0.065891780	-5.230000E+00
231	  0.066092186	-2.890000E-01	  0.066092186	-1.684620E+02	  0.066092186	8.430000E-01	  0.066092186	-5.049000E+00
232	  0.066292584	-2.920000E-01	  0.066292584	-1.688670E+02	  0.066292584	8.500000E-01	  0.066292584	-4.871000E+00
233	  0.066492982	-2.920000E-01	  0.066492982	-1.693120E+02	  0.066492982	8.490000E-01	  0.066492982	-4.675000E+00
234	  0.066693388	-2.960000E-01	  0.066693388	-1.697250E+02	  0.066693388	8.600000E-01	  0.066693388	-4.493000E+00
235	  0.066893786	-2.990000E-01	  0.066893786	-1.701650E+02	  0.066893786	8.670000E-01	  0.066893786	-4.300000E+00
236	  0.067094192	-3.010000E-01	  0.067094192	-1.706030E+02	  0.067094192	8.720000E-01	  0.067094192	-4.107000E+00
237	  0.067294590	-3.030000E-01	  0.067294590	-1.710360E+02	  0.067294590	8.790000E-01	  0.067294590	-3.917000E+00
238	  0.067494988	-3.060000E-01	  0.067494988	-1.714820E+02	  0.067494988	8.880000E-01	  0.067494988	-3.722000E+00
239	  0.067695394	-3.030000E-01	  0.067695394	-1.719080E+02	  0.067695394	8.780000E-01	  0.067695394	-3.535000E+00
240	  0.067895792	-3.090000E-01	  0.067895792	-1.723200E+02	  0.067895792	8.940000E-01	  0.067895792	-3.354000E+00
241	  0.068096191	-3.090000E-01	  0.068096191	-1.727520E+02	  0.068096191	8.950000E-01	  0.068096191	-3.165000E+00
242	  0.068296596	-3.110000E-01	  0.068296596	-1.731970E+02	  0.068296596	9.000000E-01	  0.068296596	-2.970000E+00
243	  0.068496995	-3.110000E-01	  0.068496995	-1.736520E+02	  0.068496995	9.000000E-01	  0.068496995	-2.771000E+00
244	  0.068697393	-3.120000E-01	  0.068697393	-1.740880E+02	  0.068697393	9.010000E-01	  0.068697393	-2.580000E+00
245	  0.068897791	-3.090000E-01	  0.068897791	-1.745310E+02	  0.068897791	8.920000E-01	  0.068897791	-2.387000E+00
246	  0.069098189	-3.050000E-01	  0.069098189	-1.749690E+02	  0.069098189	8.810000E-01	  0.069098189	-2.195000E+00
247	  0.069298595	-3.050000E-01	  0.069298595	-1.753820E+02	  0.069298595	8.810000E-01	  0.069298595	-2.015000E+00
248	  0.069498993	-3.070000E-01	  0.069498993	-1.758020E+02	  0.069498993	8.860000E-01	  0.069498993	-1.831000E+00
249	  0.069699399	-3.070000E-01	  0.069699399	-1.762220E+02	  0.069699399	8.860000E-01	  0.069699399	-1.648000E+00
250	  0.069899797	-3.060000E-01	  0.069899797	-1.766550E+02	  0.069899797	8.810000E-01	  0.069899797	-1.459000E+00
251	  0.070100196	-3.060000E-01	  0.070100196	-1.770530E+02	  0.070100196	8.820000E-01	  0.070100196	-1.285000E+00
252	  0.070300601	-3.050000E-01	  0.070300601	-1.774540E+02	  0.070300601	8.790000E-01	  0.070300601	-1.110000E+00
253	  0.070501000	-3.070000E-01	  0.070501000	-1.778260E+02	  0.070501000	8.860000E-01	  0.070501000	-9.480000E-01
254	  0.070701398	-3.050000E-01	  0.070701398	-1.782300E+02	  0.070701398	8.790000E-01	  0.070701398	-7.710000E-01
255	  0.070901804	-3.070000E-01	  0.070901804	-1.786130E+02	  0.070901804	8.850000E-01	  0.070901804	-6.040000E-01
256	  0.071102202	-3.090000E-01	  0.071102202	-1.790000E+02	  0.071102202	8.910000E-01	  0.071102202	-4.360000E-01
257	  0.071302600	-3.090000E-01	  0.071302600	-1.794120E+02	  0.071302600	8.910000E-01	  0.071302600	-2.560000E-01
258	  0.071503006	-3.110000E-01	  0.071503006	-1.798040E+02	  0.071503006	8.950000E-01	  0.071503006	-8.500000E-02
259	  0.071703404	-3.100000E-01	  0.071703404	1.797970E+02	  0.071703404	8.940000E-01	  0.071703404	8.800000E-02
260	  0.071903802	-3.140000E-01	  0.071903802	1.793980E+02	  0.071903802	9.040000E-01	  0.071903802	2.620000E-01
261	  0.072104208	-3.160000E-01	  0.072104208	1.790020E+02	  0.072104208	9.090000E-01	  0.072104208	4.350000E-01
262	  0.072304606	-3.180000E-01	  0.072304606	1.785960E+02	  0.072304606	9.150000E-01	  0.072304606	6.120000E-01
263	  0.072505005	-3.210000E-01	  0.072505005	1.781910E+02	  0.072505005	9.240000E-01	  0.072505005	7.880000E-01
264	  0.072705410	-3.240000E-01	  0.072705410	1.777840E+02	  0.072705410	9.340000E-01	  0.072705410	9.660000E-01
265	  0.072905809	-3.230000E-01	  0.072905809	1.773630E+02	  0.072905809	9.300000E-01	  0.072905809	1.150000E+00
266	  0.073106214	-3.240000E-01	  0.073106214	1.769520E+02	  0.073106214	9.330000E-01	  0.073106214	1.329000E+00
267	  0.073306613	-3.270000E-01	  0.073306613	1.765550E+02	  0.073306613	9.440000E-01	  0.073306613	1.502000E+00
268	  0.073507011	-3.280000E-01	  0.073507011	1.760940E+02	  0.073507011	9.470000E-01	  0.073507011	1.704000E+00
269	  0.073707417	-3.300000E-01	  0.073707417	1.756800E+02	  0.073707417	9.520000E-01	  0.073707417	1.885000E+00
270	  0.073907815	-3.290000E-01	  0.073907815	1.752620E+02	  0.073907815	9.500000E-01	  0.073907815	2.067000E+00
271	  0.074108213	-3.280000E-01	  0.074108213	1.748460E+02	  0.074108213	9.460000E-01	  0.074108213	2.249000E+00
272	  0.074308619	-3.290000E-01	  0.074308619	1.744380E+02	  0.074308619	9.490000E-01	  0.074308619	2.427000E+00
273	  0.074509017	-3.250000E-01	  0.074509017	1.740260E+02	  0.074509017	9.390000E-01	  0.074509017	2.607000E+00
274	  0.074709415	-3.300000E-01	  0.074709415	1.736160E+02	  0.074709415	9.540000E-01	  0.074709415	2.787000E+00
275	  0.074909821	-3.300000E-01	  0.074909821	1.731860E+02	  0.074909821	9.550000E-01	  0.074909821	2.975000E+00
276	  0.075110219	-3.330000E-01	  0.075110219	1.727750E+02	  0.075110219	9.640000E-01	  0.075110219	3.155000E+00
277	  0.075310618	-3.310000E-01	  0.075310618	1.723640E+02	  0.075310618	9.580000E-01	  0.075310618	3.335000E+00
278	  0.075511023	-3.320000E-01	  0.075511023	1.719840E+02	  0.075511023	9.610000E-01	  0.075511023	3.501000E+00
279	  0.075711422	-3.320000E-01	  0.075711422	1.715860E+02	  0.075711422	9.610000E-01	  0.075711422	3.676000E+00
280	  0.075911827	-3.320000E-01	  0.075911827	1.711980E+02	  0.075911827	9.620000E-01	  0.075911827	3.846000E+00
281	  0.076112226	-3.310000E-01	  0.076112226	1.708160E+02	  0.076112226	9.590000E-01	  0.076112226	4.014000E+00
282	  0.076312624	-3.320000E-01	  0.076312624	1.704250E+02	  0.076312624	9.640000E-01	  0.076312624	4.185000E+00
283	  0.076513030	-3.310000E-01	  0.076513030	1.700340E+02	  0.076513030	9.610000E-01	  0.076513030	4.357000E+00
284	  0.076713428	-3.290000E-01	  0.076713428	1.696600E+02	  0.076713428	9.560000E-01	  0.076713428	4.521000E+00
285	  0.076913826	-3.310000E-01	  0.076913826	1.692440E+02	  0.076913826	9.630000E-01	  0.076913826	4.704000E+00
286	  0.077114232	-3.310000E-01	  0.077114232	1.688760E+02	  0.077114232	9.640000E-01	  0.077114232	4.867000E+00
287	  0.077314630	-3.290000E-01	  0.077314630	1.684850E+02	  0.077314630	9.580000E-01	  0.077314630	5.039000E+00
288	  0.077515028	-3.330000E-01	  0.077515028	1.680940E+02	  0.077515028	9.690000E-01	  0.077515028	5.211000E+00
289	  0.077715434	-3.340000E-01	  0.077715434	1.677200E+02	  0.077715434	9.740000E-01	  0.077715434	5.376000E+00
290	  0.077915832	-3.330000E-01	  0.077915832	1.673340E+02	  0.077915832	9.720000E-01	  0.077915832	5.547000E+00
291	  0.078116231	-3.350000E-01	  0.078116231	1.669830E+02	  0.078116231	9.780000E-01	  0.078116231	5.701000E+00
292	  0.078316636	-3.380000E-01	  0.078316636	1.665810E+02	  0.078316636	9.870000E-01	  0.078316636	5.879000E+00
293	  0.078517035	-3.400000E-01	  0.078517035	1.661540E+02	  0.078517035	9.940000E-01	  0.078517035	6.068000E+00
294	  0.078717433	-3.410000E-01	  0.078717433	1.657450E+02	  0.078717433	9.970000E-01	  0.078717433	6.249000E+00
295	  0.078917839	-3.410000E-01	  0.078917839	1.653490E+02	  0.078917839	9.990000E-01	  0.078917839	6.425000E+00
296	  0.079118237	-3.400000E-01	  0.079118237	1.649270E+02	  0.079118237	9.960000E-01	  0.079118237	6.612000E+00
297	  0.079318643	-3.410000E-01	  0.079318643	1.645610E+02	  0.079318643	1.000000E+00	  0.079318643	6.774000E+00
298	  0.079519041	-3.380000E-01	  0.079519041	1.641690E+02	  0.079519041	9.920000E-01	  0.079519041	6.948000E+00
299	  0.079719439	-3.410000E-01	  0.079719439	1.637680E+02	  0.079719439	1.003000E+00	  0.079719439	7.127000E+00
300	  0.079919845	-3.430000E-01	  0.079919845	1.633720E+02	  0.079919845	1.010000E+00	  0.079919845	7.303000E+00
301	  0.080120243	-3.480000E-01	  0.080120243	1.629560E+02	  0.080120243	1.026000E+00	  0.080120243	7.489000E+00
302	  0.080320641	-3.460000E-01	  0.080320641	1.625510E+02	  0.080320641	1.020000E+00	  0.080320641	7.669000E+00
303	  0.080521047	-3.480000E-01	  0.080521047	1.621720E+02	  0.080521047	1.026000E+00	  0.080521047	7.838000E+00
304	  0.080721445	-3.490000E-01	  0.080721445	1.617840E+02	  0.080721445	1.032000E+00	  0.080721445	8.012000E+00
305	  0.080921844	-3.520000E-01	  0.080921844	1.614000E+02	  0.080921844	1.040000E+00	  0.080921844	8.183000E+00
306	  0.081122249	-3.510000E-01	  0.081122249	1.610070E+02	  0.081122249	1.041000E+00	  0.081122249	8.360000E+00
307	  0.081322648	-3.510000E-01	  0.081322648	1.606250E+02	  0.081322648	1.041000E+00	  0.081322648	8.531000E+00
308	  0.081523046	-3.500000E-01	  0.081523046	1.602420E+02	  0.081523046	1.037000E+00	  0.081523046	8.703000E+00
309	  0.081723452	-3.500000E-01	  0.081723452	1.598430E+02	  0.081723452	1.040000E+00	  0.081723452	8.882000E+00
310	  0.081923850	-3.510000E-01	  0.081923850	1.594650E+02	  0.081923850	1.043000E+00	  0.081923850	9.053000E+00
311	  0.082124248	-3.490000E-01	  0.082124248	1.590880E+02	  0.082124248	1.039000E+00	  0.082124248	9.222000E+00
312	  0.082324654	-3.470000E-01	  0.082324654	1.587100E+02	  0.082324654	1.035000E+00	  0.082324654	9.393000E+00
313	  0.082525052	-3.470000E-01	  0.082525052	1.583260E+02	  0.082525052	1.036000E+00	  0.082525052	9.567000E+00
314	  0.082725458	-3.460000E-01	  0.082725458	1.579730E+02	  0.082725458	1.035000E+00	  0.082725458	9.727000E+00
315	  0.082925856	-3.450000E-01	  0.082925856	1.576110E+02	  0.082925856	1.034000E+00	  0.082925856	9.890000E+00
316	  0.083126254	-3.470000E-01	  0.083126254	1.572710E+02	  0.083126254	1.039000E+00	  0.083126254	1.004500E+01
317	  0.083326660	-3.490000E-01	  0.083326660	1.569040E+02	  0.083326660	1.047000E+00	  0.083326660	1.021100E+01
318	  0.083527058	-3.500000E-01	  0.083527058	1.565460E+02	  0.083527058	1.052000E+00	  0.083527058	1.037400E+01
319	  0.083727457	-3.530000E-01	  0.083727457	1.561410E+02	  0.083727457	1.062000E+00	  0.083727457	1.055800E+01
320	  0.083927862	-3.540000E-01	  0.083927862	1.557560E+02	  0.083927862	1.066000E+00	  0.083927862	1.073400E+01
321	  0.084128261	-3.540000E-01	  0.084128261	1.553490E+02	  0.084128261	1.067000E+00	  0.084128261	1.092000E+01
322	  0.084328659	-3.540000E-01	  0.084328659	1.549920E+02	  0.084328659	1.068000E+00	  0.084328659	1.108300E+01
323	  0.084529065	-3.530000E-01	  0.084529065	1.546160E+02	  0.084529065	1.069000E+00	  0.084529065	1.125500E+01
324	  0.084729463	-3.550000E-01	  0.084729463	1.542520E+02	  0.084729463	1.076000E+00	  0.084729463	1.142200E+01
325	  0.084929861	-3.550000E-01	  0.084929861	1.538630E+02	  0.084929861	1.077000E+00	  0.084929861	1.160000E+01
326	  0.085130267	-3.590000E-01	  0.085130267	1.534800E+02	  0.085130267	1.093000E+00	  0.085130267	1.177600E+01
327	  0.085330658	-3.610000E-01	  0.085330658	1.530800E+02	  0.085330658	1.099000E+00	  0.085330658	1.196100E+01
328	  0.085531056	-3.600000E-01	  0.085531056	1.527060E+02	  0.085531056	1.099000E+00	  0.085531056	1.213400E+01
329	  0.085731462	-3.650000E-01	  0.085731462	1.523190E+02	  0.085731462	1.115000E+00	  0.085731462	1.231200E+01
330	  0.085931860	-3.700000E-01	  0.085931860	1.519270E+02	  0.085931860	1.132000E+00	  0.085931860	1.249300E+01
331	  0.086132258	-3.690000E-01	  0.086132258	1.515310E+02	  0.086132258	1.132000E+00	  0.086132258	1.267700E+01
332	  0.086332664	-3.720000E-01	  0.086332664	1.511570E+02	  0.086332664	1.144000E+00	  0.086332664	1.285100E+01
333	  0.086533062	-3.710000E-01	  0.086533062	1.507610E+02	  0.086533062	1.143000E+00	  0.086533062	1.303500E+01
334	  0.086733460	-3.660000E-01	  0.086733460	1.503390E+02	  0.086733460	1.129000E+00	  0.086733460	1.323200E+01
335	  0.086933866	-3.680000E-01	  0.086933866	1.499730E+02	  0.086933866	1.137000E+00	  0.086933866	1.340300E+01
336	  0.087134264	-3.700000E-01	  0.087134264	1.495470E+02	  0.087134264	1.144000E+00	  0.087134264	1.360200E+01
337	  0.087334670	-3.700000E-01	  0.087334670	1.491750E+02	  0.087334670	1.146000E+00	  0.087334670	1.377700E+01
338	  0.087535068	-3.640000E-01	  0.087535068	1.487870E+02	  0.087535068	1.130000E+00	  0.087535068	1.395900E+01
339	  0.087735467	-3.650000E-01	  0.087735467	1.484190E+02	  0.087735467	1.136000E+00	  0.087735467	1.413200E+01
340	  0.087935872	-3.600000E-01	  0.087935872	1.480480E+02	  0.087935872	1.121000E+00	  0.087935872	1.430700E+01
341	  0.088136271	-3.590000E-01	  0.088136271	1.477030E+02	  0.088136271	1.120000E+00	  0.088136271	1.447000E+01
342	  0.088336669	-3.560000E-01	  0.088336669	1.473480E+02	  0.088336669	1.114000E+00	  0.088336669	1.463800E+01
343	  0.088537075	-3.570000E-01	  0.088537075	1.470000E+02	  0.088537075	1.120000E+00	  0.088537075	1.480300E+01
344	  0.088737473	-3.580000E-01	  0.088737473	1.466440E+02	  0.088737473	1.125000E+00	  0.088737473	1.497200E+01
345	  0.088937871	-3.580000E-01	  0.088937871	1.462810E+02	  0.088937871	1.125000E+00	  0.088937871	1.514500E+01
346	  0.089138277	-3.590000E-01	  0.089138277	1.459220E+02	  0.089138277	1.130000E+00	  0.089138277	1.531600E+01
347	  0.089338675	-3.560000E-01	  0.089338675	1.455490E+02	  0.089338675	1.124000E+00	  0.089338675	1.549400E+01
348	  0.089539073	-3.570000E-01	  0.089539073	1.452130E+02	  0.089539073	1.129000E+00	  0.089539073	1.565500E+01
349	  0.089739479	-3.540000E-01	  0.089739479	1.448570E+02	  0.089739479	1.122000E+00	  0.089739479	1.582500E+01
350	  0.089939877	-3.600000E-01	  0.089939877	1.445040E+02	  0.089939877	1.142000E+00	  0.089939877	1.599500E+01
351	  0.090140276	-3.580000E-01	  0.090140276	1.441410E+02	  0.090140276	1.140000E+00	  0.090140276	1.617000E+01
352	  0.090340681	-3.580000E-01	  0.090340681	1.437820E+02	  0.090340681	1.143000E+00	  0.090340681	1.634300E+01
353	  0.090541080	-3.620000E-01	  0.090541080	1.434290E+02	  0.090541080	1.155000E+00	  0.090541080	1.651300E+01
354	  0.090741485	-3.590000E-01	  0.090741485	1.430610E+02	  0.090741485	1.150000E+00	  0.090741485	1.669200E+01
355	  0.090941884	-3.640000E-01	  0.090941884	1.427170E+02	  0.090941884	1.169000E+00	  0.090941884	1.685800E+01
356	  0.091142282	-3.660000E-01	  0.091142282	1.423620E+02	  0.091142282	1.177000E+00	  0.091142282	1.703100E+01
357	  0.091342688	-3.720000E-01	  0.091342688	1.419870E+02	  0.091342688	1.198000E+00	  0.091342688	1.721300E+01
358	  0.091543086	-3.710000E-01	  0.091543086	1.416220E+02	  0.091543086	1.199000E+00	  0.091543086	1.739200E+01
359	  0.091743484	-3.760000E-01	  0.091743484	1.412240E+02	  0.091743484	1.216000E+00	  0.091743484	1.758600E+01
360	  0.091943890	-3.730000E-01	  0.091943890	1.408280E+02	  0.091943890	1.210000E+00	  0.091943890	1.778000E+01
361	  0.092144288	-3.770000E-01	  0.092144288	1.404340E+02	  0.092144288	1.226000E+00	  0.092144288	1.797400E+01
362	  0.092344686	-3.770000E-01	  0.092344686	1.400470E+02	  0.092344686	1.228000E+00	  0.092344686	1.816500E+01
363	  0.092545092	-3.770000E-01	  0.092545092	1.396510E+02	  0.092545092	1.233000E+00	  0.092545092	1.836100E+01
364	  0.092745490	-3.780000E-01	  0.092745490	1.392650E+02	  0.092745490	1.240000E+00	  0.092745490	1.855200E+01
365	  0.092945889	-3.750000E-01	  0.092945889	1.388600E+02	  0.092945889	1.233000E+00	  0.092945889	1.875300E+01
366	  0.093146294	-3.730000E-01	  0.093146294	1.385000E+02	  0.093146294	1.230000E+00	  0.093146294	1.893200E+01
367	  0.093346693	-3.720000E-01	  0.093346693	1.381290E+02	  0.093346693	1.227000E+00	  0.093346693	1.911800E+01
368	  0.093547091	-3.730000E-01	  0.093547091	1.377760E+02	  0.093547091	1.236000E+00	  0.093547091	1.929400E+01
369	  0.093747497	-3.700000E-01	  0.093747497	1.374420E+02	  0.093747497	1.227000E+00	  0.093747497	1.946200E+01
370	  0.093947895	-3.720000E-01	  0.093947895	1.370730E+02	  0.093947895	1.238000E+00	  0.093947895	1.964800E+01
371	  0.094148301	-3.710000E-01	  0.094148301	1.367080E+02	  0.094148301	1.237000E+00	  0.094148301	1.983200E+01
372	  0.094348699	-3.720000E-01	  0.094348699	1.363450E+02	  0.094348699	1.242000E+00	  0.094348699	2.001500E+01
373	  0.094549097	-3.690000E-01	  0.094549097	1.360090E+02	  0.094549097	1.235000E+00	  0.094549097	2.018500E+01
374	  0.094749503	-3.710000E-01	  0.094749503	1.356720E+02	  0.094749503	1.244000E+00	  0.094749503	2.035600E+01
375	  0.094949901	-3.660000E-01	  0.094949901	1.353260E+02	  0.094949901	1.234000E+00	  0.094949901	2.053300E+01
376	  0.095150299	-3.680000E-01	  0.095150299	1.349960E+02	  0.095150299	1.240000E+00	  0.095150299	2.070100E+01
377	  0.095350705	-3.660000E-01	  0.095350705	1.346540E+02	  0.095350705	1.239000E+00	  0.095350705	2.087600E+01
378	  0.095551103	-3.630000E-01	  0.095551103	1.343020E+02	  0.095551103	1.232000E+00	  0.095551103	2.105700E+01
379	  0.095751502	-3.610000E-01	  0.095751502	1.339740E+02	  0.095751502	1.229000E+00	  0.095751502	2.122600E+01
380	  0.095951907	-3.610000E-01	  0.095951907	1.336460E+02	  0.095951907	1.231000E+00	  0.095951907	2.139500E+01
381	  0.096152306	-3.650000E-01	  0.096152306	1.333220E+02	  0.096152306	1.246000E+00	  0.096152306	2.156200E+01
382	  0.096352704	-3.650000E-01	  0.096352704	1.329960E+02	  0.096352704	1.250000E+00	  0.096352704	2.173000E+01
383	  0.096553110	-3.670000E-01	  0.096553110	1.326740E+02	  0.096553110	1.261000E+00	  0.096553110	2.189800E+01
384	  0.096753508	-3.680000E-01	  0.096753508	1.323060E+02	  0.096753508	1.265000E+00	  0.096753508	2.208900E+01
385	  0.096953906	-3.700000E-01	  0.096953906	1.319710E+02	  0.096953906	1.277000E+00	  0.096953906	2.226400E+01
386	  0.097154312	-3.700000E-01	  0.097154312	1.316150E+02	  0.097154312	1.281000E+00	  0.097154312	2.245000E+01
387	  0.097354710	-3.720000E-01	  0.097354710	1.312430E+02	  0.097354710	1.292000E+00	  0.097354710	2.264500E+01
388	  0.097555116	-3.750000E-01	  0.097555116	1.308770E+02	  0.097555116	1.307000E+00	  0.097555116	2.283700E+01
389	  0.097755514	-3.740000E-01	  0.097755514	1.305200E+02	  0.097755514	1.307000E+00	  0.097755514	2.302600E+01
390	  0.097955912	-3.770000E-01	  0.097955912	1.301450E+02	  0.097955912	1.320000E+00	  0.097955912	2.322400E+01
391	  0.098156318	-3.720000E-01	  0.098156318	1.297560E+02	  0.098156318	1.308000E+00	  0.098156318	2.343100E+01
392	  0.098356716	-3.720000E-01	  0.098356716	1.293920E+02	  0.098356716	1.310000E+00	  0.098356716	2.362500E+01
393	  0.098557115	-3.710000E-01	  0.098557115	1.290320E+02	  0.098557115	1.312000E+00	  0.098557115	2.381700E+01
394	  0.098757520	-3.710000E-01	  0.098757520	1.286680E+02	  0.098757520	1.315000E+00	  0.098757520	2.401300E+01
395	  0.098957919	-3.710000E-01	  0.098957919	1.283140E+02	  0.098957919	1.321000E+00	  0.098957919	2.420300E+01
396	  0.099158317	-3.690000E-01	  0.099158317	1.279340E+02	  0.099158317	1.317000E+00	  0.099158317	2.440800E+01
397	  0.099358723	-3.700000E-01	  0.099358723	1.275820E+02	  0.099358723	1.323000E+00	  0.099358723	2.459800E+01
398	  0.099559121	-3.680000E-01	  0.099559121	1.272200E+02	  0.099559121	1.320000E+00	  0.099559121	2.479500E+01
399	  0.099759519	-3.700000E-01	  0.099759519	1.268660E+02	  0.099759519	1.331000E+00	  0.099759519	2.498700E+01
400	  0.099959925	-3.780000E-01	  0.099959925	1.264970E+02	  0.099959925	1.366000E+00	  0.099959925	2.518800E+01
401	  0.100160323	-3.710000E-01	  0.100160323	1.261570E+02	  0.100160323	1.344000E+00	  0.100160323	2.537500E+01
402	  0.100360721	-3.800000E-01	  0.100360721	1.258180E+02	  0.100360721	1.383000E+00	  0.100360721	2.556000E+01
403	  0.100561127	-3.710000E-01	  0.100561127	1.254850E+02	  0.100561127	1.353000E+00	  0.100561127	2.574500E+01
404	  0.100761525	-3.750000E-01	  0.100761525	1.251060E+02	  0.100761525	1.373000E+00	  0.100761525	2.595300E+01
405	  0.100961931	-3.690000E-01	  0.100961931	1.247660E+02	  0.100961931	1.353000E+00	  0.100961931	2.614200E+01
406	  0.101162329	-3.700000E-01	  0.101162329	1.244300E+02	  0.101162329	1.363000E+00	  0.101162329	2.632900E+01
407	  0.101362728	-3.710000E-01	  0.101362728	1.241330E+02	  0.101362728	1.371000E+00	  0.101362728	2.649500E+01
408	  0.101563133	-3.720000E-01	  0.101563133	1.237970E+02	  0.101563133	1.376000E+00	  0.101563133	2.668300E+01
409	  0.101763532	-3.740000E-01	  0.101763532	1.234630E+02	  0.101763532	1.388000E+00	  0.101763532	2.687000E+01
410	  0.101963930	-3.740000E-01	  0.101963930	1.231480E+02	  0.101963930	1.394000E+00	  0.101963930	2.704700E+01
411	  0.102164336	-3.720000E-01	  0.102164336	1.228010E+02	  0.102164336	1.389000E+00	  0.102164336	2.724300E+01
412	  0.102364734	-3.790000E-01	  0.102364734	1.224800E+02	  0.102364734	1.420000E+00	  0.102364734	2.742400E+01
413	  0.102565132	-3.710000E-01	  0.102565132	1.221000E+02	  0.102565132	1.396000E+00	  0.102565132	2.764100E+01
414	  0.102765530	-3.820000E-01	  0.102765530	1.217420E+02	  0.102765530	1.440000E+00	  0.102765530	2.784400E+01
415	  0.102965929	-3.750000E-01	  0.102965929	1.214300E+02	  0.102965929	1.419000E+00	  0.102965929	2.802400E+01
416	  0.103166327	-3.790000E-01	  0.103166327	1.210750E+02	  0.103166327	1.441000E+00	  0.103166327	2.822700E+01
417	  0.103366733	-3.720000E-01	  0.103366733	1.207170E+02	  0.103366733	1.417000E+00	  0.103366733	2.843400E+01
418	  0.103567131	-3.740000E-01	  0.103567131	1.203750E+02	  0.103567131	1.433000E+00	  0.103567131	2.863100E+01
419	  0.103767529	-3.760000E-01	  0.103767529	1.199950E+02	  0.103767529	1.442000E+00	  0.103767529	2.885200E+01
420	  0.103967935	-3.800000E-01	  0.103967935	1.196730E+02	  0.103967935	1.463000E+00	  0.103967935	2.903900E+01
421	  0.104168333	-3.770000E-01	  0.104168333	1.193040E+02	  0.104168333	1.457000E+00	  0.104168333	2.925500E+01
422	  0.104368731	-3.770000E-01	  0.104368731	1.189800E+02	  0.104368731	1.464000E+00	  0.104368731	2.944500E+01
423	  0.104569137	-3.740000E-01	  0.104569137	1.186210E+02	  0.104569137	1.456000E+00	  0.104569137	2.965600E+01
424	  0.104769535	-3.800000E-01	  0.104769535	1.182860E+02	  0.104769535	1.484000E+00	  0.104769535	2.985400E+01
425	  0.104969934	-3.800000E-01	  0.104969934	1.179550E+02	  0.104969934	1.489000E+00	  0.104969934	3.004900E+01
426	  0.105170339	-3.830000E-01	  0.105170339	1.176250E+02	  0.105170339	1.508000E+00	  0.105170339	3.024500E+01
427	  0.105370738	-3.830000E-01	  0.105370738	1.172530E+02	  0.105370738	1.513000E+00	  0.105370738	3.046700E+01
428	  0.105571143	-3.850000E-01	  0.105571143	1.169420E+02	  0.105571143	1.526000E+00	  0.105571143	3.065300E+01
429	  0.105771542	-3.810000E-01	  0.105771542	1.165780E+02	  0.105771542	1.514000E+00	  0.105771542	3.087200E+01
430	  0.105971940	-3.860000E-01	  0.105971940	1.162150E+02	  0.105971940	1.542000E+00	  0.105971940	3.109100E+01
431	  0.106172346	-3.750000E-01	  0.106172346	1.159300E+02	  0.106172346	1.501000E+00	  0.106172346	3.126500E+01
432	  0.106372744	-3.810000E-01	  0.106372744	1.155850E+02	  0.106372744	1.533000E+00	  0.106372744	3.147400E+01
433	  0.106573142	-3.750000E-01	  0.106573142	1.152530E+02	  0.106573142	1.512000E+00	  0.106573142	3.167700E+01
434	  0.106773548	-3.760000E-01	  0.106773548	1.149220E+02	  0.106773548	1.522000E+00	  0.106773548	3.188000E+01
435	  0.106973946	-3.730000E-01	  0.106973946	1.145760E+02	  0.106973946	1.519000E+00	  0.106973946	3.209200E+01
436	  0.107174344	-3.740000E-01	  0.107174344	1.142860E+02	  0.107174344	1.528000E+00	  0.107174344	3.227100E+01
437	  0.107374750	-3.700000E-01	  0.107374750	1.139620E+02	  0.107374750	1.517000E+00	  0.107374750	3.247200E+01
438	  0.107575148	-3.720000E-01	  0.107575148	1.136400E+02	  0.107575148	1.531000E+00	  0.107575148	3.267200E+01
439	  0.107775547	-3.720000E-01	  0.107775547	1.132850E+02	  0.107775547	1.535000E+00	  0.107775547	3.289300E+01
440	  0.107975952	-3.680000E-01	  0.107975952	1.129810E+02	  0.107975952	1.525000E+00	  0.107975952	3.308400E+01
441	  0.108176351	-3.690000E-01	  0.108176351	1.126280E+02	  0.108176351	1.536000E+00	  0.108176351	3.330500E+01
442	  0.108376749	-3.690000E-01	  0.108376749	1.122980E+02	  0.108376749	1.543000E+00	  0.108376749	3.351400E+01
443	  0.108577155	-3.640000E-01	  0.108577155	1.119540E+02	  0.108577155	1.525000E+00	  0.108577155	3.373200E+01
444	  0.108777553	-3.650000E-01	  0.108777553	1.116480E+02	  0.108777553	1.537000E+00	  0.108777553	3.392600E+01
445	  0.108977959	-3.660000E-01	  0.108977959	1.112690E+02	  0.108977959	1.547000E+00	  0.108977959	3.416900E+01
446	  0.109178357	-3.640000E-01	  0.109178357	1.109250E+02	  0.109178357	1.547000E+00	  0.109178357	3.438900E+01
447	  0.109378755	-3.580000E-01	  0.109378755	1.105600E+02	  0.109378755	1.526000E+00	  0.109378755	3.462500E+01
448	  0.109579161	-3.630000E-01	  0.109579161	1.102500E+02	  0.109579161	1.552000E+00	  0.109579161	3.482500E+01
449	  0.109779559	-3.620000E-01	  0.109779559	1.098980E+02	  0.109779559	1.554000E+00	  0.109779559	3.505300E+01
450	  0.109979957	-3.610000E-01	  0.109979957	1.095720E+02	  0.109979957	1.559000E+00	  0.109979957	3.526600E+01
451	  0.110180363	-3.610000E-01	  0.110180363	1.092440E+02	  0.110180363	1.563000E+00	  0.110180363	3.548000E+01
452	  0.110380761	-3.620000E-01	  0.110380761	1.088980E+02	  0.110380761	1.574000E+00	  0.110380761	3.570700E+01
453	  0.110581160	-3.640000E-01	  0.110581160	1.085960E+02	  0.110581160	1.591000E+00	  0.110581160	3.590600E+01
454	  0.110781565	-3.700000E-01	  0.110781565	1.082720E+02	  0.110781565	1.623000E+00	  0.110781565	3.612100E+01
455	  0.110981964	-3.650000E-01	  0.110981964	1.079080E+02	  0.110981964	1.607000E+00	  0.110981964	3.636300E+01
456	  0.111182362	-3.650000E-01	  0.111182362	1.075570E+02	  0.111182362	1.614000E+00	  0.111182362	3.659700E+01
457	  0.111382768	-3.640000E-01	  0.111382768	1.072410E+02	  0.111382768	1.617000E+00	  0.111382768	3.681000E+01
458	  0.111583166	-3.630000E-01	  0.111583166	1.068720E+02	  0.111583166	1.619000E+00	  0.111583166	3.705800E+01
459	  0.111783572	-3.690000E-01	  0.111783572	1.065740E+02	  0.111783572	1.655000E+00	  0.111783572	3.725900E+01
460	  0.111983970	-3.690000E-01	  0.111983970	1.062760E+02	  0.111983970	1.661000E+00	  0.111983970	3.746200E+01
461	  0.112184368	-3.690000E-01	  0.112184368	1.059680E+02	  0.112184368	1.669000E+00	  0.112184368	3.767200E+01
462	  0.112384774	-3.720000E-01	  0.112384774	1.056080E+02	  0.112384774	1.687000E+00	  0.112384774	3.791800E+01
463	  0.112585172	-3.660000E-01	  0.112585172	1.052880E+02	  0.112585172	1.667000E+00	  0.112585172	3.814000E+01
464	  0.112785570	-3.670000E-01	  0.112785570	1.049220E+02	  0.112785570	1.681000E+00	  0.112785570	3.839200E+01
465	  0.112985976	-3.670000E-01	  0.112985976	1.046190E+02	  0.112985976	1.689000E+00	  0.112985976	3.860200E+01
466	  0.113186374	-3.670000E-01	  0.113186374	1.042680E+02	  0.113186374	1.698000E+00	  0.113186374	3.884800E+01
467	  0.113386773	-3.710000E-01	  0.113386773	1.039660E+02	  0.113386773	1.720000E+00	  0.113386773	3.905800E+01
468	  0.113587178	-3.710000E-01	  0.113587178	1.036250E+02	  0.113587178	1.729000E+00	  0.113587178	3.929900E+01
469	  0.113787577	-3.710000E-01	  0.113787577	1.032460E+02	  0.113787577	1.736000E+00	  0.113787577	3.956700E+01
470	  0.113987975	-3.670000E-01	  0.113987975	1.029730E+02	  0.113987975	1.727000E+00	  0.113987975	3.976100E+01
471	  0.114188381	-3.680000E-01	  0.114188381	1.026380E+02	  0.114188381	1.738000E+00	  0.114188381	4.000000E+01
472	  0.114388779	-3.720000E-01	  0.114388779	1.023020E+02	  0.114388779	1.766000E+00	  0.114388779	4.024000E+01
473	  0.114589177	-3.610000E-01	  0.114589177	1.019700E+02	  0.114589177	1.724000E+00	  0.114589177	4.048100E+01
474	  0.114789583	-3.660000E-01	  0.114789583	1.016110E+02	  0.114789583	1.756000E+00	  0.114789583	4.074000E+01
475	  0.114989981	-3.660000E-01	  0.114989981	1.012950E+02	  0.114989981	1.761000E+00	  0.114989981	4.097000E+01
476	  0.115190387	-3.580000E-01	  0.115190387	1.009580E+02	  0.115190387	1.731000E+00	  0.115190387	4.121800E+01
477	  0.115390785	-3.630000E-01	  0.115390785	1.006990E+02	  0.115390785	1.764000E+00	  0.115390785	4.140700E+01
478	  0.115591183	-3.620000E-01	  0.115591183	1.003820E+02	  0.115591183	1.766000E+00	  0.115591183	4.164000E+01
479	  0.115791589	-3.630000E-01	  0.115791589	1.000650E+02	  0.115791589	1.777000E+00	  0.115791589	4.187400E+01
480	  0.115991987	-3.650000E-01	  0.115991987	9.971700E+01	  0.115991987	1.799000E+00	  0.115991987	4.213300E+01
481	  0.116192386	-3.620000E-01	  0.116192386	9.942400E+01	  0.116192386	1.792000E+00	  0.116192386	4.235300E+01
482	  0.116392791	-3.560000E-01	  0.116392791	9.908600E+01	  0.116392791	1.773000E+00	  0.116392791	4.260700E+01
483	  0.116593190	-3.640000E-01	  0.116593190	9.879200E+01	  0.116593190	1.817000E+00	  0.116593190	4.282700E+01
484	  0.116793588	-3.620000E-01	  0.116793588	9.847200E+01	  0.116793588	1.819000E+00	  0.116793588	4.307000E+01
485	  0.116993994	-3.660000E-01	  0.116993994	9.817500E+01	  0.116993994	1.843000E+00	  0.116993994	4.329600E+01
486	  0.117194392	-3.660000E-01	  0.117194392	9.785000E+01	  0.117194392	1.855000E+00	  0.117194392	4.354400E+01
487	  0.117394790	-3.650000E-01	  0.117394790	9.756700E+01	  0.117394790	1.855000E+00	  0.117394790	4.376200E+01
488	  0.117595196	-3.630000E-01	  0.117595196	9.721900E+01	  0.117595196	1.860000E+00	  0.117595196	4.403100E+01
489	  0.117795594	-3.570000E-01	  0.117795594	9.689400E+01	  0.117795594	1.837000E+00	  0.117795594	4.428400E+01
490	  0.117995992	-3.610000E-01	  0.117995992	9.661600E+01	  0.117995992	1.866000E+00	  0.117995992	4.450000E+01
491	  0.118196398	-3.600000E-01	  0.118196398	9.629600E+01	  0.118196398	1.870000E+00	  0.118196398	4.475100E+01
492	  0.118396796	-3.580000E-01	  0.118396796	9.600500E+01	  0.118396796	1.869000E+00	  0.118396796	4.498100E+01
493	  0.118597202	-3.640000E-01	  0.118597202	9.564600E+01	  0.118597202	1.909000E+00	  0.118597202	4.526300E+01
494	  0.118797600	-3.560000E-01	  0.118797600	9.532100E+01	  0.118797600	1.879000E+00	  0.118797600	4.552300E+01
495	  0.118997999	-3.570000E-01	  0.118997999	9.501200E+01	  0.118997999	1.891000E+00	  0.118997999	4.577000E+01
496	  0.119198404	-3.540000E-01	  0.119198404	9.469600E+01	  0.119198404	1.883000E+00	  0.119198404	4.602500E+01
497	  0.119398803	-3.560000E-01	  0.119398803	9.436100E+01	  0.119398803	1.903000E+00	  0.119398803	4.629500E+01
498	  0.119599201	-3.550000E-01	  0.119599201	9.404900E+01	  0.119599201	1.908000E+00	  0.119599201	4.654900E+01
499	  0.119799607	-3.570000E-01	  0.119799607	9.370700E+01	  0.119799607	1.931000E+00	  0.119799607	4.682700E+01
500	  0.120000005	-3.540000E-01	  0.120000005	9.335700E+01	  0.120000005	1.926000E+00	  0.120000005	4.711500E+01
