! Anritsu VNA Master:             	Model: MS2036C/10/77
! SN:             	1601066
! /card0/usr/bot.s11.47pf.txt
! Existing Calibration Information:
! TYPE:             	Current Settings	Active Cal Settings
! TIME:             	05/23/2018 11:53:10 AM	05/23/2018 11:36:58 AM
! INTERNAL TEMP:    	48.3 C	48.8 C
! # POINTS:         	500	500
! START FREQ:       	20.000 MHz	20.000 MHz
! STOP FREQ:        	120.000 MHz	120.000 MHz
! SOURCE POWER:     	High	High
! IFBW:             	50 Hz	50 Hz
! AVG FACTOR:       	  1 	  1 
! REF PLANE 1:      	0 mm	0 mm
! REF PLANE 2:      	0 mm	0 mm
! CAL TYPE:         	Full S11	Full S11
! CAL METHOD:       	SOLT	SOLT
! CAL LINE TYPE:    	Coax	Coax
! DUT PORT 1:       	K-Conn(M)	K-Conn(M)
! DUT PORT 2:       	K-Conn(M)	K-Conn(M)
! CAL STATUS:       	OK: Accuracy High	--
! PROP-V:       	0.700
! CABLE LOSS:       	0.000 dB/m
! REF IMPEDANCE:       	50.0
! Trace Specific Parameters:	TR1	TR2	TR3	TR4
! TRACE.#.Y (GRAPH TYPE)	LOG MAG	PHASE	REAL IMPEDANCE	IMAGINARY IMPEDANCE
! TRACE.#.X 	FREQ.GHZ	FREQ.GHZ	FREQ.GHZ	FREQ.GHZ
! S-PARAMETER	S11	S11	S11	S11
! SMOOTH/APERTURE %	0	0	0	0
! WINDOW	NSL	NSL	NSL	NSL
! GATING	OFF	OFF	OFF	OFF
! FGTD	OFF	OFF	OFF	OFF
Marker Information per Trace:	TR1	TR2	TR3	TR4
!MK1	--	--	--	--
!MK2	--	--	--	--
!MK3	--	--	--	--
!MK4	--	--	--	--
!MK5	--	--	--	--
!MK6	--	--	--	--
!MK7	--	--	--	--
!MK8	--	--	--	--
PNT	TR1.FREQ.GHZ	TR1.LOG MAG.dB	TR2.FREQ.GHZ	TR2.PHASE.deg	TR3.FREQ.GHZ	TR3.REAL IMPEDANCE.ohm	TR4.FREQ.GHZ	TR4.IMAGINARY IMPEDANCE.ohm
1	  0.020000000	-2.800000E-02	  0.020000000	-5.515900E+01	  0.020000000	3.850000E-01	  0.020000000	-9.572100E+01
2	  0.020200402	-2.700000E-02	  0.020200402	-5.570600E+01	  0.020200402	3.680000E-01	  0.020200402	-9.461800E+01
3	  0.020400802	-2.800000E-02	  0.020400802	-5.623500E+01	  0.020400802	3.740000E-01	  0.020400802	-9.357000E+01
4	  0.020601204	-3.000000E-02	  0.020601204	-5.677100E+01	  0.020601204	3.860000E-01	  0.020601204	-9.252600E+01
5	  0.020801604	-3.000000E-02	  0.020801604	-5.731500E+01	  0.020801604	3.820000E-01	  0.020801604	-9.148500E+01
6	  0.021002004	-3.200000E-02	  0.021002004	-5.785900E+01	  0.021002004	4.010000E-01	  0.021002004	-9.046200E+01
7	  0.021202406	-3.200000E-02	  0.021202406	-5.839000E+01	  0.021202406	3.910000E-01	  0.021202406	-8.948000E+01
8	  0.021402806	-3.200000E-02	  0.021402806	-5.892600E+01	  0.021402806	3.840000E-01	  0.021402806	-8.850600E+01
9	  0.021603208	-3.400000E-02	  0.021603208	-5.945900E+01	  0.021603208	3.990000E-01	  0.021603208	-8.755100E+01
10	  0.021803608	-3.500000E-02	  0.021803608	-5.999300E+01	  0.021803608	4.090000E-01	  0.021803608	-8.661200E+01
11	  0.022004008	-3.600000E-02	  0.022004008	-6.052800E+01	  0.022004008	4.130000E-01	  0.022004008	-8.568600E+01
12	  0.022204408	-3.500000E-02	  0.022204408	-6.107800E+01	  0.022204408	3.990000E-01	  0.022204408	-8.474900E+01
13	  0.022404809	-3.600000E-02	  0.022404809	-6.161200E+01	  0.022404809	4.010000E-01	  0.022404809	-8.385300E+01
14	  0.022605211	-3.600000E-02	  0.022605211	-6.214400E+01	  0.022605211	3.890000E-01	  0.022605211	-8.297500E+01
15	  0.022805611	-3.500000E-02	  0.022805611	-6.267300E+01	  0.022805611	3.730000E-01	  0.022805611	-8.211500E+01
16	  0.023006011	-3.600000E-02	  0.023006011	-6.321300E+01	  0.023006011	3.780000E-01	  0.023006011	-8.125100E+01
17	  0.023206413	-3.700000E-02	  0.023206413	-6.374900E+01	  0.023206413	3.830000E-01	  0.023206413	-8.040500E+01
18	  0.023406813	-3.800000E-02	  0.023406813	-6.427700E+01	  0.023406813	3.870000E-01	  0.023406813	-7.958600E+01
19	  0.023607215	-3.800000E-02	  0.023607215	-6.481400E+01	  0.023607215	3.800000E-01	  0.023607215	-7.876400E+01
20	  0.023807615	-3.600000E-02	  0.023807615	-6.536200E+01	  0.023807615	3.630000E-01	  0.023807615	-7.793800E+01
21	  0.024008015	-3.500000E-02	  0.024008015	-6.589400E+01	  0.024008015	3.460000E-01	  0.024008015	-7.714700E+01
22	  0.024208417	-3.600000E-02	  0.024208417	-6.642700E+01	  0.024208417	3.480000E-01	  0.024208417	-7.636600E+01
23	  0.024408817	-3.700000E-02	  0.024408817	-6.695100E+01	  0.024408817	3.580000E-01	  0.024408817	-7.561000E+01
24	  0.024609219	-3.800000E-02	  0.024609219	-6.748200E+01	  0.024609219	3.580000E-01	  0.024609219	-7.485400E+01
25	  0.024809619	-3.800000E-02	  0.024809619	-6.803000E+01	  0.024809619	3.570000E-01	  0.024809619	-7.408400E+01
26	  0.025010020	-3.800000E-02	  0.025010020	-6.855800E+01	  0.025010020	3.490000E-01	  0.025010020	-7.335200E+01
27	  0.025210422	-3.900000E-02	  0.025210422	-6.909100E+01	  0.025210422	3.510000E-01	  0.025210422	-7.262400E+01
28	  0.025410822	-3.900000E-02	  0.025410822	-6.963200E+01	  0.025410822	3.500000E-01	  0.025410822	-7.189500E+01
29	  0.025611224	-3.900000E-02	  0.025611224	-7.016500E+01	  0.025611224	3.400000E-01	  0.025611224	-7.118700E+01
30	  0.025811624	-4.000000E-02	  0.025811624	-7.070000E+01	  0.025811624	3.430000E-01	  0.025811624	-7.048500E+01
31	  0.026012026	-4.000000E-02	  0.026012026	-7.123900E+01	  0.026012026	3.450000E-01	  0.026012026	-6.978600E+01
32	  0.026212426	-4.000000E-02	  0.026212426	-7.177900E+01	  0.026212426	3.390000E-01	  0.026212426	-6.909700E+01
33	  0.026412826	-4.200000E-02	  0.026412826	-7.231300E+01	  0.026412826	3.510000E-01	  0.026412826	-6.842300E+01
34	  0.026613226	-4.200000E-02	  0.026613226	-7.284200E+01	  0.026613226	3.480000E-01	  0.026613226	-6.776500E+01
35	  0.026813626	-4.400000E-02	  0.026813626	-7.338400E+01	  0.026813626	3.590000E-01	  0.026813626	-6.709700E+01
36	  0.027014028	-4.300000E-02	  0.027014028	-7.392100E+01	  0.027014028	3.480000E-01	  0.027014028	-6.644500E+01
37	  0.027214428	-4.500000E-02	  0.027214428	-7.445800E+01	  0.027214428	3.590000E-01	  0.027214428	-6.580100E+01
38	  0.027414829	-4.600000E-02	  0.027414829	-7.498600E+01	  0.027414829	3.630000E-01	  0.027414829	-6.517500E+01
39	  0.027615231	-4.800000E-02	  0.027615231	-7.552800E+01	  0.027615231	3.710000E-01	  0.027615231	-6.454100E+01
40	  0.027815631	-5.000000E-02	  0.027815631	-7.606100E+01	  0.027815631	3.840000E-01	  0.027815631	-6.392400E+01
41	  0.028016033	-5.100000E-02	  0.028016033	-7.661100E+01	  0.028016033	3.860000E-01	  0.028016033	-6.329700E+01
42	  0.028216433	-5.300000E-02	  0.028216433	-7.714000E+01	  0.028216433	3.960000E-01	  0.028216433	-6.269800E+01
43	  0.028416833	-5.500000E-02	  0.028416833	-7.767400E+01	  0.028416833	4.080000E-01	  0.028416833	-6.210300E+01
44	  0.028617235	-5.700000E-02	  0.028617235	-7.820100E+01	  0.028617235	4.140000E-01	  0.028617235	-6.152100E+01
45	  0.028817635	-5.800000E-02	  0.028817635	-7.873300E+01	  0.028817635	4.200000E-01	  0.028817635	-6.094100E+01
46	  0.029018037	-6.100000E-02	  0.029018037	-7.927100E+01	  0.029018037	4.370000E-01	  0.029018037	-6.036100E+01
47	  0.029218437	-6.400000E-02	  0.029218437	-7.980200E+01	  0.029218437	4.480000E-01	  0.029218437	-5.979400E+01
48	  0.029418837	-6.500000E-02	  0.029418837	-8.033100E+01	  0.029418837	4.550000E-01	  0.029418837	-5.923600E+01
49	  0.029619239	-6.600000E-02	  0.029619239	-8.085400E+01	  0.029619239	4.550000E-01	  0.029619239	-5.869100E+01
50	  0.029819639	-6.900000E-02	  0.029819639	-8.138400E+01	  0.029819639	4.680000E-01	  0.029819639	-5.814400E+01
51	  0.030020041	-7.200000E-02	  0.030020041	-8.191300E+01	  0.030020041	4.840000E-01	  0.030020041	-5.760300E+01
52	  0.030220442	-7.400000E-02	  0.030220442	-8.243400E+01	  0.030220442	4.910000E-01	  0.030220442	-5.707700E+01
53	  0.030420844	-7.500000E-02	  0.030420844	-8.296000E+01	  0.030420844	4.970000E-01	  0.030420844	-5.655100E+01
54	  0.030621244	-7.800000E-02	  0.030621244	-8.348700E+01	  0.030621244	5.080000E-01	  0.030621244	-5.603000E+01
55	  0.030821644	-7.900000E-02	  0.030821644	-8.399100E+01	  0.030821644	5.100000E-01	  0.030821644	-5.553600E+01
56	  0.031022044	-8.100000E-02	  0.031022044	-8.451300E+01	  0.031022044	5.200000E-01	  0.031022044	-5.502900E+01
57	  0.031222444	-8.000000E-02	  0.031222444	-8.504000E+01	  0.031222444	5.090000E-01	  0.031222444	-5.452400E+01
58	  0.031422846	-8.200000E-02	  0.031422846	-8.554600E+01	  0.031422846	5.130000E-01	  0.031422846	-5.404200E+01
59	  0.031623244	-8.500000E-02	  0.031623244	-8.605400E+01	  0.031623244	5.260000E-01	  0.031623244	-5.356400E+01
60	  0.031823646	-8.600000E-02	  0.031823646	-8.656300E+01	  0.031823646	5.290000E-01	  0.031823646	-5.308900E+01
61	  0.032024048	-8.900000E-02	  0.032024048	-8.706800E+01	  0.032024048	5.420000E-01	  0.032024048	-5.262300E+01
62	  0.032224450	-8.900000E-02	  0.032224450	-8.756700E+01	  0.032224450	5.360000E-01	  0.032224450	-5.216600E+01
63	  0.032424849	-9.100000E-02	  0.032424849	-8.807900E+01	  0.032424849	5.430000E-01	  0.032424849	-5.170100E+01
64	  0.032625251	-9.200000E-02	  0.032625251	-8.856800E+01	  0.032625251	5.480000E-01	  0.032625251	-5.126100E+01
65	  0.032825653	-9.400000E-02	  0.032825653	-8.906500E+01	  0.032825653	5.500000E-01	  0.032825653	-5.081900E+01
66	  0.033026051	-9.500000E-02	  0.033026051	-8.956900E+01	  0.033026051	5.520000E-01	  0.033026051	-5.037400E+01
67	  0.033226453	-9.600000E-02	  0.033226453	-9.007500E+01	  0.033226453	5.570000E-01	  0.033226453	-4.993000E+01
68	  0.033426855	-9.700000E-02	  0.033426855	-9.056700E+01	  0.033426855	5.560000E-01	  0.033426855	-4.950400E+01
69	  0.033627257	-1.000000E-01	  0.033627257	-9.106200E+01	  0.033627257	5.660000E-01	  0.033627257	-4.907700E+01
70	  0.033827655	-9.900000E-02	  0.033827655	-9.156500E+01	  0.033827655	5.550000E-01	  0.033827655	-4.864900E+01
71	  0.034028057	-1.010000E-01	  0.034028057	-9.206700E+01	  0.034028057	5.620000E-01	  0.034028057	-4.822400E+01
72	  0.034228459	-1.010000E-01	  0.034228459	-9.255000E+01	  0.034228459	5.610000E-01	  0.034228459	-4.781900E+01
73	  0.034428857	-1.020000E-01	  0.034428857	-9.306200E+01	  0.034428857	5.610000E-01	  0.034428857	-4.739300E+01
74	  0.034629259	-1.040000E-01	  0.034629259	-9.354500E+01	  0.034629259	5.670000E-01	  0.034629259	-4.699500E+01
75	  0.034829661	-1.040000E-01	  0.034829661	-9.403800E+01	  0.034829661	5.620000E-01	  0.034829661	-4.659100E+01
76	  0.035030060	-1.040000E-01	  0.035030060	-9.455000E+01	  0.035030060	5.570000E-01	  0.035030060	-4.617500E+01
77	  0.035230462	-1.060000E-01	  0.035230462	-9.504300E+01	  0.035230462	5.610000E-01	  0.035230462	-4.577800E+01
78	  0.035430863	-1.060000E-01	  0.035430863	-9.554000E+01	  0.035430863	5.560000E-01	  0.035430863	-4.538100E+01
79	  0.035631265	-1.060000E-01	  0.035631265	-9.603700E+01	  0.035631265	5.550000E-01	  0.035631265	-4.498700E+01
80	  0.035831664	-1.060000E-01	  0.035831664	-9.651400E+01	  0.035831664	5.530000E-01	  0.035831664	-4.461200E+01
81	  0.036032066	-1.080000E-01	  0.036032066	-9.702500E+01	  0.036032066	5.540000E-01	  0.036032066	-4.421300E+01
82	  0.036232468	-1.090000E-01	  0.036232468	-9.751100E+01	  0.036232468	5.560000E-01	  0.036232468	-4.383600E+01
83	  0.036432866	-1.090000E-01	  0.036432866	-9.801600E+01	  0.036432866	5.550000E-01	  0.036432866	-4.344900E+01
84	  0.036633268	-1.090000E-01	  0.036633268	-9.850200E+01	  0.036633268	5.490000E-01	  0.036633268	-4.307800E+01
85	  0.036833670	-1.100000E-01	  0.036833670	-9.900900E+01	  0.036833670	5.480000E-01	  0.036833670	-4.269300E+01
86	  0.037034072	-1.110000E-01	  0.037034072	-9.949000E+01	  0.037034072	5.530000E-01	  0.037034072	-4.233100E+01
87	  0.037234470	-1.110000E-01	  0.037234470	-9.998600E+01	  0.037234470	5.470000E-01	  0.037234470	-4.196200E+01
88	  0.037434869	-1.100000E-01	  0.037434869	-1.004810E+02	  0.037434869	5.400000E-01	  0.037434869	-4.159500E+01
89	  0.037635271	-1.130000E-01	  0.037635271	-1.009680E+02	  0.037635271	5.480000E-01	  0.037635271	-4.123600E+01
90	  0.037835669	-1.130000E-01	  0.037835669	-1.014740E+02	  0.037835669	5.460000E-01	  0.037835669	-4.086700E+01
91	  0.038036071	-1.150000E-01	  0.038036071	-1.019550E+02	  0.038036071	5.510000E-01	  0.038036071	-4.051800E+01
92	  0.038236473	-1.120000E-01	  0.038236473	-1.024380E+02	  0.038236473	5.330000E-01	  0.038236473	-4.017000E+01
93	  0.038436871	-1.140000E-01	  0.038436871	-1.029390E+02	  0.038436871	5.390000E-01	  0.038436871	-3.981200E+01
94	  0.038637273	-1.140000E-01	  0.038637273	-1.034240E+02	  0.038637273	5.350000E-01	  0.038637273	-3.946700E+01
95	  0.038837675	-1.150000E-01	  0.038837675	-1.039230E+02	  0.038837675	5.340000E-01	  0.038837675	-3.911500E+01
96	  0.039038073	-1.150000E-01	  0.039038073	-1.044040E+02	  0.039038073	5.310000E-01	  0.039038073	-3.877700E+01
97	  0.039238475	-1.140000E-01	  0.039238475	-1.048880E+02	  0.039238475	5.250000E-01	  0.039238475	-3.844000E+01
98	  0.039438877	-1.160000E-01	  0.039438877	-1.053820E+02	  0.039438877	5.300000E-01	  0.039438877	-3.809900E+01
99	  0.039639279	-1.160000E-01	  0.039639279	-1.058590E+02	  0.039639279	5.270000E-01	  0.039639279	-3.777100E+01
100	  0.039839678	-1.180000E-01	  0.039839678	-1.063520E+02	  0.039839678	5.320000E-01	  0.039839678	-3.743400E+01
101	  0.040040080	-1.170000E-01	  0.040040080	-1.068340E+02	  0.040040080	5.260000E-01	  0.040040080	-3.710700E+01
102	  0.040240481	-1.170000E-01	  0.040240481	-1.073260E+02	  0.040240481	5.220000E-01	  0.040240481	-3.677500E+01
103	  0.040440880	-1.180000E-01	  0.040440880	-1.078130E+02	  0.040440880	5.210000E-01	  0.040440880	-3.644800E+01
104	  0.040641282	-1.170000E-01	  0.040641282	-1.082930E+02	  0.040641282	5.160000E-01	  0.040641282	-3.612800E+01
105	  0.040841684	-1.190000E-01	  0.040841684	-1.087820E+02	  0.040841684	5.190000E-01	  0.040841684	-3.580500E+01
106	  0.041042086	-1.190000E-01	  0.041042086	-1.092650E+02	  0.041042086	5.160000E-01	  0.041042086	-3.548700E+01
107	  0.041242484	-1.210000E-01	  0.041242484	-1.097470E+02	  0.041242484	5.220000E-01	  0.041242484	-3.517200E+01
108	  0.041442886	-1.210000E-01	  0.041442886	-1.102210E+02	  0.041442886	5.190000E-01	  0.041442886	-3.486300E+01
109	  0.041643288	-1.210000E-01	  0.041643288	-1.107120E+02	  0.041643288	5.180000E-01	  0.041643288	-3.454600E+01
110	  0.041843686	-1.220000E-01	  0.041843686	-1.111830E+02	  0.041843686	5.160000E-01	  0.041843686	-3.424300E+01
111	  0.042044088	-1.210000E-01	  0.042044088	-1.116730E+02	  0.042044088	5.090000E-01	  0.042044088	-3.393000E+01
112	  0.042244490	-1.230000E-01	  0.042244490	-1.121410E+02	  0.042244490	5.150000E-01	  0.042244490	-3.363300E+01
113	  0.042444889	-1.220000E-01	  0.042444889	-1.126350E+02	  0.042444889	5.090000E-01	  0.042444889	-3.332100E+01
114	  0.042645290	-1.240000E-01	  0.042645290	-1.131070E+02	  0.042645290	5.150000E-01	  0.042645290	-3.302400E+01
115	  0.042845692	-1.220000E-01	  0.042845692	-1.135890E+02	  0.042845692	5.050000E-01	  0.042845692	-3.272300E+01
116	  0.043046094	-1.240000E-01	  0.043046094	-1.140700E+02	  0.043046094	5.100000E-01	  0.043046094	-3.242400E+01
117	  0.043246493	-1.250000E-01	  0.043246493	-1.145440E+02	  0.043246493	5.110000E-01	  0.043246493	-3.213100E+01
118	  0.043446895	-1.270000E-01	  0.043446895	-1.150220E+02	  0.043446895	5.150000E-01	  0.043446895	-3.183700E+01
119	  0.043647297	-1.250000E-01	  0.043647297	-1.154900E+02	  0.043647297	5.050000E-01	  0.043647297	-3.155100E+01
120	  0.043847695	-1.270000E-01	  0.043847695	-1.159770E+02	  0.043847695	5.100000E-01	  0.043847695	-3.125400E+01
121	  0.044048097	-1.270000E-01	  0.044048097	-1.164450E+02	  0.044048097	5.060000E-01	  0.044048097	-3.097100E+01
122	  0.044248499	-1.270000E-01	  0.044248499	-1.169310E+02	  0.044248499	5.070000E-01	  0.044248499	-3.067900E+01
123	  0.044448901	-1.290000E-01	  0.044448901	-1.173840E+02	  0.044448901	5.100000E-01	  0.044448901	-3.040700E+01
124	  0.044649299	-1.300000E-01	  0.044649299	-1.178530E+02	  0.044649299	5.110000E-01	  0.044649299	-3.012700E+01
125	  0.044849701	-1.310000E-01	  0.044849701	-1.183350E+02	  0.044849701	5.150000E-01	  0.044849701	-2.984100E+01
126	  0.045050103	-1.310000E-01	  0.045050103	-1.188050E+02	  0.045050103	5.100000E-01	  0.045050103	-2.956400E+01
127	  0.045250501	-1.310000E-01	  0.045250501	-1.192790E+02	  0.045250501	5.080000E-01	  0.045250501	-2.928500E+01
128	  0.045450903	-1.320000E-01	  0.045450903	-1.197620E+02	  0.045450903	5.090000E-01	  0.045450903	-2.900300E+01
129	  0.045651305	-1.320000E-01	  0.045651305	-1.202290E+02	  0.045651305	5.050000E-01	  0.045651305	-2.873100E+01
130	  0.045851704	-1.350000E-01	  0.045851704	-1.206880E+02	  0.045851704	5.150000E-01	  0.045851704	-2.846500E+01
131	  0.046052106	-1.360000E-01	  0.046052106	-1.211600E+02	  0.046052106	5.180000E-01	  0.046052106	-2.819300E+01
132	  0.046252504	-1.370000E-01	  0.046252504	-1.216300E+02	  0.046252504	5.180000E-01	  0.046252504	-2.792400E+01
133	  0.046452906	-1.380000E-01	  0.046452906	-1.221040E+02	  0.046452906	5.180000E-01	  0.046452906	-2.765300E+01
134	  0.046653304	-1.390000E-01	  0.046653304	-1.225780E+02	  0.046653304	5.200000E-01	  0.046653304	-2.738400E+01
135	  0.046853706	-1.390000E-01	  0.046853706	-1.230470E+02	  0.046853706	5.200000E-01	  0.046853706	-2.711800E+01
136	  0.047054108	-1.350000E-01	  0.047054108	-1.235160E+02	  0.047054108	5.030000E-01	  0.047054108	-2.685400E+01
137	  0.047254506	-1.370000E-01	  0.047254506	-1.239910E+02	  0.047254506	5.060000E-01	  0.047254506	-2.658700E+01
138	  0.047454908	-1.380000E-01	  0.047454908	-1.244490E+02	  0.047454908	5.090000E-01	  0.047454908	-2.633200E+01
139	  0.047655310	-1.380000E-01	  0.047655310	-1.249210E+02	  0.047655310	5.060000E-01	  0.047655310	-2.606900E+01
140	  0.047855709	-1.390000E-01	  0.047855709	-1.253820E+02	  0.047855709	5.090000E-01	  0.047855709	-2.581400E+01
141	  0.048056111	-1.410000E-01	  0.048056111	-1.258650E+02	  0.048056111	5.130000E-01	  0.048056111	-2.554700E+01
142	  0.048256513	-1.430000E-01	  0.048256513	-1.263270E+02	  0.048256513	5.190000E-01	  0.048256513	-2.529400E+01
143	  0.048456915	-1.420000E-01	  0.048456915	-1.267960E+02	  0.048456915	5.120000E-01	  0.048456915	-2.503800E+01
144	  0.048657313	-1.440000E-01	  0.048657313	-1.272600E+02	  0.048657313	5.180000E-01	  0.048657313	-2.478500E+01
145	  0.048857715	-1.450000E-01	  0.048857715	-1.277190E+02	  0.048857715	5.210000E-01	  0.048857715	-2.453600E+01
146	  0.049058117	-1.460000E-01	  0.049058117	-1.281900E+02	  0.049058117	5.190000E-01	  0.049058117	-2.428100E+01
147	  0.049258515	-1.470000E-01	  0.049258515	-1.286580E+02	  0.049258515	5.200000E-01	  0.049258515	-2.402900E+01
148	  0.049458917	-1.480000E-01	  0.049458917	-1.291210E+02	  0.049458917	5.250000E-01	  0.049458917	-2.378100E+01
149	  0.049659319	-1.500000E-01	  0.049659319	-1.295810E+02	  0.049659319	5.280000E-01	  0.049659319	-2.353600E+01
150	  0.049859721	-1.500000E-01	  0.049859721	-1.300590E+02	  0.049859721	5.270000E-01	  0.049859721	-2.328100E+01
151	  0.050060119	-1.510000E-01	  0.050060119	-1.305120E+02	  0.050060119	5.290000E-01	  0.050060119	-2.304100E+01
152	  0.050260521	-1.520000E-01	  0.050260521	-1.309800E+02	  0.050260521	5.290000E-01	  0.050260521	-2.279400E+01
153	  0.050460923	-1.510000E-01	  0.050460923	-1.314400E+02	  0.050460923	5.250000E-01	  0.050460923	-2.255200E+01
154	  0.050661322	-1.530000E-01	  0.050661322	-1.318940E+02	  0.050661322	5.300000E-01	  0.050661322	-2.231400E+01
155	  0.050861724	-1.530000E-01	  0.050861724	-1.323500E+02	  0.050861724	5.280000E-01	  0.050861724	-2.207600E+01
156	  0.051062126	-1.550000E-01	  0.051062126	-1.328160E+02	  0.051062126	5.330000E-01	  0.051062126	-2.183300E+01
157	  0.051262524	-1.550000E-01	  0.051262524	-1.332780E+02	  0.051262524	5.320000E-01	  0.051262524	-2.159400E+01
158	  0.051462926	-1.560000E-01	  0.051462926	-1.337370E+02	  0.051462926	5.320000E-01	  0.051462926	-2.135700E+01
159	  0.051663328	-1.580000E-01	  0.051663328	-1.341940E+02	  0.051663328	5.360000E-01	  0.051663328	-2.112100E+01
160	  0.051863730	-1.580000E-01	  0.051863730	-1.346460E+02	  0.051863730	5.350000E-01	  0.051863730	-2.088900E+01
161	  0.052064128	-1.570000E-01	  0.052064128	-1.350950E+02	  0.052064128	5.320000E-01	  0.052064128	-2.066000E+01
162	  0.052264530	-1.570000E-01	  0.052264530	-1.355500E+02	  0.052264530	5.280000E-01	  0.052264530	-2.042700E+01
163	  0.052464932	-1.580000E-01	  0.052464932	-1.359990E+02	  0.052464932	5.290000E-01	  0.052464932	-2.019900E+01
164	  0.052665330	-1.580000E-01	  0.052665330	-1.364520E+02	  0.052665330	5.290000E-01	  0.052665330	-1.997000E+01
165	  0.052865732	-1.590000E-01	  0.052865732	-1.369060E+02	  0.052865732	5.310000E-01	  0.052865732	-1.974000E+01
166	  0.053066134	-1.580000E-01	  0.053066134	-1.373540E+02	  0.053066134	5.270000E-01	  0.053066134	-1.951500E+01
167	  0.053266536	-1.610000E-01	  0.053266536	-1.377950E+02	  0.053266536	5.320000E-01	  0.053266536	-1.929300E+01
168	  0.053466935	-1.600000E-01	  0.053466935	-1.382470E+02	  0.053466935	5.280000E-01	  0.053466935	-1.906700E+01
169	  0.053667337	-1.620000E-01	  0.053667337	-1.386890E+02	  0.053667337	5.330000E-01	  0.053667337	-1.884600E+01
170	  0.053867739	-1.610000E-01	  0.053867739	-1.391400E+02	  0.053867739	5.290000E-01	  0.053867739	-1.862200E+01
171	  0.054068137	-1.620000E-01	  0.054068137	-1.395880E+02	  0.054068137	5.300000E-01	  0.054068137	-1.840000E+01
172	  0.054268539	-1.610000E-01	  0.054268539	-1.400250E+02	  0.054268539	5.270000E-01	  0.054268539	-1.818400E+01
173	  0.054468941	-1.630000E-01	  0.054468941	-1.404850E+02	  0.054468941	5.300000E-01	  0.054468941	-1.795700E+01
174	  0.054669339	-1.640000E-01	  0.054669339	-1.409210E+02	  0.054669339	5.320000E-01	  0.054669339	-1.774200E+01
175	  0.054869737	-1.650000E-01	  0.054869737	-1.413670E+02	  0.054869737	5.340000E-01	  0.054869737	-1.752400E+01
176	  0.055070139	-1.660000E-01	  0.055070139	-1.418080E+02	  0.055070139	5.370000E-01	  0.055070139	-1.730700E+01
177	  0.055270538	-1.680000E-01	  0.055270538	-1.422540E+02	  0.055270538	5.400000E-01	  0.055270538	-1.709000E+01
178	  0.055470940	-1.680000E-01	  0.055470940	-1.426990E+02	  0.055470940	5.390000E-01	  0.055470940	-1.687400E+01
179	  0.055671342	-1.690000E-01	  0.055671342	-1.431410E+02	  0.055671342	5.400000E-01	  0.055671342	-1.665900E+01
180	  0.055871744	-1.700000E-01	  0.055871744	-1.435900E+02	  0.055871744	5.420000E-01	  0.055871744	-1.644200E+01
181	  0.056072142	-1.710000E-01	  0.056072142	-1.440250E+02	  0.056072142	5.450000E-01	  0.056072142	-1.623200E+01
182	  0.056272544	-1.710000E-01	  0.056272544	-1.444700E+02	  0.056272544	5.450000E-01	  0.056272544	-1.601700E+01
183	  0.056472946	-1.730000E-01	  0.056472946	-1.449130E+02	  0.056472946	5.480000E-01	  0.056472946	-1.580400E+01
184	  0.056673344	-1.750000E-01	  0.056673344	-1.453390E+02	  0.056673344	5.530000E-01	  0.056673344	-1.560000E+01
185	  0.056873746	-1.760000E-01	  0.056873746	-1.457870E+02	  0.056873746	5.550000E-01	  0.056873746	-1.538600E+01
186	  0.057074148	-1.750000E-01	  0.057074148	-1.462230E+02	  0.057074148	5.520000E-01	  0.057074148	-1.517800E+01
187	  0.057274550	-1.790000E-01	  0.057274550	-1.466600E+02	  0.057274550	5.620000E-01	  0.057274550	-1.497000E+01
188	  0.057474948	-1.800000E-01	  0.057474948	-1.471010E+02	  0.057474948	5.650000E-01	  0.057474948	-1.476000E+01
189	  0.057675350	-1.820000E-01	  0.057675350	-1.475450E+02	  0.057675350	5.680000E-01	  0.057675350	-1.455000E+01
190	  0.057875752	-1.820000E-01	  0.057875752	-1.479710E+02	  0.057875752	5.690000E-01	  0.057875752	-1.434900E+01
191	  0.058076151	-1.840000E-01	  0.058076151	-1.484140E+02	  0.058076151	5.720000E-01	  0.058076151	-1.414000E+01
192	  0.058276553	-1.850000E-01	  0.058276553	-1.488490E+02	  0.058276553	5.760000E-01	  0.058276553	-1.393500E+01
193	  0.058476955	-1.870000E-01	  0.058476955	-1.492760E+02	  0.058476955	5.790000E-01	  0.058476955	-1.373400E+01
194	  0.058677353	-1.900000E-01	  0.058677353	-1.497180E+02	  0.058677353	5.870000E-01	  0.058677353	-1.352700E+01
195	  0.058877755	-1.910000E-01	  0.058877755	-1.501530E+02	  0.058877755	5.890000E-01	  0.058877755	-1.332300E+01
196	  0.059078157	-1.920000E-01	  0.059078157	-1.505900E+02	  0.059078157	5.910000E-01	  0.059078157	-1.312000E+01
197	  0.059278559	-1.930000E-01	  0.059278559	-1.510230E+02	  0.059278559	5.940000E-01	  0.059278559	-1.291800E+01
198	  0.059478957	-1.960000E-01	  0.059478957	-1.514510E+02	  0.059478957	6.000000E-01	  0.059478957	-1.271900E+01
199	  0.059679359	-1.970000E-01	  0.059679359	-1.518720E+02	  0.059679359	6.040000E-01	  0.059679359	-1.252300E+01
200	  0.059879761	-1.970000E-01	  0.059879761	-1.523050E+02	  0.059879761	6.020000E-01	  0.059879761	-1.232300E+01
201	  0.060080159	-1.980000E-01	  0.060080159	-1.527400E+02	  0.060080159	6.050000E-01	  0.060080159	-1.212200E+01
202	  0.060280561	-2.000000E-01	  0.060280561	-1.531720E+02	  0.060280561	6.080000E-01	  0.060280561	-1.192200E+01
203	  0.060480963	-2.010000E-01	  0.060480963	-1.536080E+02	  0.060480963	6.100000E-01	  0.060480963	-1.172100E+01
204	  0.060681365	-2.030000E-01	  0.060681365	-1.540300E+02	  0.060681365	6.160000E-01	  0.060681365	-1.152700E+01
205	  0.060881764	-2.030000E-01	  0.060881764	-1.544760E+02	  0.060881764	6.160000E-01	  0.060881764	-1.132200E+01
206	  0.061082166	-2.040000E-01	  0.061082166	-1.549040E+02	  0.061082166	6.180000E-01	  0.061082166	-1.112600E+01
207	  0.061282568	-2.050000E-01	  0.061282568	-1.553250E+02	  0.061282568	6.200000E-01	  0.061282568	-1.093400E+01
208	  0.061482966	-2.050000E-01	  0.061482966	-1.557460E+02	  0.061482966	6.170000E-01	  0.061482966	-1.074100E+01
209	  0.061683368	-2.050000E-01	  0.061683368	-1.561770E+02	  0.061683368	6.160000E-01	  0.061683368	-1.054500E+01
210	  0.061883770	-2.070000E-01	  0.061883770	-1.566020E+02	  0.061883770	6.210000E-01	  0.061883770	-1.035100E+01
211	  0.062084168	-2.060000E-01	  0.062084168	-1.570260E+02	  0.062084168	6.180000E-01	  0.062084168	-1.015900E+01
212	  0.062284570	-2.070000E-01	  0.062284570	-1.574540E+02	  0.062284570	6.210000E-01	  0.062284570	-9.964000E+00
213	  0.062484972	-2.010000E-01	  0.062484972	-1.578460E+02	  0.062484972	6.010000E-01	  0.062484972	-9.787000E+00
214	  0.062685370	-2.040000E-01	  0.062685370	-1.582530E+02	  0.062685370	6.100000E-01	  0.062685370	-9.603000E+00
215	  0.062885776	-2.040000E-01	  0.062885776	-1.586920E+02	  0.062885776	6.080000E-01	  0.062885776	-9.404000E+00
216	  0.063086174	-2.040000E-01	  0.063086174	-1.591010E+02	  0.063086174	6.090000E-01	  0.063086174	-9.219000E+00
217	  0.063286573	-2.050000E-01	  0.063286573	-1.595150E+02	  0.063286573	6.110000E-01	  0.063286573	-9.033000E+00
218	  0.063486971	-2.060000E-01	  0.063486971	-1.599510E+02	  0.063486971	6.140000E-01	  0.063486971	-8.836000E+00
219	  0.063687377	-2.070000E-01	  0.063687377	-1.603720E+02	  0.063687377	6.160000E-01	  0.063687377	-8.647000E+00
220	  0.063887775	-2.070000E-01	  0.063887775	-1.607930E+02	  0.063887775	6.140000E-01	  0.063887775	-8.458000E+00
221	  0.064088173	-2.100000E-01	  0.064088173	-1.612010E+02	  0.064088173	6.210000E-01	  0.064088173	-8.275000E+00
222	  0.064288579	-2.100000E-01	  0.064288579	-1.616250E+02	  0.064288579	6.220000E-01	  0.064288579	-8.085000E+00
223	  0.064488977	-2.100000E-01	  0.064488977	-1.620500E+02	  0.064488977	6.220000E-01	  0.064488977	-7.895000E+00
224	  0.064689375	-2.130000E-01	  0.064689375	-1.624640E+02	  0.064689375	6.290000E-01	  0.064689375	-7.710000E+00
225	  0.064889781	-2.140000E-01	  0.064889781	-1.628850E+02	  0.064889781	6.310000E-01	  0.064889781	-7.522000E+00
226	  0.065090179	-2.130000E-01	  0.065090179	-1.633050E+02	  0.065090179	6.280000E-01	  0.065090179	-7.335000E+00
227	  0.065290578	-2.160000E-01	  0.065290578	-1.637100E+02	  0.065290578	6.350000E-01	  0.065290578	-7.154000E+00
228	  0.065490983	-2.170000E-01	  0.065490983	-1.641320E+02	  0.065490983	6.390000E-01	  0.065490983	-6.966000E+00
229	  0.065691382	-2.160000E-01	  0.065691382	-1.645630E+02	  0.065691382	6.340000E-01	  0.065691382	-6.775000E+00
230	  0.065891780	-2.170000E-01	  0.065891780	-1.649750E+02	  0.065891780	6.380000E-01	  0.065891780	-6.592000E+00
231	  0.066092186	-2.190000E-01	  0.066092186	-1.653930E+02	  0.066092186	6.410000E-01	  0.066092186	-6.406000E+00
232	  0.066292584	-2.190000E-01	  0.066292584	-1.657990E+02	  0.066292584	6.420000E-01	  0.066292584	-6.227000E+00
233	  0.066492982	-2.190000E-01	  0.066492982	-1.662220E+02	  0.066492982	6.400000E-01	  0.066492982	-6.039000E+00
234	  0.066693388	-2.190000E-01	  0.066693388	-1.666420E+02	  0.066693388	6.400000E-01	  0.066693388	-5.853000E+00
235	  0.066893786	-2.220000E-01	  0.066893786	-1.670630E+02	  0.066893786	6.500000E-01	  0.066893786	-5.667000E+00
236	  0.067094192	-2.240000E-01	  0.067094192	-1.674680E+02	  0.067094192	6.540000E-01	  0.067094192	-5.488000E+00
237	  0.067294590	-2.240000E-01	  0.067294590	-1.678860E+02	  0.067294590	6.520000E-01	  0.067294590	-5.304000E+00
238	  0.067494988	-2.250000E-01	  0.067494988	-1.683010E+02	  0.067494988	6.540000E-01	  0.067494988	-5.121000E+00
239	  0.067695394	-2.260000E-01	  0.067695394	-1.687120E+02	  0.067695394	6.580000E-01	  0.067695394	-4.940000E+00
240	  0.067895792	-2.260000E-01	  0.067895792	-1.691310E+02	  0.067895792	6.570000E-01	  0.067895792	-4.755000E+00
241	  0.068096191	-2.280000E-01	  0.068096191	-1.695270E+02	  0.068096191	6.620000E-01	  0.068096191	-4.581000E+00
242	  0.068296596	-2.300000E-01	  0.068296596	-1.699400E+02	  0.068296596	6.680000E-01	  0.068296596	-4.399000E+00
243	  0.068496995	-2.300000E-01	  0.068496995	-1.703510E+02	  0.068496995	6.670000E-01	  0.068496995	-4.219000E+00
244	  0.068697393	-2.310000E-01	  0.068697393	-1.707650E+02	  0.068697393	6.710000E-01	  0.068697393	-4.037000E+00
245	  0.068897791	-2.330000E-01	  0.068897791	-1.711740E+02	  0.068897791	6.750000E-01	  0.068897791	-3.857000E+00
246	  0.069098189	-2.340000E-01	  0.069098189	-1.715790E+02	  0.069098189	6.790000E-01	  0.069098189	-3.680000E+00
247	  0.069298595	-2.330000E-01	  0.069298595	-1.719980E+02	  0.069298595	6.740000E-01	  0.069298595	-3.496000E+00
248	  0.069498993	-2.350000E-01	  0.069498993	-1.723930E+02	  0.069498993	6.800000E-01	  0.069498993	-3.323000E+00
249	  0.069699399	-2.350000E-01	  0.069699399	-1.727970E+02	  0.069699399	6.790000E-01	  0.069699399	-3.146000E+00
250	  0.069899797	-2.350000E-01	  0.069899797	-1.732060E+02	  0.069899797	6.800000E-01	  0.069899797	-2.967000E+00
251	  0.070100196	-2.360000E-01	  0.070100196	-1.736080E+02	  0.070100196	6.840000E-01	  0.070100196	-2.791000E+00
252	  0.070300601	-2.360000E-01	  0.070300601	-1.740200E+02	  0.070300601	6.820000E-01	  0.070300601	-2.610000E+00
253	  0.070501000	-2.400000E-01	  0.070501000	-1.744050E+02	  0.070501000	6.940000E-01	  0.070501000	-2.442000E+00
254	  0.070701398	-2.420000E-01	  0.070701398	-1.748140E+02	  0.070701398	6.970000E-01	  0.070701398	-2.263000E+00
255	  0.070901804	-2.420000E-01	  0.070901804	-1.752090E+02	  0.070901804	6.990000E-01	  0.070901804	-2.091000E+00
256	  0.071102202	-2.420000E-01	  0.071102202	-1.756180E+02	  0.071102202	6.980000E-01	  0.071102202	-1.912000E+00
257	  0.071302600	-2.420000E-01	  0.071302600	-1.760170E+02	  0.071302600	6.990000E-01	  0.071302600	-1.737000E+00
258	  0.071503006	-2.440000E-01	  0.071503006	-1.764250E+02	  0.071503006	7.030000E-01	  0.071503006	-1.559000E+00
259	  0.071703404	-2.430000E-01	  0.071703404	-1.768160E+02	  0.071703404	7.020000E-01	  0.071703404	-1.389000E+00
260	  0.071903802	-2.450000E-01	  0.071903802	-1.772100E+02	  0.071903802	7.050000E-01	  0.071903802	-1.217000E+00
261	  0.072104208	-2.450000E-01	  0.072104208	-1.776260E+02	  0.072104208	7.060000E-01	  0.072104208	-1.035000E+00
262	  0.072304606	-2.450000E-01	  0.072304606	-1.780100E+02	  0.072304606	7.080000E-01	  0.072304606	-8.670000E-01
263	  0.072505005	-2.460000E-01	  0.072505005	-1.784050E+02	  0.072505005	7.100000E-01	  0.072505005	-6.950000E-01
264	  0.072705410	-2.460000E-01	  0.072705410	-1.788000E+02	  0.072705410	7.080000E-01	  0.072705410	-5.230000E-01
265	  0.072905809	-2.470000E-01	  0.072905809	-1.791930E+02	  0.072905809	7.120000E-01	  0.072905809	-3.510000E-01
266	  0.073106214	-2.470000E-01	  0.073106214	-1.795930E+02	  0.073106214	7.130000E-01	  0.073106214	-1.770000E-01
267	  0.073306613	-2.470000E-01	  0.073306613	-1.799800E+02	  0.073306613	7.110000E-01	  0.073306613	-8.000000E-03
268	  0.073507011	-2.490000E-01	  0.073507011	1.796060E+02	  0.073507011	7.170000E-01	  0.073507011	1.710000E-01
269	  0.073707417	-2.490000E-01	  0.073707417	1.792190E+02	  0.073707417	7.190000E-01	  0.073707417	3.400000E-01
270	  0.073907815	-2.500000E-01	  0.073907815	1.788320E+02	  0.073907815	7.210000E-01	  0.073907815	5.090000E-01
271	  0.074108213	-2.480000E-01	  0.074108213	1.784430E+02	  0.074108213	7.150000E-01	  0.074108213	6.790000E-01
272	  0.074308619	-2.500000E-01	  0.074308619	1.780370E+02	  0.074308619	7.210000E-01	  0.074308619	8.560000E-01
273	  0.074509017	-2.500000E-01	  0.074509017	1.776550E+02	  0.074509017	7.200000E-01	  0.074509017	1.022000E+00
274	  0.074709415	-2.490000E-01	  0.074709415	1.772670E+02	  0.074709415	7.190000E-01	  0.074709415	1.192000E+00
275	  0.074909821	-2.490000E-01	  0.074909821	1.768590E+02	  0.074909821	7.190000E-01	  0.074909821	1.370000E+00
276	  0.075110219	-2.500000E-01	  0.075110219	1.764880E+02	  0.075110219	7.210000E-01	  0.075110219	1.532000E+00
277	  0.075310618	-2.510000E-01	  0.075310618	1.760980E+02	  0.075310618	7.240000E-01	  0.075310618	1.702000E+00
278	  0.075511023	-2.500000E-01	  0.075511023	1.757120E+02	  0.075511023	7.200000E-01	  0.075511023	1.871000E+00
279	  0.075711422	-2.520000E-01	  0.075711422	1.753200E+02	  0.075711422	7.270000E-01	  0.075711422	2.042000E+00
280	  0.075911827	-2.510000E-01	  0.075911827	1.749280E+02	  0.075911827	7.250000E-01	  0.075911827	2.213000E+00
281	  0.076112226	-2.530000E-01	  0.076112226	1.745480E+02	  0.076112226	7.300000E-01	  0.076112226	2.379000E+00
282	  0.076312624	-2.540000E-01	  0.076312624	1.741640E+02	  0.076312624	7.320000E-01	  0.076312624	2.547000E+00
283	  0.076513030	-2.540000E-01	  0.076513030	1.737780E+02	  0.076513030	7.350000E-01	  0.076513030	2.716000E+00
284	  0.076713428	-2.560000E-01	  0.076713428	1.733930E+02	  0.076713428	7.400000E-01	  0.076713428	2.885000E+00
285	  0.076913826	-2.580000E-01	  0.076913826	1.730110E+02	  0.076913826	7.450000E-01	  0.076913826	3.052000E+00
286	  0.077114232	-2.590000E-01	  0.077114232	1.726220E+02	  0.077114232	7.500000E-01	  0.077114232	3.222000E+00
287	  0.077314630	-2.600000E-01	  0.077314630	1.722360E+02	  0.077314630	7.520000E-01	  0.077314630	3.391000E+00
288	  0.077515028	-2.630000E-01	  0.077515028	1.718480E+02	  0.077515028	7.600000E-01	  0.077515028	3.561000E+00
289	  0.077715434	-2.610000E-01	  0.077715434	1.714720E+02	  0.077715434	7.570000E-01	  0.077715434	3.727000E+00
290	  0.077915832	-2.650000E-01	  0.077915832	1.710820E+02	  0.077915832	7.680000E-01	  0.077915832	3.897000E+00
291	  0.078116231	-2.660000E-01	  0.078116231	1.707070E+02	  0.078116231	7.710000E-01	  0.078116231	4.062000E+00
292	  0.078316636	-2.670000E-01	  0.078316636	1.703290E+02	  0.078316636	7.740000E-01	  0.078316636	4.228000E+00
293	  0.078517035	-2.680000E-01	  0.078517035	1.699370E+02	  0.078517035	7.770000E-01	  0.078517035	4.400000E+00
294	  0.078717433	-2.690000E-01	  0.078717433	1.695490E+02	  0.078717433	7.830000E-01	  0.078717433	4.571000E+00
295	  0.078917839	-2.710000E-01	  0.078917839	1.691660E+02	  0.078917839	7.870000E-01	  0.078917839	4.739000E+00
296	  0.079118237	-2.730000E-01	  0.079118237	1.687810E+02	  0.079118237	7.940000E-01	  0.079118237	4.909000E+00
297	  0.079318643	-2.730000E-01	  0.079318643	1.684040E+02	  0.079318643	7.950000E-01	  0.079318643	5.075000E+00
298	  0.079519041	-2.740000E-01	  0.079519041	1.680170E+02	  0.079519041	7.990000E-01	  0.079519041	5.245000E+00
299	  0.079719439	-2.770000E-01	  0.079719439	1.676380E+02	  0.079719439	8.070000E-01	  0.079719439	5.413000E+00
300	  0.079919845	-2.770000E-01	  0.079919845	1.672630E+02	  0.079919845	8.090000E-01	  0.079919845	5.579000E+00
301	  0.080120243	-2.800000E-01	  0.080120243	1.668690E+02	  0.080120243	8.170000E-01	  0.080120243	5.752000E+00
302	  0.080320641	-2.800000E-01	  0.080320641	1.664860E+02	  0.080320641	8.180000E-01	  0.080320641	5.922000E+00
303	  0.080521047	-2.800000E-01	  0.080521047	1.661180E+02	  0.080521047	8.190000E-01	  0.080521047	6.085000E+00
304	  0.080721445	-2.810000E-01	  0.080721445	1.657300E+02	  0.080721445	8.230000E-01	  0.080721445	6.256000E+00
305	  0.080921844	-2.830000E-01	  0.080921844	1.653560E+02	  0.080921844	8.290000E-01	  0.080921844	6.422000E+00
306	  0.081122249	-2.840000E-01	  0.081122249	1.649790E+02	  0.081122249	8.340000E-01	  0.081122249	6.589000E+00
307	  0.081322648	-2.850000E-01	  0.081322648	1.645900E+02	  0.081322648	8.370000E-01	  0.081322648	6.762000E+00
308	  0.081523046	-2.860000E-01	  0.081523046	1.642190E+02	  0.081523046	8.400000E-01	  0.081523046	6.927000E+00
309	  0.081723452	-2.880000E-01	  0.081723452	1.638280E+02	  0.081723452	8.460000E-01	  0.081723452	7.101000E+00
310	  0.081923850	-2.880000E-01	  0.081923850	1.634550E+02	  0.081923850	8.480000E-01	  0.081923850	7.267000E+00
311	  0.082124248	-2.900000E-01	  0.082124248	1.630820E+02	  0.082124248	8.550000E-01	  0.082124248	7.433000E+00
312	  0.082324654	-2.900000E-01	  0.082324654	1.627070E+02	  0.082324654	8.550000E-01	  0.082324654	7.601000E+00
313	  0.082525052	-2.920000E-01	  0.082525052	1.623280E+02	  0.082525052	8.620000E-01	  0.082525052	7.769000E+00
314	  0.082725458	-2.920000E-01	  0.082725458	1.619470E+02	  0.082725458	8.630000E-01	  0.082725458	7.940000E+00
315	  0.082925856	-2.950000E-01	  0.082925856	1.615660E+02	  0.082925856	8.730000E-01	  0.082925856	8.110000E+00
316	  0.083126254	-2.960000E-01	  0.083126254	1.611980E+02	  0.083126254	8.750000E-01	  0.083126254	8.275000E+00
317	  0.083326660	-2.960000E-01	  0.083326660	1.608220E+02	  0.083326660	8.780000E-01	  0.083326660	8.444000E+00
318	  0.083527058	-2.980000E-01	  0.083527058	1.604440E+02	  0.083527058	8.830000E-01	  0.083527058	8.613000E+00
319	  0.083727457	-2.980000E-01	  0.083727457	1.600730E+02	  0.083727457	8.860000E-01	  0.083727457	8.780000E+00
320	  0.083927862	-3.000000E-01	  0.083927862	1.597050E+02	  0.083927862	8.930000E-01	  0.083927862	8.946000E+00
321	  0.084128261	-3.000000E-01	  0.084128261	1.593280E+02	  0.084128261	8.930000E-01	  0.084128261	9.115000E+00
322	  0.084328659	-3.010000E-01	  0.084328659	1.589550E+02	  0.084328659	8.970000E-01	  0.084328659	9.284000E+00
323	  0.084529065	-3.020000E-01	  0.084529065	1.585930E+02	  0.084529065	9.000000E-01	  0.084529065	9.447000E+00
324	  0.084729463	-3.020000E-01	  0.084729463	1.582120E+02	  0.084729463	9.020000E-01	  0.084729463	9.619000E+00
325	  0.084929861	-3.040000E-01	  0.084929861	1.578420E+02	  0.084929861	9.100000E-01	  0.084929861	9.787000E+00
326	  0.085130267	-3.050000E-01	  0.085130267	1.574790E+02	  0.085130267	9.120000E-01	  0.085130267	9.951000E+00
327	  0.085330658	-3.040000E-01	  0.085330658	1.571070E+02	  0.085330658	9.110000E-01	  0.085330658	1.012000E+01
328	  0.085531056	-3.070000E-01	  0.085531056	1.567400E+02	  0.085531056	9.210000E-01	  0.085531056	1.028700E+01
329	  0.085731462	-3.070000E-01	  0.085731462	1.563680E+02	  0.085731462	9.230000E-01	  0.085731462	1.045600E+01
330	  0.085931860	-3.080000E-01	  0.085931860	1.560020E+02	  0.085931860	9.270000E-01	  0.085931860	1.062300E+01
331	  0.086132258	-3.080000E-01	  0.086132258	1.556410E+02	  0.086132258	9.290000E-01	  0.086132258	1.078800E+01
332	  0.086332664	-3.090000E-01	  0.086332664	1.552690E+02	  0.086332664	9.340000E-01	  0.086332664	1.095700E+01
333	  0.086533062	-3.090000E-01	  0.086533062	1.549030E+02	  0.086533062	9.350000E-01	  0.086533062	1.112400E+01
334	  0.086733460	-3.100000E-01	  0.086733460	1.545400E+02	  0.086733460	9.380000E-01	  0.086733460	1.129100E+01
335	  0.086933866	-3.120000E-01	  0.086933866	1.541690E+02	  0.086933866	9.470000E-01	  0.086933866	1.146100E+01
336	  0.087134264	-3.120000E-01	  0.087134264	1.538050E+02	  0.087134264	9.480000E-01	  0.087134264	1.162800E+01
337	  0.087334670	-3.120000E-01	  0.087334670	1.534330E+02	  0.087334670	9.500000E-01	  0.087334670	1.180000E+01
338	  0.087535068	-3.130000E-01	  0.087535068	1.530790E+02	  0.087535068	9.530000E-01	  0.087535068	1.196300E+01
339	  0.087735467	-3.140000E-01	  0.087735467	1.527150E+02	  0.087735467	9.590000E-01	  0.087735467	1.213100E+01
340	  0.087935872	-3.150000E-01	  0.087935872	1.523480E+02	  0.087935872	9.630000E-01	  0.087935872	1.230000E+01
341	  0.088136271	-3.170000E-01	  0.088136271	1.519860E+02	  0.088136271	9.700000E-01	  0.088136271	1.246800E+01
342	  0.088336669	-3.150000E-01	  0.088336669	1.516210E+02	  0.088336669	9.660000E-01	  0.088336669	1.263700E+01
343	  0.088537075	-3.190000E-01	  0.088537075	1.512660E+02	  0.088537075	9.780000E-01	  0.088537075	1.280200E+01
344	  0.088737473	-3.170000E-01	  0.088737473	1.509000E+02	  0.088737473	9.750000E-01	  0.088737473	1.297200E+01
345	  0.088937871	-3.200000E-01	  0.088937871	1.505450E+02	  0.088937871	9.850000E-01	  0.088937871	1.313700E+01
346	  0.089138277	-3.200000E-01	  0.089138277	1.501830E+02	  0.089138277	9.870000E-01	  0.089138277	1.330700E+01
347	  0.089338675	-3.210000E-01	  0.089338675	1.498230E+02	  0.089338675	9.930000E-01	  0.089338675	1.347500E+01
348	  0.089539073	-3.200000E-01	  0.089539073	1.494720E+02	  0.089539073	9.920000E-01	  0.089539073	1.363900E+01
349	  0.089739479	-3.230000E-01	  0.089739479	1.491100E+02	  0.089739479	1.001000E+00	  0.089739479	1.380900E+01
350	  0.089939877	-3.230000E-01	  0.089939877	1.487500E+02	  0.089939877	1.002000E+00	  0.089939877	1.397800E+01
351	  0.090140276	-3.260000E-01	  0.090140276	1.483920E+02	  0.090140276	1.013000E+00	  0.090140276	1.414600E+01
352	  0.090340681	-3.250000E-01	  0.090340681	1.480370E+02	  0.090340681	1.012000E+00	  0.090340681	1.431400E+01
353	  0.090541080	-3.270000E-01	  0.090541080	1.476810E+02	  0.090541080	1.022000E+00	  0.090541080	1.448200E+01
354	  0.090741485	-3.260000E-01	  0.090741485	1.473260E+02	  0.090741485	1.019000E+00	  0.090741485	1.465000E+01
355	  0.090941884	-3.300000E-01	  0.090941884	1.469670E+02	  0.090941884	1.034000E+00	  0.090941884	1.482000E+01
356	  0.091142282	-3.300000E-01	  0.091142282	1.466110E+02	  0.091142282	1.035000E+00	  0.091142282	1.498900E+01
357	  0.091342688	-3.310000E-01	  0.091342688	1.462500E+02	  0.091342688	1.041000E+00	  0.091342688	1.516000E+01
358	  0.091543086	-3.320000E-01	  0.091543086	1.459080E+02	  0.091543086	1.045000E+00	  0.091543086	1.532400E+01
359	  0.091743484	-3.320000E-01	  0.091743484	1.455440E+02	  0.091743484	1.047000E+00	  0.091743484	1.549700E+01
360	  0.091943890	-3.330000E-01	  0.091943890	1.451850E+02	  0.091943890	1.055000E+00	  0.091943890	1.566900E+01
361	  0.092144288	-3.330000E-01	  0.092144288	1.448320E+02	  0.092144288	1.056000E+00	  0.092144288	1.583800E+01
362	  0.092344686	-3.360000E-01	  0.092344686	1.444850E+02	  0.092344686	1.067000E+00	  0.092344686	1.600500E+01
363	  0.092545092	-3.360000E-01	  0.092545092	1.441100E+02	  0.092545092	1.070000E+00	  0.092545092	1.618600E+01
364	  0.092745490	-3.370000E-01	  0.092745490	1.437650E+02	  0.092745490	1.075000E+00	  0.092745490	1.635200E+01
365	  0.092945889	-3.380000E-01	  0.092945889	1.434170E+02	  0.092945889	1.080000E+00	  0.092945889	1.652000E+01
366	  0.093146294	-3.400000E-01	  0.093146294	1.430600E+02	  0.093146294	1.088000E+00	  0.093146294	1.669300E+01
367	  0.093346693	-3.380000E-01	  0.093346693	1.427010E+02	  0.093346693	1.085000E+00	  0.093346693	1.686700E+01
368	  0.093547091	-3.410000E-01	  0.093547091	1.423560E+02	  0.093547091	1.097000E+00	  0.093547091	1.703500E+01
369	  0.093747497	-3.410000E-01	  0.093747497	1.419880E+02	  0.093747497	1.098000E+00	  0.093747497	1.721400E+01
370	  0.093947895	-3.430000E-01	  0.093947895	1.416370E+02	  0.093947895	1.106000E+00	  0.093947895	1.738500E+01
371	  0.094148301	-3.410000E-01	  0.094148301	1.412770E+02	  0.094148301	1.103000E+00	  0.094148301	1.756200E+01
372	  0.094348699	-3.440000E-01	  0.094348699	1.409340E+02	  0.094348699	1.117000E+00	  0.094348699	1.773000E+01
373	  0.094549097	-3.420000E-01	  0.094549097	1.405760E+02	  0.094549097	1.113000E+00	  0.094549097	1.790600E+01
374	  0.094749503	-3.420000E-01	  0.094749503	1.402200E+02	  0.094749503	1.115000E+00	  0.094749503	1.808100E+01
375	  0.094949901	-3.440000E-01	  0.094949901	1.398600E+02	  0.094949901	1.124000E+00	  0.094949901	1.825900E+01
376	  0.095150299	-3.420000E-01	  0.095150299	1.395180E+02	  0.095150299	1.119000E+00	  0.095150299	1.842800E+01
377	  0.095350705	-3.450000E-01	  0.095350705	1.391580E+02	  0.095350705	1.131000E+00	  0.095350705	1.860700E+01
378	  0.095551103	-3.450000E-01	  0.095551103	1.388130E+02	  0.095551103	1.133000E+00	  0.095551103	1.877800E+01
379	  0.095751502	-3.460000E-01	  0.095751502	1.384540E+02	  0.095751502	1.140000E+00	  0.095751502	1.895700E+01
380	  0.095951907	-3.470000E-01	  0.095951907	1.381060E+02	  0.095951907	1.146000E+00	  0.095951907	1.913100E+01
381	  0.096152306	-3.450000E-01	  0.096152306	1.377510E+02	  0.096152306	1.142000E+00	  0.096152306	1.930800E+01
382	  0.096352704	-3.460000E-01	  0.096352704	1.374060E+02	  0.096352704	1.147000E+00	  0.096352704	1.948100E+01
383	  0.096553110	-3.470000E-01	  0.096553110	1.370450E+02	  0.096553110	1.153000E+00	  0.096553110	1.966300E+01
384	  0.096753508	-3.480000E-01	  0.096753508	1.367000E+02	  0.096753508	1.159000E+00	  0.096753508	1.983700E+01
385	  0.096953906	-3.460000E-01	  0.096953906	1.363520E+02	  0.096953906	1.158000E+00	  0.096953906	2.001300E+01
386	  0.097154312	-3.470000E-01	  0.097154312	1.359950E+02	  0.097154312	1.162000E+00	  0.097154312	2.019400E+01
387	  0.097354710	-3.480000E-01	  0.097354710	1.356560E+02	  0.097354710	1.170000E+00	  0.097354710	2.036600E+01
388	  0.097555116	-3.490000E-01	  0.097555116	1.353060E+02	  0.097555116	1.176000E+00	  0.097555116	2.054400E+01
389	  0.097755514	-3.480000E-01	  0.097755514	1.349570E+02	  0.097755514	1.176000E+00	  0.097755514	2.072200E+01
390	  0.097955912	-3.500000E-01	  0.097955912	1.346070E+02	  0.097955912	1.183000E+00	  0.097955912	2.090100E+01
391	  0.098156318	-3.500000E-01	  0.098156318	1.342610E+02	  0.098156318	1.186000E+00	  0.098156318	2.107900E+01
392	  0.098356716	-3.490000E-01	  0.098356716	1.339200E+02	  0.098356716	1.187000E+00	  0.098356716	2.125400E+01
393	  0.098557115	-3.490000E-01	  0.098557115	1.335670E+02	  0.098557115	1.189000E+00	  0.098557115	2.143600E+01
394	  0.098757520	-3.500000E-01	  0.098757520	1.332210E+02	  0.098757520	1.198000E+00	  0.098757520	2.161500E+01
395	  0.098957919	-3.510000E-01	  0.098957919	1.328800E+02	  0.098957919	1.203000E+00	  0.098957919	2.179200E+01
396	  0.099158317	-3.510000E-01	  0.099158317	1.325380E+02	  0.099158317	1.206000E+00	  0.099158317	2.196900E+01
397	  0.099358723	-3.520000E-01	  0.099358723	1.321980E+02	  0.099358723	1.212000E+00	  0.099358723	2.214700E+01
398	  0.099559121	-3.530000E-01	  0.099559121	1.318550E+02	  0.099559121	1.221000E+00	  0.099559121	2.232500E+01
399	  0.099759519	-3.530000E-01	  0.099759519	1.315060E+02	  0.099759519	1.223000E+00	  0.099759519	2.250800E+01
400	  0.099959925	-3.580000E-01	  0.099959925	1.311610E+02	  0.099959925	1.243000E+00	  0.099959925	2.268900E+01
401	  0.100160323	-3.590000E-01	  0.100160323	1.308370E+02	  0.100160323	1.252000E+00	  0.100160323	2.285900E+01
402	  0.100360721	-3.580000E-01	  0.100360721	1.304960E+02	  0.100360721	1.252000E+00	  0.100360721	2.304000E+01
403	  0.100561127	-3.590000E-01	  0.100561127	1.301440E+02	  0.100561127	1.258000E+00	  0.100561127	2.322600E+01
404	  0.100761525	-3.590000E-01	  0.100761525	1.298070E+02	  0.100761525	1.262000E+00	  0.100761525	2.340500E+01
405	  0.100961931	-3.580000E-01	  0.100961931	1.294830E+02	  0.100961931	1.260000E+00	  0.100961931	2.357700E+01
406	  0.101162329	-3.610000E-01	  0.101162329	1.291360E+02	  0.101162329	1.274000E+00	  0.101162329	2.376300E+01
407	  0.101362728	-3.570000E-01	  0.101362728	1.287850E+02	  0.101362728	1.266000E+00	  0.101362728	2.395100E+01
408	  0.101563133	-3.610000E-01	  0.101563133	1.284450E+02	  0.101563133	1.282000E+00	  0.101563133	2.413300E+01
409	  0.101763532	-3.590000E-01	  0.101763532	1.281110E+02	  0.101763532	1.278000E+00	  0.101763532	2.431300E+01
410	  0.101963930	-3.570000E-01	  0.101963930	1.277750E+02	  0.101963930	1.277000E+00	  0.101963930	2.449500E+01
411	  0.102164336	-3.620000E-01	  0.102164336	1.274590E+02	  0.102164336	1.295000E+00	  0.102164336	2.466600E+01
412	  0.102364734	-3.610000E-01	  0.102364734	1.270850E+02	  0.102364734	1.296000E+00	  0.102364734	2.486900E+01
413	  0.102565132	-3.630000E-01	  0.102565132	1.267530E+02	  0.102565132	1.310000E+00	  0.102565132	2.504900E+01
414	  0.102765530	-3.620000E-01	  0.102765530	1.264370E+02	  0.102765530	1.310000E+00	  0.102765530	2.522200E+01
415	  0.102965929	-3.640000E-01	  0.102965929	1.260900E+02	  0.102965929	1.320000E+00	  0.102965929	2.541200E+01
416	  0.103166327	-3.610000E-01	  0.103166327	1.257640E+02	  0.103166327	1.313000E+00	  0.103166327	2.559200E+01
417	  0.103366733	-3.650000E-01	  0.103366733	1.254110E+02	  0.103366733	1.332000E+00	  0.103366733	2.578500E+01
418	  0.103567131	-3.600000E-01	  0.103567131	1.250900E+02	  0.103567131	1.318000E+00	  0.103567131	2.596300E+01
419	  0.103767529	-3.640000E-01	  0.103767529	1.247590E+02	  0.103767529	1.334000E+00	  0.103767529	2.614700E+01
420	  0.103967935	-3.630000E-01	  0.103967935	1.244180E+02	  0.103967935	1.336000E+00	  0.103967935	2.633600E+01
421	  0.104168333	-3.620000E-01	  0.104168333	1.240850E+02	  0.104168333	1.336000E+00	  0.104168333	2.652200E+01
422	  0.104368731	-3.650000E-01	  0.104368731	1.237350E+02	  0.104368731	1.352000E+00	  0.104368731	2.671800E+01
423	  0.104569137	-3.630000E-01	  0.104569137	1.234230E+02	  0.104569137	1.349000E+00	  0.104569137	2.689300E+01
424	  0.104769535	-3.660000E-01	  0.104769535	1.231010E+02	  0.104769535	1.364000E+00	  0.104769535	2.707400E+01
425	  0.104969934	-3.620000E-01	  0.104969934	1.227440E+02	  0.104969934	1.353000E+00	  0.104969934	2.727700E+01
426	  0.105170339	-3.640000E-01	  0.105170339	1.224220E+02	  0.105170339	1.366000E+00	  0.105170339	2.745900E+01
427	  0.105370738	-3.670000E-01	  0.105370738	1.220700E+02	  0.105370738	1.382000E+00	  0.105370738	2.765800E+01
428	  0.105571143	-3.680000E-01	  0.105571143	1.217430E+02	  0.105571143	1.387000E+00	  0.105571143	2.784500E+01
429	  0.105771542	-3.690000E-01	  0.105771542	1.214130E+02	  0.105771542	1.396000E+00	  0.105771542	2.803400E+01
430	  0.105971940	-3.650000E-01	  0.105971940	1.211020E+02	  0.105971940	1.388000E+00	  0.105971940	2.821300E+01
431	  0.106172346	-3.650000E-01	  0.106172346	1.207500E+02	  0.106172346	1.392000E+00	  0.106172346	2.841500E+01
432	  0.106372744	-3.680000E-01	  0.106372744	1.204210E+02	  0.106372744	1.407000E+00	  0.106372744	2.860500E+01
433	  0.106573142	-3.700000E-01	  0.106573142	1.200880E+02	  0.106573142	1.420000E+00	  0.106573142	2.879800E+01
434	  0.106773548	-3.710000E-01	  0.106773548	1.197660E+02	  0.106773548	1.426000E+00	  0.106773548	2.898600E+01
435	  0.106973946	-3.690000E-01	  0.106973946	1.194340E+02	  0.106973946	1.427000E+00	  0.106973946	2.917900E+01
436	  0.107174344	-3.700000E-01	  0.107174344	1.190890E+02	  0.107174344	1.434000E+00	  0.107174344	2.938100E+01
437	  0.107374750	-3.700000E-01	  0.107374750	1.187630E+02	  0.107374750	1.438000E+00	  0.107374750	2.957300E+01
438	  0.107575148	-3.700000E-01	  0.107575148	1.184350E+02	  0.107575148	1.443000E+00	  0.107575148	2.976600E+01
439	  0.107775547	-3.680000E-01	  0.107775547	1.181010E+02	  0.107775547	1.441000E+00	  0.107775547	2.996400E+01
440	  0.107975952	-3.730000E-01	  0.107975952	1.177770E+02	  0.107975952	1.464000E+00	  0.107975952	3.015600E+01
441	  0.108176351	-3.720000E-01	  0.108176351	1.174440E+02	  0.108176351	1.467000E+00	  0.108176351	3.035400E+01
442	  0.108376749	-3.720000E-01	  0.108376749	1.171030E+02	  0.108376749	1.473000E+00	  0.108376749	3.055800E+01
443	  0.108577155	-3.700000E-01	  0.108577155	1.167840E+02	  0.108577155	1.468000E+00	  0.108577155	3.075000E+01
444	  0.108777553	-3.710000E-01	  0.108777553	1.164470E+02	  0.108777553	1.480000E+00	  0.108777553	3.095200E+01
445	  0.108977959	-3.720000E-01	  0.108977959	1.161340E+02	  0.108977959	1.488000E+00	  0.108977959	3.114200E+01
446	  0.109178357	-3.740000E-01	  0.109178357	1.157970E+02	  0.109178357	1.501000E+00	  0.109178357	3.134600E+01
447	  0.109378755	-3.710000E-01	  0.109378755	1.154900E+02	  0.109378755	1.494000E+00	  0.109378755	3.153300E+01
448	  0.109579161	-3.770000E-01	  0.109579161	1.151400E+02	  0.109579161	1.523000E+00	  0.109579161	3.174600E+01
449	  0.109779559	-3.730000E-01	  0.109779559	1.148480E+02	  0.109779559	1.511000E+00	  0.109779559	3.192500E+01
450	  0.109979957	-3.740000E-01	  0.109979957	1.144980E+02	  0.109979957	1.523000E+00	  0.109979957	3.214000E+01
451	  0.110180363	-3.710000E-01	  0.110180363	1.141780E+02	  0.110180363	1.518000E+00	  0.110180363	3.233800E+01
452	  0.110380761	-3.740000E-01	  0.110380761	1.138380E+02	  0.110380761	1.533000E+00	  0.110380761	3.254900E+01
453	  0.110581160	-3.730000E-01	  0.110581160	1.135100E+02	  0.110581160	1.537000E+00	  0.110581160	3.275300E+01
454	  0.110781565	-3.710000E-01	  0.110781565	1.132070E+02	  0.110781565	1.533000E+00	  0.110781565	3.294200E+01
455	  0.110981964	-3.700000E-01	  0.110981964	1.128940E+02	  0.110981964	1.536000E+00	  0.110981964	3.313800E+01
456	  0.111182362	-3.710000E-01	  0.111182362	1.125570E+02	  0.111182362	1.543000E+00	  0.111182362	3.335000E+01
457	  0.111382768	-3.730000E-01	  0.111382768	1.122400E+02	  0.111382768	1.558000E+00	  0.111382768	3.355000E+01
458	  0.111583166	-3.720000E-01	  0.111583166	1.118970E+02	  0.111583166	1.561000E+00	  0.111583166	3.376700E+01
459	  0.111783572	-3.730000E-01	  0.111783572	1.115930E+02	  0.111783572	1.571000E+00	  0.111783572	3.396100E+01
460	  0.111983970	-3.720000E-01	  0.111983970	1.112660E+02	  0.111983970	1.573000E+00	  0.111983970	3.417000E+01
461	  0.112184368	-3.740000E-01	  0.112184368	1.109540E+02	  0.112184368	1.587000E+00	  0.112184368	3.436900E+01
462	  0.112384774	-3.710000E-01	  0.112384774	1.106270E+02	  0.112384774	1.580000E+00	  0.112384774	3.458000E+01
463	  0.112585172	-3.750000E-01	  0.112585172	1.103130E+02	  0.112585172	1.604000E+00	  0.112585172	3.478200E+01
464	  0.112785570	-3.720000E-01	  0.112785570	1.099960E+02	  0.112785570	1.597000E+00	  0.112785570	3.498800E+01
465	  0.112985976	-3.730000E-01	  0.112985976	1.096550E+02	  0.112985976	1.608000E+00	  0.112985976	3.521000E+01
466	  0.113186374	-3.770000E-01	  0.113186374	1.093660E+02	  0.113186374	1.630000E+00	  0.113186374	3.539800E+01
467	  0.113386773	-3.750000E-01	  0.113386773	1.090320E+02	  0.113386773	1.629000E+00	  0.113386773	3.561700E+01
468	  0.113587178	-3.770000E-01	  0.113587178	1.087260E+02	  0.113587178	1.645000E+00	  0.113587178	3.581900E+01
469	  0.113787577	-3.760000E-01	  0.113787577	1.083820E+02	  0.113787577	1.648000E+00	  0.113787577	3.604600E+01
470	  0.113987975	-3.760000E-01	  0.113987975	1.080880E+02	  0.113987975	1.651000E+00	  0.113987975	3.624200E+01
471	  0.114188381	-3.750000E-01	  0.114188381	1.077690E+02	  0.114188381	1.655000E+00	  0.114188381	3.645500E+01
472	  0.114388779	-3.750000E-01	  0.114388779	1.074220E+02	  0.114388779	1.661000E+00	  0.114388779	3.668700E+01
473	  0.114589177	-3.770000E-01	  0.114589177	1.071280E+02	  0.114589177	1.677000E+00	  0.114589177	3.688400E+01
474	  0.114789583	-3.780000E-01	  0.114789583	1.068190E+02	  0.114789583	1.690000E+00	  0.114789583	3.709200E+01
475	  0.114989981	-3.760000E-01	  0.114989981	1.064880E+02	  0.114989981	1.685000E+00	  0.114989981	3.731700E+01
476	  0.115190387	-3.770000E-01	  0.115190387	1.061880E+02	  0.115190387	1.700000E+00	  0.115190387	3.752100E+01
477	  0.115390785	-3.790000E-01	  0.115390785	1.058740E+02	  0.115390785	1.712000E+00	  0.115390785	3.773500E+01
478	  0.115591183	-3.800000E-01	  0.115591183	1.055470E+02	  0.115591183	1.724000E+00	  0.115591183	3.795900E+01
479	  0.115791589	-3.810000E-01	  0.115791589	1.052280E+02	  0.115791589	1.739000E+00	  0.115791589	3.817800E+01
480	  0.115991987	-3.770000E-01	  0.115991987	1.049090E+02	  0.115991987	1.726000E+00	  0.115991987	3.840000E+01
481	  0.116192386	-3.800000E-01	  0.116192386	1.046170E+02	  0.116192386	1.749000E+00	  0.116192386	3.860200E+01
482	  0.116392791	-3.800000E-01	  0.116392791	1.042860E+02	  0.116392791	1.753000E+00	  0.116392791	3.883300E+01
483	  0.116593190	-3.780000E-01	  0.116593190	1.039650E+02	  0.116593190	1.754000E+00	  0.116593190	3.905800E+01
484	  0.116793588	-3.800000E-01	  0.116793588	1.036740E+02	  0.116793588	1.771000E+00	  0.116793588	3.926300E+01
485	  0.116993994	-3.810000E-01	  0.116993994	1.033360E+02	  0.116993994	1.781000E+00	  0.116993994	3.950100E+01
486	  0.117194392	-3.790000E-01	  0.117194392	1.030260E+02	  0.117194392	1.781000E+00	  0.117194392	3.972100E+01
487	  0.117394790	-3.820000E-01	  0.117394790	1.027270E+02	  0.117394790	1.804000E+00	  0.117394790	3.993400E+01
488	  0.117595196	-3.830000E-01	  0.117595196	1.024050E+02	  0.117595196	1.818000E+00	  0.117595196	4.016400E+01
489	  0.117795594	-3.800000E-01	  0.117795594	1.020920E+02	  0.117795594	1.808000E+00	  0.117795594	4.039000E+01
490	  0.117995992	-3.830000E-01	  0.117995992	1.017720E+02	  0.117995992	1.832000E+00	  0.117995992	4.062000E+01
491	  0.118196398	-3.810000E-01	  0.118196398	1.014680E+02	  0.118196398	1.829000E+00	  0.118196398	4.084200E+01
492	  0.118396796	-3.840000E-01	  0.118396796	1.011500E+02	  0.118396796	1.854000E+00	  0.118396796	4.107200E+01
493	  0.118597202	-3.820000E-01	  0.118597202	1.008320E+02	  0.118597202	1.850000E+00	  0.118597202	4.130600E+01
494	  0.118797600	-3.820000E-01	  0.118797600	1.005290E+02	  0.118797600	1.861000E+00	  0.118797600	4.152800E+01
495	  0.118997999	-3.800000E-01	  0.118997999	1.002130E+02	  0.118997999	1.858000E+00	  0.118997999	4.176200E+01
496	  0.119198404	-3.800000E-01	  0.119198404	9.991100E+01	  0.119198404	1.866000E+00	  0.119198404	4.198600E+01
497	  0.119398803	-3.790000E-01	  0.119398803	9.958400E+01	  0.119398803	1.872000E+00	  0.119398803	4.223000E+01
498	  0.119599201	-3.790000E-01	  0.119599201	9.926100E+01	  0.119599201	1.882000E+00	  0.119599201	4.247100E+01
499	  0.119799607	-3.810000E-01	  0.119799607	9.896500E+01	  0.119799607	1.899000E+00	  0.119799607	4.269400E+01
500	  0.120000005	-3.820000E-01	  0.120000005	9.863700E+01	  0.120000005	1.913000E+00	  0.120000005	4.294100E+01
