! Anritsu VNA Master:             	Model: MS2036C/10/77
! SN:             	1601066
! /card0/usr/bot.s11.19p46.txt
! Existing Calibration Information:
! TYPE:             	Current Settings	Active Cal Settings
! TIME:             	05/23/2018 11:49:28 AM	05/23/2018 11:36:58 AM
! INTERNAL TEMP:    	48.3 C	48.8 C
! # POINTS:         	500	500
! START FREQ:       	20.000 MHz	20.000 MHz
! STOP FREQ:        	120.000 MHz	120.000 MHz
! SOURCE POWER:     	High	High
! IFBW:             	50 Hz	50 Hz
! AVG FACTOR:       	  1 	  1 
! REF PLANE 1:      	0 mm	0 mm
! REF PLANE 2:      	0 mm	0 mm
! CAL TYPE:         	Full S11	Full S11
! CAL METHOD:       	SOLT	SOLT
! CAL LINE TYPE:    	Coax	Coax
! DUT PORT 1:       	K-Conn(M)	K-Conn(M)
! DUT PORT 2:       	K-Conn(M)	K-Conn(M)
! CAL STATUS:       	OK: Accuracy High	--
! PROP-V:       	0.700
! CABLE LOSS:       	0.000 dB/m
! REF IMPEDANCE:       	50.0
! Trace Specific Parameters:	TR1	TR2	TR3	TR4
! TRACE.#.Y (GRAPH TYPE)	LOG MAG	PHASE	REAL IMPEDANCE	IMAGINARY IMPEDANCE
! TRACE.#.X 	FREQ.GHZ	FREQ.GHZ	FREQ.GHZ	FREQ.GHZ
! S-PARAMETER	S11	S11	S11	S11
! SMOOTH/APERTURE %	0	0	0	0
! WINDOW	NSL	NSL	NSL	NSL
! GATING	OFF	OFF	OFF	OFF
! FGTD	OFF	OFF	OFF	OFF
Marker Information per Trace:	TR1	TR2	TR3	TR4
!MK1	--	--	--	--
!MK2	--	--	--	--
!MK3	--	--	--	--
!MK4	--	--	--	--
!MK5	--	--	--	--
!MK6	--	--	--	--
!MK7	--	--	--	--
!MK8	--	--	--	--
PNT	TR1.FREQ.GHZ	TR1.LOG MAG.dB	TR2.FREQ.GHZ	TR2.PHASE.deg	TR3.FREQ.GHZ	TR3.REAL IMPEDANCE.ohm	TR4.FREQ.GHZ	TR4.IMAGINARY IMPEDANCE.ohm
1	  0.020000000	-7.266000E+00	  0.020000000	1.556840E+02	  0.020000000	2.054300E+01	  0.020000000	9.021000E+00
2	  0.020200402	-7.265000E+00	  0.020200402	1.554360E+02	  0.020200402	2.055600E+01	  0.020200402	9.115000E+00
3	  0.020400802	-7.264000E+00	  0.020400802	1.552060E+02	  0.020400802	2.057000E+01	  0.020400802	9.202000E+00
4	  0.020601204	-7.269000E+00	  0.020601204	1.549660E+02	  0.020601204	2.059700E+01	  0.020601204	9.291000E+00
5	  0.020801604	-7.266000E+00	  0.020801604	1.547350E+02	  0.020801604	2.060600E+01	  0.020801604	9.379000E+00
6	  0.021002004	-7.265000E+00	  0.021002004	1.544890E+02	  0.021002004	2.062000E+01	  0.021002004	9.472000E+00
7	  0.021202406	-7.266000E+00	  0.021202406	1.542570E+02	  0.021202406	2.063900E+01	  0.021202406	9.559000E+00
8	  0.021402806	-7.269000E+00	  0.021402806	1.540230E+02	  0.021402806	2.066100E+01	  0.021402806	9.647000E+00
9	  0.021603208	-7.268000E+00	  0.021603208	1.537770E+02	  0.021603208	2.067500E+01	  0.021603208	9.740000E+00
10	  0.021803608	-7.268000E+00	  0.021803608	1.535310E+02	  0.021803608	2.069300E+01	  0.021803608	9.833000E+00
11	  0.022004008	-7.269000E+00	  0.022004008	1.533100E+02	  0.022004008	2.071200E+01	  0.022004008	9.916000E+00
12	  0.022204408	-7.270000E+00	  0.022204408	1.530600E+02	  0.022204408	2.073100E+01	  0.022204408	1.001100E+01
13	  0.022404809	-7.270000E+00	  0.022404809	1.528260E+02	  0.022404809	2.074900E+01	  0.022404809	1.009900E+01
14	  0.022605211	-7.272000E+00	  0.022605211	1.525830E+02	  0.022605211	2.077200E+01	  0.022605211	1.019000E+01
15	  0.022805611	-7.271000E+00	  0.022805611	1.523420E+02	  0.022805611	2.078900E+01	  0.022805611	1.028200E+01
16	  0.023006011	-7.274000E+00	  0.023006011	1.521210E+02	  0.023006011	2.081200E+01	  0.023006011	1.036500E+01
17	  0.023206413	-7.272000E+00	  0.023206413	1.518640E+02	  0.023206413	2.082600E+01	  0.023206413	1.046300E+01
18	  0.023406813	-7.276000E+00	  0.023406813	1.516280E+02	  0.023406813	2.085400E+01	  0.023406813	1.055100E+01
19	  0.023607215	-7.275000E+00	  0.023607215	1.513870E+02	  0.023607215	2.087000E+01	  0.023607215	1.064300E+01
20	  0.023807615	-7.275000E+00	  0.023807615	1.511530E+02	  0.023807615	2.089000E+01	  0.023807615	1.073200E+01
21	  0.024008015	-7.275000E+00	  0.024008015	1.509140E+02	  0.024008015	2.090700E+01	  0.024008015	1.082300E+01
22	  0.024208417	-7.274000E+00	  0.024208417	1.506690E+02	  0.024208417	2.092500E+01	  0.024208417	1.091600E+01
23	  0.024408817	-7.275000E+00	  0.024408817	1.504360E+02	  0.024408817	2.094600E+01	  0.024408817	1.100500E+01
24	  0.024609219	-7.276000E+00	  0.024609219	1.501880E+02	  0.024609219	2.096900E+01	  0.024609219	1.109800E+01
25	  0.024809619	-7.276000E+00	  0.024809619	1.499470E+02	  0.024809619	2.098800E+01	  0.024809619	1.119000E+01
26	  0.025010020	-7.278000E+00	  0.025010020	1.497020E+02	  0.025010020	2.101200E+01	  0.025010020	1.128300E+01
27	  0.025210422	-7.277000E+00	  0.025210422	1.494750E+02	  0.025210422	2.103000E+01	  0.025210422	1.137000E+01
28	  0.025410822	-7.279000E+00	  0.025410822	1.492390E+02	  0.025410822	2.105400E+01	  0.025410822	1.145900E+01
29	  0.025611224	-7.281000E+00	  0.025611224	1.490050E+02	  0.025611224	2.108000E+01	  0.025611224	1.154700E+01
30	  0.025811624	-7.280000E+00	  0.025811624	1.487550E+02	  0.025811624	2.109900E+01	  0.025811624	1.164300E+01
31	  0.026012026	-7.280000E+00	  0.026012026	1.485170E+02	  0.026012026	2.111800E+01	  0.026012026	1.173500E+01
32	  0.026212426	-7.281000E+00	  0.026212426	1.482820E+02	  0.026212426	2.114100E+01	  0.026212426	1.182400E+01
33	  0.026412826	-7.282000E+00	  0.026412826	1.480410E+02	  0.026412826	2.116400E+01	  0.026412826	1.191600E+01
34	  0.026613226	-7.280000E+00	  0.026613226	1.477960E+02	  0.026613226	2.118200E+01	  0.026613226	1.201100E+01
35	  0.026813626	-7.281000E+00	  0.026813626	1.475480E+02	  0.026813626	2.120600E+01	  0.026813626	1.210500E+01
36	  0.027014028	-7.282000E+00	  0.027014028	1.473140E+02	  0.027014028	2.123000E+01	  0.027014028	1.219400E+01
37	  0.027214428	-7.280000E+00	  0.027214428	1.470790E+02	  0.027214428	2.124700E+01	  0.027214428	1.228500E+01
38	  0.027414829	-7.284000E+00	  0.027414829	1.468330E+02	  0.027414829	2.127800E+01	  0.027414829	1.237800E+01
39	  0.027615231	-7.282000E+00	  0.027615231	1.465990E+02	  0.027615231	2.129500E+01	  0.027615231	1.246800E+01
40	  0.027815631	-7.283000E+00	  0.027815631	1.463680E+02	  0.027815631	2.131800E+01	  0.027815631	1.255700E+01
41	  0.028016033	-7.281000E+00	  0.028016033	1.461380E+02	  0.028016033	2.133700E+01	  0.028016033	1.264600E+01
42	  0.028216433	-7.284000E+00	  0.028216433	1.458960E+02	  0.028216433	2.136500E+01	  0.028216433	1.273800E+01
43	  0.028416833	-7.284000E+00	  0.028416833	1.456680E+02	  0.028416833	2.138800E+01	  0.028416833	1.282500E+01
44	  0.028617235	-7.284000E+00	  0.028617235	1.454150E+02	  0.028617235	2.141300E+01	  0.028617235	1.292300E+01
45	  0.028817635	-7.283000E+00	  0.028817635	1.451880E+02	  0.028817635	2.143200E+01	  0.028817635	1.301100E+01
46	  0.029018037	-7.282000E+00	  0.029018037	1.449420E+02	  0.029018037	2.145400E+01	  0.029018037	1.310700E+01
47	  0.029218437	-7.283000E+00	  0.029218437	1.447170E+02	  0.029218437	2.147700E+01	  0.029218437	1.319300E+01
48	  0.029418837	-7.282000E+00	  0.029418837	1.444760E+02	  0.029418837	2.150100E+01	  0.029418837	1.328700E+01
49	  0.029619239	-7.282000E+00	  0.029619239	1.442340E+02	  0.029619239	2.152500E+01	  0.029619239	1.338000E+01
50	  0.029819639	-7.281000E+00	  0.029819639	1.440110E+02	  0.029819639	2.154300E+01	  0.029819639	1.346700E+01
51	  0.030020041	-7.280000E+00	  0.030020041	1.437710E+02	  0.030020041	2.156600E+01	  0.030020041	1.356100E+01
52	  0.030220442	-7.281000E+00	  0.030220442	1.435200E+02	  0.030220442	2.159300E+01	  0.030220442	1.365800E+01
53	  0.030420844	-7.280000E+00	  0.030420844	1.432890E+02	  0.030420844	2.161600E+01	  0.030420844	1.374700E+01
54	  0.030621244	-7.278000E+00	  0.030621244	1.430490E+02	  0.030621244	2.163500E+01	  0.030621244	1.384200E+01
55	  0.030821644	-7.279000E+00	  0.030821644	1.428110E+02	  0.030821644	2.166200E+01	  0.030821644	1.393400E+01
56	  0.031022044	-7.277000E+00	  0.031022044	1.425780E+02	  0.031022044	2.168200E+01	  0.031022044	1.402600E+01
57	  0.031222444	-7.262000E+00	  0.031222444	1.424220E+02	  0.031222444	2.166100E+01	  0.031222444	1.409700E+01
58	  0.031422846	-7.263000E+00	  0.031422846	1.421670E+02	  0.031422846	2.168900E+01	  0.031422846	1.419600E+01
59	  0.031623244	-7.263000E+00	  0.031623244	1.419350E+02	  0.031623244	2.171600E+01	  0.031623244	1.428600E+01
60	  0.031823646	-7.262000E+00	  0.031823646	1.416930E+02	  0.031823646	2.174000E+01	  0.031823646	1.438000E+01
61	  0.032024048	-7.263000E+00	  0.032024048	1.414440E+02	  0.032024048	2.176800E+01	  0.032024048	1.447800E+01
62	  0.032224450	-7.263000E+00	  0.032224450	1.412010E+02	  0.032224450	2.179400E+01	  0.032224450	1.457300E+01
63	  0.032424849	-7.260000E+00	  0.032424849	1.409670E+02	  0.032424849	2.181500E+01	  0.032424849	1.466600E+01
64	  0.032625251	-7.261000E+00	  0.032625251	1.407240E+02	  0.032625251	2.184400E+01	  0.032625251	1.476000E+01
65	  0.032825653	-7.262000E+00	  0.032825653	1.404770E+02	  0.032825653	2.187400E+01	  0.032825653	1.485600E+01
66	  0.033026051	-7.265000E+00	  0.033026051	1.402370E+02	  0.033026051	2.190900E+01	  0.033026051	1.494800E+01
67	  0.033226453	-7.265000E+00	  0.033226453	1.399850E+02	  0.033226453	2.193900E+01	  0.033226453	1.504600E+01
68	  0.033426855	-7.264000E+00	  0.033426855	1.397490E+02	  0.033426855	2.196200E+01	  0.033426855	1.514000E+01
69	  0.033627257	-7.263000E+00	  0.033627257	1.395120E+02	  0.033627257	2.198800E+01	  0.033627257	1.523300E+01
70	  0.033827655	-7.263000E+00	  0.033827655	1.392770E+02	  0.033827655	2.201600E+01	  0.033827655	1.532600E+01
71	  0.034028057	-7.265000E+00	  0.034028057	1.390310E+02	  0.034028057	2.204900E+01	  0.034028057	1.542100E+01
72	  0.034228459	-7.264000E+00	  0.034228459	1.387870E+02	  0.034228459	2.207600E+01	  0.034228459	1.551700E+01
73	  0.034428857	-7.263000E+00	  0.034428857	1.385430E+02	  0.034428857	2.210300E+01	  0.034428857	1.561400E+01
74	  0.034629259	-7.264000E+00	  0.034629259	1.382910E+02	  0.034629259	2.213600E+01	  0.034629259	1.571300E+01
75	  0.034829661	-7.266000E+00	  0.034829661	1.380510E+02	  0.034829661	2.216900E+01	  0.034829661	1.580600E+01
76	  0.035030060	-7.267000E+00	  0.035030060	1.378230E+02	  0.035030060	2.220000E+01	  0.035030060	1.589500E+01
77	  0.035230462	-7.264000E+00	  0.035230462	1.375670E+02	  0.035230462	2.222600E+01	  0.035230462	1.599800E+01
78	  0.035430863	-7.266000E+00	  0.035430863	1.373330E+02	  0.035430863	2.226000E+01	  0.035430863	1.608900E+01
79	  0.035631265	-7.265000E+00	  0.035631265	1.370950E+02	  0.035631265	2.228800E+01	  0.035631265	1.618300E+01
80	  0.035831664	-7.268000E+00	  0.035831664	1.368530E+02	  0.035831664	2.232500E+01	  0.035831664	1.627700E+01
81	  0.036032066	-7.268000E+00	  0.036032066	1.366140E+02	  0.036032066	2.235600E+01	  0.036032066	1.637100E+01
82	  0.036232468	-7.267000E+00	  0.036232468	1.363750E+02	  0.036232468	2.238500E+01	  0.036232468	1.646700E+01
83	  0.036432866	-7.265000E+00	  0.036432866	1.361280E+02	  0.036432866	2.241000E+01	  0.036432866	1.656700E+01
84	  0.036633268	-7.267000E+00	  0.036633268	1.358960E+02	  0.036633268	2.244600E+01	  0.036633268	1.665700E+01
85	  0.036833670	-7.265000E+00	  0.036833670	1.356580E+02	  0.036833670	2.247200E+01	  0.036833670	1.675300E+01
86	  0.037034072	-7.266000E+00	  0.037034072	1.354160E+02	  0.037034072	2.250700E+01	  0.037034072	1.684800E+01
87	  0.037234470	-7.268000E+00	  0.037234470	1.351730E+02	  0.037234470	2.254400E+01	  0.037234470	1.694300E+01
88	  0.037434869	-7.268000E+00	  0.037434869	1.349410E+02	  0.037434869	2.257500E+01	  0.037434869	1.703500E+01
89	  0.037635271	-7.265000E+00	  0.037635271	1.346970E+02	  0.037635271	2.259900E+01	  0.037635271	1.713500E+01
90	  0.037835669	-7.267000E+00	  0.037835669	1.344610E+02	  0.037835669	2.263800E+01	  0.037835669	1.722700E+01
91	  0.038036071	-7.266000E+00	  0.038036071	1.342300E+02	  0.038036071	2.266500E+01	  0.038036071	1.732100E+01
92	  0.038236473	-7.268000E+00	  0.038236473	1.340050E+02	  0.038236473	2.270200E+01	  0.038236473	1.740900E+01
93	  0.038436871	-7.264000E+00	  0.038436871	1.337610E+02	  0.038436871	2.272500E+01	  0.038436871	1.751000E+01
94	  0.038637273	-7.265000E+00	  0.038637273	1.335390E+02	  0.038637273	2.275800E+01	  0.038637273	1.759800E+01
95	  0.038837675	-7.266000E+00	  0.038837675	1.333020E+02	  0.038837675	2.279400E+01	  0.038837675	1.769200E+01
96	  0.039038073	-7.265000E+00	  0.039038073	1.330460E+02	  0.039038073	2.282900E+01	  0.039038073	1.779500E+01
97	  0.039238475	-7.268000E+00	  0.039238475	1.328100E+02	  0.039238475	2.287000E+01	  0.039238475	1.788700E+01
98	  0.039438877	-7.265000E+00	  0.039438877	1.325860E+02	  0.039438877	2.289400E+01	  0.039438877	1.798000E+01
99	  0.039639279	-7.265000E+00	  0.039639279	1.323380E+02	  0.039639279	2.292900E+01	  0.039639279	1.807900E+01
100	  0.039839678	-7.264000E+00	  0.039839678	1.320930E+02	  0.039839678	2.296200E+01	  0.039839678	1.817800E+01
101	  0.040040080	-7.264000E+00	  0.040040080	1.318730E+02	  0.040040080	2.299500E+01	  0.040040080	1.826700E+01
102	  0.040240481	-7.266000E+00	  0.040240481	1.316380E+02	  0.040240481	2.303400E+01	  0.040240481	1.836000E+01
103	  0.040440880	-7.263000E+00	  0.040440880	1.313800E+02	  0.040440880	2.306600E+01	  0.040440880	1.846600E+01
104	  0.040641282	-7.264000E+00	  0.040641282	1.311620E+02	  0.040641282	2.310000E+01	  0.040641282	1.855300E+01
105	  0.040841684	-7.265000E+00	  0.040841684	1.309200E+02	  0.040841684	2.313900E+01	  0.040841684	1.865000E+01
106	  0.041042086	-7.263000E+00	  0.041042086	1.306870E+02	  0.041042086	2.317000E+01	  0.041042086	1.874600E+01
107	  0.041242484	-7.263000E+00	  0.041242484	1.304630E+02	  0.041242484	2.320200E+01	  0.041242484	1.883700E+01
108	  0.041442886	-7.263000E+00	  0.041442886	1.302180E+02	  0.041442886	2.324200E+01	  0.041442886	1.893500E+01
109	  0.041643288	-7.261000E+00	  0.041643288	1.300040E+02	  0.041643288	2.326800E+01	  0.041643288	1.902400E+01
110	  0.041843686	-7.263000E+00	  0.041843686	1.297540E+02	  0.041843686	2.331100E+01	  0.041843686	1.912400E+01
111	  0.042044088	-7.261000E+00	  0.042044088	1.295180E+02	  0.042044088	2.334300E+01	  0.042044088	1.922100E+01
112	  0.042244490	-7.263000E+00	  0.042244490	1.292700E+02	  0.042244490	2.338800E+01	  0.042244490	1.932000E+01
113	  0.042444889	-7.263000E+00	  0.042444889	1.290560E+02	  0.042444889	2.342100E+01	  0.042444889	1.940700E+01
114	  0.042645290	-7.259000E+00	  0.042645290	1.288200E+02	  0.042645290	2.344800E+01	  0.042645290	1.950700E+01
115	  0.042845692	-7.261000E+00	  0.042845692	1.285790E+02	  0.042845692	2.349400E+01	  0.042845692	1.960300E+01
116	  0.043046094	-7.263000E+00	  0.043046094	1.283540E+02	  0.043046094	2.353400E+01	  0.043046094	1.969300E+01
117	  0.043246493	-7.263000E+00	  0.043246493	1.281020E+02	  0.043246493	2.357500E+01	  0.043246493	1.979500E+01
118	  0.043446895	-7.260000E+00	  0.043446895	1.278690E+02	  0.043446895	2.360600E+01	  0.043446895	1.989300E+01
119	  0.043647297	-7.260000E+00	  0.043647297	1.276290E+02	  0.043647297	2.364400E+01	  0.043647297	1.999200E+01
120	  0.043847695	-7.260000E+00	  0.043847695	1.273940E+02	  0.043847695	2.368300E+01	  0.043847695	2.008800E+01
121	  0.044048097	-7.262000E+00	  0.044048097	1.271540E+02	  0.044048097	2.373000E+01	  0.044048097	2.018300E+01
122	  0.044248499	-7.259000E+00	  0.044248499	1.269250E+02	  0.044248499	2.375900E+01	  0.044248499	2.028000E+01
123	  0.044448901	-7.260000E+00	  0.044448901	1.266800E+02	  0.044448901	2.380400E+01	  0.044448901	2.037900E+01
124	  0.044649299	-7.260000E+00	  0.044649299	1.264430E+02	  0.044649299	2.384400E+01	  0.044649299	2.047700E+01
125	  0.044849701	-7.259000E+00	  0.044849701	1.262050E+02	  0.044849701	2.388100E+01	  0.044849701	2.057600E+01
126	  0.045050103	-7.259000E+00	  0.045050103	1.259700E+02	  0.045050103	2.392100E+01	  0.045050103	2.067300E+01
127	  0.045250501	-7.258000E+00	  0.045250501	1.257350E+02	  0.045250501	2.396100E+01	  0.045250501	2.077000E+01
128	  0.045450903	-7.257000E+00	  0.045450903	1.255100E+02	  0.045450903	2.399700E+01	  0.045450903	2.086300E+01
129	  0.045651305	-7.257000E+00	  0.045651305	1.252750E+02	  0.045651305	2.403800E+01	  0.045651305	2.096100E+01
130	  0.045851704	-7.256000E+00	  0.045851704	1.250330E+02	  0.045851704	2.407800E+01	  0.045851704	2.106200E+01
131	  0.046052106	-7.255000E+00	  0.046052106	1.247870E+02	  0.046052106	2.412000E+01	  0.046052106	2.116400E+01
132	  0.046252504	-7.257000E+00	  0.046252504	1.245530E+02	  0.046252504	2.416500E+01	  0.046252504	2.125900E+01
133	  0.046452906	-7.256000E+00	  0.046452906	1.243170E+02	  0.046452906	2.420600E+01	  0.046452906	2.135700E+01
134	  0.046653304	-7.256000E+00	  0.046653304	1.240750E+02	  0.046653304	2.424900E+01	  0.046653304	2.145800E+01
135	  0.046853706	-7.255000E+00	  0.046853706	1.238420E+02	  0.046853706	2.429000E+01	  0.046853706	2.155500E+01
136	  0.047054108	-7.253000E+00	  0.047054108	1.236030E+02	  0.047054108	2.432700E+01	  0.047054108	2.165700E+01
137	  0.047254506	-7.251000E+00	  0.047254506	1.233680E+02	  0.047254506	2.436600E+01	  0.047254506	2.175700E+01
138	  0.047454908	-7.252000E+00	  0.047454908	1.231150E+02	  0.047454908	2.441500E+01	  0.047454908	2.186100E+01
139	  0.047655310	-7.252000E+00	  0.047655310	1.228840E+02	  0.047655310	2.445800E+01	  0.047655310	2.195700E+01
140	  0.047855709	-7.251000E+00	  0.047855709	1.226430E+02	  0.047855709	2.450000E+01	  0.047855709	2.205900E+01
141	  0.048056111	-7.248000E+00	  0.048056111	1.223940E+02	  0.048056111	2.454000E+01	  0.048056111	2.216600E+01
142	  0.048256513	-7.245000E+00	  0.048256513	1.221560E+02	  0.048256513	2.457800E+01	  0.048256513	2.226800E+01
143	  0.048456915	-7.246000E+00	  0.048456915	1.219250E+02	  0.048456915	2.462500E+01	  0.048456915	2.236400E+01
144	  0.048657313	-7.244000E+00	  0.048657313	1.216870E+02	  0.048657313	2.466500E+01	  0.048657313	2.246600E+01
145	  0.048857715	-7.244000E+00	  0.048857715	1.214530E+02	  0.048857715	2.471000E+01	  0.048857715	2.256400E+01
146	  0.049058117	-7.242000E+00	  0.049058117	1.212010E+02	  0.049058117	2.475400E+01	  0.049058117	2.267200E+01
147	  0.049258515	-7.244000E+00	  0.049258515	1.209760E+02	  0.049258515	2.480200E+01	  0.049258515	2.276500E+01
148	  0.049458917	-7.242000E+00	  0.049458917	1.207370E+02	  0.049458917	2.484600E+01	  0.049458917	2.286700E+01
149	  0.049659319	-7.242000E+00	  0.049659319	1.204910E+02	  0.049659319	2.489300E+01	  0.049659319	2.297000E+01
150	  0.049859721	-7.238000E+00	  0.049859721	1.202870E+02	  0.049859721	2.492400E+01	  0.049859721	2.306100E+01
151	  0.050060119	-7.242000E+00	  0.050060119	1.200400E+02	  0.050060119	2.498400E+01	  0.050060119	2.316100E+01
152	  0.050260521	-7.238000E+00	  0.050260521	1.198030E+02	  0.050260521	2.502200E+01	  0.050260521	2.326500E+01
153	  0.050460923	-7.238000E+00	  0.050460923	1.195790E+02	  0.050460923	2.506700E+01	  0.050460923	2.335900E+01
154	  0.050661322	-7.240000E+00	  0.050661322	1.193330E+02	  0.050661322	2.512100E+01	  0.050661322	2.346100E+01
155	  0.050861724	-7.238000E+00	  0.050861724	1.190820E+02	  0.050861724	2.516900E+01	  0.050861724	2.356900E+01
156	  0.051062126	-7.238000E+00	  0.051062126	1.188800E+02	  0.051062126	2.521000E+01	  0.051062126	2.365500E+01
157	  0.051262524	-7.240000E+00	  0.051262524	1.186300E+02	  0.051262524	2.526800E+01	  0.051262524	2.375900E+01
158	  0.051462926	-7.234000E+00	  0.051462926	1.183910E+02	  0.051462926	2.530200E+01	  0.051462926	2.386800E+01
159	  0.051663328	-7.237000E+00	  0.051663328	1.181600E+02	  0.051663328	2.535900E+01	  0.051663328	2.396100E+01
160	  0.051863730	-7.233000E+00	  0.051863730	1.179190E+02	  0.051863730	2.539900E+01	  0.051863730	2.406900E+01
161	  0.052064128	-7.236000E+00	  0.052064128	1.176750E+02	  0.052064128	2.546100E+01	  0.052064128	2.416800E+01
162	  0.052264530	-7.235000E+00	  0.052264530	1.174560E+02	  0.052264530	2.550600E+01	  0.052264530	2.426300E+01
163	  0.052464932	-7.233000E+00	  0.052464932	1.172010E+02	  0.052464932	2.555300E+01	  0.052464932	2.437500E+01
164	  0.052665330	-7.231000E+00	  0.052665330	1.169900E+02	  0.052665330	2.559500E+01	  0.052665330	2.446700E+01
165	  0.052865732	-7.230000E+00	  0.052865732	1.167440E+02	  0.052865732	2.564700E+01	  0.052865732	2.457300E+01
166	  0.053066134	-7.230000E+00	  0.053066134	1.165310E+02	  0.053066134	2.569200E+01	  0.053066134	2.466500E+01
167	  0.053266536	-7.230000E+00	  0.053266536	1.162950E+02	  0.053266536	2.574500E+01	  0.053266536	2.476600E+01
168	  0.053466935	-7.229000E+00	  0.053466935	1.160570E+02	  0.053466935	2.579700E+01	  0.053466935	2.486900E+01
169	  0.053667337	-7.230000E+00	  0.053667337	1.158210E+02	  0.053667337	2.585100E+01	  0.053667337	2.496900E+01
170	  0.053867739	-7.228000E+00	  0.053867739	1.155980E+02	  0.053867739	2.589600E+01	  0.053867739	2.506700E+01
171	  0.054068137	-7.226000E+00	  0.054068137	1.153620E+02	  0.054068137	2.594500E+01	  0.054068137	2.517100E+01
172	  0.054268539	-7.226000E+00	  0.054268539	1.151300E+02	  0.054268539	2.599700E+01	  0.054268539	2.527100E+01
173	  0.054468941	-7.226000E+00	  0.054468941	1.148970E+02	  0.054468941	2.605100E+01	  0.054468941	2.537100E+01
174	  0.054669339	-7.224000E+00	  0.054669339	1.146610E+02	  0.054669339	2.609900E+01	  0.054669339	2.547700E+01
175	  0.054869737	-7.225000E+00	  0.054869737	1.144420E+02	  0.054869737	2.615300E+01	  0.054869737	2.556900E+01
176	  0.055070139	-7.220000E+00	  0.055070139	1.141960E+02	  0.055070139	2.619700E+01	  0.055070139	2.568300E+01
177	  0.055270538	-7.220000E+00	  0.055270538	1.139740E+02	  0.055270538	2.624900E+01	  0.055270538	2.577900E+01
178	  0.055470940	-7.220000E+00	  0.055470940	1.137430E+02	  0.055470940	2.630500E+01	  0.055470940	2.587800E+01
179	  0.055671342	-7.220000E+00	  0.055671342	1.135190E+02	  0.055671342	2.635600E+01	  0.055671342	2.597600E+01
180	  0.055871744	-7.219000E+00	  0.055871744	1.132740E+02	  0.055871744	2.641300E+01	  0.055871744	2.608300E+01
181	  0.056072142	-7.218000E+00	  0.056072142	1.130450E+02	  0.056072142	2.646500E+01	  0.056072142	2.618500E+01
182	  0.056272544	-7.218000E+00	  0.056272544	1.128170E+02	  0.056272544	2.652000E+01	  0.056272544	2.628400E+01
183	  0.056472946	-7.217000E+00	  0.056472946	1.125990E+02	  0.056472946	2.657200E+01	  0.056472946	2.637900E+01
184	  0.056673344	-7.214000E+00	  0.056673344	1.123510E+02	  0.056673344	2.662300E+01	  0.056673344	2.649200E+01
185	  0.056873746	-7.218000E+00	  0.056873746	1.121340E+02	  0.056873746	2.668700E+01	  0.056873746	2.658100E+01
186	  0.057074148	-7.218000E+00	  0.057074148	1.118960E+02	  0.057074148	2.674800E+01	  0.057074148	2.668400E+01
187	  0.057274550	-7.214000E+00	  0.057274550	1.116590E+02	  0.057274550	2.679400E+01	  0.057274550	2.679400E+01
188	  0.057474948	-7.215000E+00	  0.057474948	1.114420E+02	  0.057474948	2.685300E+01	  0.057474948	2.688600E+01
189	  0.057675350	-7.213000E+00	  0.057675350	1.112120E+02	  0.057675350	2.690500E+01	  0.057675350	2.699100E+01
190	  0.057875752	-7.214000E+00	  0.057875752	1.109770E+02	  0.057875752	2.696900E+01	  0.057875752	2.709100E+01
191	  0.058076151	-7.213000E+00	  0.058076151	1.107420E+02	  0.058076151	2.702400E+01	  0.058076151	2.719600E+01
192	  0.058276553	-7.212000E+00	  0.058276553	1.105280E+02	  0.058276553	2.707700E+01	  0.058276553	2.729100E+01
193	  0.058476955	-7.212000E+00	  0.058476955	1.102880E+02	  0.058476955	2.713800E+01	  0.058476955	2.739700E+01
194	  0.058677353	-7.212000E+00	  0.058677353	1.100680E+02	  0.058677353	2.719800E+01	  0.058677353	2.749300E+01
195	  0.058877755	-7.213000E+00	  0.058877755	1.098300E+02	  0.058877755	2.726100E+01	  0.058877755	2.759600E+01
196	  0.059078157	-7.213000E+00	  0.059078157	1.096020E+02	  0.059078157	2.732200E+01	  0.059078157	2.769600E+01
197	  0.059278559	-7.211000E+00	  0.059278559	1.093670E+02	  0.059278559	2.737800E+01	  0.059278559	2.780400E+01
198	  0.059478957	-7.210000E+00	  0.059478957	1.091340E+02	  0.059478957	2.743800E+01	  0.059478957	2.790700E+01
199	  0.059679359	-7.209000E+00	  0.059679359	1.089020E+02	  0.059679359	2.749700E+01	  0.059679359	2.801200E+01
200	  0.059879761	-7.209000E+00	  0.059879761	1.086840E+02	  0.059879761	2.755700E+01	  0.059879761	2.810700E+01
201	  0.060080159	-7.209000E+00	  0.060080159	1.084380E+02	  0.060080159	2.762200E+01	  0.060080159	2.821700E+01
202	  0.060280561	-7.208000E+00	  0.060280561	1.082160E+02	  0.060280561	2.767900E+01	  0.060280561	2.831700E+01
203	  0.060480963	-7.209000E+00	  0.060480963	1.079740E+02	  0.060480963	2.775000E+01	  0.060480963	2.842200E+01
204	  0.060681365	-7.208000E+00	  0.060681365	1.077510E+02	  0.060681365	2.780900E+01	  0.060681365	2.852200E+01
205	  0.060881764	-7.206000E+00	  0.060881764	1.075200E+02	  0.060881764	2.786700E+01	  0.060881764	2.862900E+01
206	  0.061082166	-7.208000E+00	  0.061082166	1.072920E+02	  0.061082166	2.793500E+01	  0.061082166	2.872700E+01
207	  0.061282568	-7.207000E+00	  0.061282568	1.070680E+02	  0.061282568	2.799500E+01	  0.061282568	2.882800E+01
208	  0.061482966	-7.203000E+00	  0.061482966	1.068290E+02	  0.061482966	2.805000E+01	  0.061482966	2.894200E+01
209	  0.061683368	-7.201000E+00	  0.061683368	1.066020E+02	  0.061683368	2.811100E+01	  0.061683368	2.904600E+01
210	  0.061883770	-7.199000E+00	  0.061883770	1.063850E+02	  0.061883770	2.816700E+01	  0.061883770	2.914600E+01
211	  0.062084168	-7.200000E+00	  0.062084168	1.061500E+02	  0.062084168	2.823800E+01	  0.062084168	2.924900E+01
212	  0.062284570	-7.198000E+00	  0.062284570	1.059270E+02	  0.062284570	2.829700E+01	  0.062284570	2.935300E+01
213	  0.062484972	-7.184000E+00	  0.062484972	1.057920E+02	  0.062484972	2.829400E+01	  0.062484972	2.944000E+01
214	  0.062685370	-7.182000E+00	  0.062685370	1.055590E+02	  0.062685370	2.835500E+01	  0.062685370	2.954900E+01
215	  0.062885776	-7.183000E+00	  0.062885776	1.053380E+02	  0.062885776	2.842400E+01	  0.062885776	2.964500E+01
216	  0.063086174	-7.184000E+00	  0.063086174	1.051260E+02	  0.063086174	2.848800E+01	  0.063086174	2.974000E+01
217	  0.063286573	-7.182000E+00	  0.063286573	1.048780E+02	  0.063286573	2.855500E+01	  0.063286573	2.985600E+01
218	  0.063486971	-7.180000E+00	  0.063486971	1.046640E+02	  0.063486971	2.861500E+01	  0.063486971	2.995400E+01
219	  0.063687377	-7.183000E+00	  0.063687377	1.044480E+02	  0.063687377	2.868800E+01	  0.063687377	3.004600E+01
220	  0.063887775	-7.182000E+00	  0.063887775	1.041940E+02	  0.063887775	2.876100E+01	  0.063887775	3.016300E+01
221	  0.064088173	-7.182000E+00	  0.064088173	1.039630E+02	  0.064088173	2.883200E+01	  0.064088173	3.026700E+01
222	  0.064288579	-7.180000E+00	  0.064288579	1.037340E+02	  0.064288579	2.889500E+01	  0.064288579	3.037500E+01
223	  0.064488977	-7.181000E+00	  0.064488977	1.035110E+02	  0.064488977	2.896700E+01	  0.064488977	3.047300E+01
224	  0.064689375	-7.176000E+00	  0.064689375	1.032680E+02	  0.064689375	2.902800E+01	  0.064689375	3.059200E+01
225	  0.064889781	-7.179000E+00	  0.064889781	1.030490E+02	  0.064889781	2.910300E+01	  0.064889781	3.068700E+01
226	  0.065090179	-7.177000E+00	  0.065090179	1.028050E+02	  0.065090179	2.917400E+01	  0.065090179	3.080100E+01
227	  0.065290578	-7.177000E+00	  0.065290578	1.025850E+02	  0.065290578	2.924300E+01	  0.065290578	3.090100E+01
228	  0.065490983	-7.172000E+00	  0.065490983	1.023690E+02	  0.065490983	2.929600E+01	  0.065490983	3.101000E+01
229	  0.065691382	-7.176000E+00	  0.065691382	1.021210E+02	  0.065691382	2.938700E+01	  0.065691382	3.111400E+01
230	  0.065891780	-7.172000E+00	  0.065891780	1.018750E+02	  0.065891780	2.945500E+01	  0.065891780	3.123300E+01
231	  0.066092186	-7.173000E+00	  0.066092186	1.016630E+02	  0.066092186	2.952600E+01	  0.066092186	3.132800E+01
232	  0.066292584	-7.172000E+00	  0.066292584	1.014490E+02	  0.066292584	2.959200E+01	  0.066292584	3.142800E+01
233	  0.066492982	-7.172000E+00	  0.066492982	1.012220E+02	  0.066492982	2.966600E+01	  0.066492982	3.153200E+01
234	  0.066693388	-7.163000E+00	  0.066693388	1.009680E+02	  0.066693388	2.972200E+01	  0.066693388	3.166700E+01
235	  0.066893786	-7.163000E+00	  0.066893786	1.007370E+02	  0.066893786	2.980000E+01	  0.066893786	3.177100E+01
236	  0.067094192	-7.167000E+00	  0.067094192	1.005330E+02	  0.067094192	2.987900E+01	  0.067094192	3.185600E+01
237	  0.067294590	-7.163000E+00	  0.067294590	1.003020E+02	  0.067294590	2.994200E+01	  0.067294590	3.197200E+01
238	  0.067494988	-7.165000E+00	  0.067494988	1.000770E+02	  0.067494988	3.002600E+01	  0.067494988	3.207000E+01
239	  0.067695394	-7.161000E+00	  0.067695394	9.984500E+01	  0.067695394	3.009000E+01	  0.067695394	3.218600E+01
240	  0.067895792	-7.163000E+00	  0.067895792	9.959500E+01	  0.067895792	3.018200E+01	  0.067895792	3.229500E+01
241	  0.068096191	-7.163000E+00	  0.068096191	9.939500E+01	  0.068096191	3.024900E+01	  0.068096191	3.238800E+01
242	  0.068296596	-7.159000E+00	  0.068296596	9.916300E+01	  0.068296596	3.031800E+01	  0.068296596	3.250300E+01
243	  0.068496995	-7.161000E+00	  0.068496995	9.892500E+01	  0.068496995	3.040400E+01	  0.068496995	3.261000E+01
244	  0.068697393	-7.158000E+00	  0.068697393	9.868300E+01	  0.068697393	3.047900E+01	  0.068697393	3.272700E+01
245	  0.068897791	-7.159000E+00	  0.068897791	9.846800E+01	  0.068897791	3.055800E+01	  0.068897791	3.282400E+01
246	  0.069098189	-7.155000E+00	  0.069098189	9.823200E+01	  0.069098189	3.062900E+01	  0.069098189	3.294200E+01
247	  0.069298595	-7.158000E+00	  0.069298595	9.799800E+01	  0.069298595	3.072200E+01	  0.069298595	3.304200E+01
248	  0.069498993	-7.158000E+00	  0.069498993	9.778600E+01	  0.069498993	3.079600E+01	  0.069498993	3.314100E+01
249	  0.069699399	-7.157000E+00	  0.069699399	9.755100E+01	  0.069699399	3.087800E+01	  0.069699399	3.325100E+01
250	  0.069899797	-7.158000E+00	  0.069899797	9.730600E+01	  0.069899797	3.096900E+01	  0.069899797	3.336300E+01
251	  0.070100196	-7.158000E+00	  0.070100196	9.709600E+01	  0.070100196	3.104600E+01	  0.070100196	3.346000E+01
252	  0.070300601	-7.150000E+00	  0.070300601	9.685600E+01	  0.070300601	3.110800E+01	  0.070300601	3.359100E+01
253	  0.070501000	-7.152000E+00	  0.070501000	9.664900E+01	  0.070501000	3.118900E+01	  0.070501000	3.368300E+01
254	  0.070701398	-7.152000E+00	  0.070701398	9.641300E+01	  0.070701398	3.127700E+01	  0.070701398	3.379100E+01
255	  0.070901804	-7.149000E+00	  0.070901804	9.618100E+01	  0.070901804	3.135200E+01	  0.070901804	3.390800E+01
256	  0.071102202	-7.150000E+00	  0.071102202	9.595500E+01	  0.071102202	3.143900E+01	  0.071102202	3.401100E+01
257	  0.071302600	-7.151000E+00	  0.071302600	9.572300E+01	  0.071302600	3.153000E+01	  0.071302600	3.411500E+01
258	  0.071503006	-7.153000E+00	  0.071503006	9.551000E+01	  0.071503006	3.161700E+01	  0.071503006	3.420900E+01
259	  0.071703404	-7.148000E+00	  0.071703404	9.525700E+01	  0.071703404	3.169600E+01	  0.071703404	3.434100E+01
260	  0.071903802	-7.148000E+00	  0.071903802	9.505900E+01	  0.071903802	3.177100E+01	  0.071903802	3.443300E+01
261	  0.072104208	-7.147000E+00	  0.072104208	9.482500E+01	  0.072104208	3.185700E+01	  0.072104208	3.454600E+01
262	  0.072304606	-7.144000E+00	  0.072304606	9.457900E+01	  0.072304606	3.194400E+01	  0.072304606	3.466800E+01
263	  0.072505005	-7.143000E+00	  0.072505005	9.434900E+01	  0.072505005	3.203000E+01	  0.072505005	3.477700E+01
264	  0.072705410	-7.143000E+00	  0.072705410	9.414200E+01	  0.072705410	3.211200E+01	  0.072705410	3.487400E+01
265	  0.072905809	-7.143000E+00	  0.072905809	9.392300E+01	  0.072905809	3.219700E+01	  0.072905809	3.497700E+01
266	  0.073106214	-7.144000E+00	  0.073106214	9.368700E+01	  0.073106214	3.229400E+01	  0.073106214	3.508500E+01
267	  0.073306613	-7.141000E+00	  0.073306613	9.342900E+01	  0.073306613	3.238400E+01	  0.073306613	3.521600E+01
268	  0.073507011	-7.143000E+00	  0.073507011	9.322000E+01	  0.073507011	3.247400E+01	  0.073507011	3.530900E+01
269	  0.073707417	-7.140000E+00	  0.073707417	9.298900E+01	  0.073707417	3.255800E+01	  0.073707417	3.542500E+01
270	  0.073907815	-7.138000E+00	  0.073907815	9.278400E+01	  0.073907815	3.263500E+01	  0.073907815	3.552600E+01
271	  0.074108213	-7.135000E+00	  0.074108213	9.252800E+01	  0.074108213	3.272900E+01	  0.074108213	3.565500E+01
272	  0.074308619	-7.135000E+00	  0.074308619	9.230100E+01	  0.074308619	3.282200E+01	  0.074308619	3.576200E+01
273	  0.074509017	-7.138000E+00	  0.074509017	9.207400E+01	  0.074509017	3.292700E+01	  0.074509017	3.585900E+01
274	  0.074709415	-7.136000E+00	  0.074709415	9.185900E+01	  0.074709415	3.300900E+01	  0.074709415	3.596600E+01
275	  0.074909821	-7.134000E+00	  0.074909821	9.159200E+01	  0.074909821	3.311300E+01	  0.074909821	3.609800E+01
276	  0.075110219	-7.131000E+00	  0.075110219	9.139100E+01	  0.075110219	3.318800E+01	  0.075110219	3.620200E+01
277	  0.075310618	-7.132000E+00	  0.075310618	9.117300E+01	  0.075310618	3.328300E+01	  0.075310618	3.630200E+01
278	  0.075511023	-7.132000E+00	  0.075511023	9.094300E+01	  0.075511023	3.337900E+01	  0.075511023	3.641200E+01
279	  0.075711422	-7.131000E+00	  0.075711422	9.071800E+01	  0.075711422	3.347300E+01	  0.075711422	3.651900E+01
280	  0.075911827	-7.127000E+00	  0.075911827	9.050400E+01	  0.075911827	3.355100E+01	  0.075911827	3.663400E+01
281	  0.076112226	-7.129000E+00	  0.076112226	9.025800E+01	  0.076112226	3.366400E+01	  0.076112226	3.674400E+01
282	  0.076312624	-7.126000E+00	  0.076312624	9.002200E+01	  0.076312624	3.375600E+01	  0.076312624	3.686500E+01
283	  0.076513030	-7.123000E+00	  0.076513030	8.980800E+01	  0.076513030	3.384100E+01	  0.076513030	3.697400E+01
284	  0.076713428	-7.123000E+00	  0.076713428	8.957700E+01	  0.076713428	3.394100E+01	  0.076713428	3.708500E+01
285	  0.076913826	-7.123000E+00	  0.076913826	8.936100E+01	  0.076913826	3.403700E+01	  0.076913826	3.718700E+01
286	  0.077114232	-7.125000E+00	  0.077114232	8.912100E+01	  0.077114232	3.414800E+01	  0.077114232	3.729600E+01
287	  0.077314630	-7.123000E+00	  0.077314630	8.890300E+01	  0.077314630	3.424000E+01	  0.077314630	3.740500E+01
288	  0.077515028	-7.123000E+00	  0.077515028	8.866800E+01	  0.077515028	3.434500E+01	  0.077515028	3.751700E+01
289	  0.077715434	-7.121000E+00	  0.077715434	8.842100E+01	  0.077715434	3.445000E+01	  0.077715434	3.764100E+01
290	  0.077915832	-7.125000E+00	  0.077915832	8.819500E+01	  0.077915832	3.456400E+01	  0.077915832	3.773800E+01
291	  0.078116231	-7.120000E+00	  0.078116231	8.798900E+01	  0.078116231	3.464400E+01	  0.078116231	3.785000E+01
292	  0.078316636	-7.121000E+00	  0.078316636	8.775000E+01	  0.078316636	3.475600E+01	  0.078316636	3.796200E+01
293	  0.078517035	-7.119000E+00	  0.078517035	8.753300E+01	  0.078517035	3.485200E+01	  0.078517035	3.806900E+01
294	  0.078717433	-7.118000E+00	  0.078717433	8.728000E+01	  0.078717433	3.496600E+01	  0.078717433	3.819300E+01
295	  0.078917839	-7.121000E+00	  0.078917839	8.704000E+01	  0.078917839	3.508600E+01	  0.078917839	3.830000E+01
296	  0.079118237	-7.120000E+00	  0.079118237	8.681900E+01	  0.079118237	3.518800E+01	  0.079118237	3.840700E+01
297	  0.079318643	-7.114000E+00	  0.079318643	8.660400E+01	  0.079318643	3.527000E+01	  0.079318643	3.853000E+01
298	  0.079519041	-7.117000E+00	  0.079519041	8.638000E+01	  0.079519041	3.538500E+01	  0.079519041	3.862800E+01
299	  0.079719439	-7.114000E+00	  0.079719439	8.613100E+01	  0.079719439	3.549600E+01	  0.079719439	3.875600E+01
300	  0.079919845	-7.112000E+00	  0.079919845	8.592100E+01	  0.079919845	3.559000E+01	  0.079919845	3.886400E+01
301	  0.080120243	-7.113000E+00	  0.080120243	8.569800E+01	  0.080120243	3.570300E+01	  0.080120243	3.896500E+01
302	  0.080320641	-7.109000E+00	  0.080320641	8.544900E+01	  0.080320641	3.581200E+01	  0.080320641	3.909700E+01
303	  0.080521047	-7.107000E+00	  0.080521047	8.522300E+01	  0.080521047	3.591600E+01	  0.080521047	3.921300E+01
304	  0.080721445	-7.111000E+00	  0.080721445	8.499600E+01	  0.080721445	3.604100E+01	  0.080721445	3.930800E+01
305	  0.080921844	-7.108000E+00	  0.080921844	8.476900E+01	  0.080921844	3.614300E+01	  0.080921844	3.942800E+01
306	  0.081122249	-7.108000E+00	  0.081122249	8.454800E+01	  0.081122249	3.625400E+01	  0.081122249	3.953300E+01
307	  0.081322648	-7.108000E+00	  0.081322648	8.430600E+01	  0.081322648	3.637600E+01	  0.081322648	3.964900E+01
308	  0.081523046	-7.104000E+00	  0.081523046	8.408900E+01	  0.081523046	3.647200E+01	  0.081523046	3.976700E+01
309	  0.081723452	-7.106000E+00	  0.081723452	8.385900E+01	  0.081723452	3.659500E+01	  0.081723452	3.987100E+01
310	  0.081923850	-7.105000E+00	  0.081923850	8.363000E+01	  0.081923850	3.670800E+01	  0.081923850	3.998500E+01
311	  0.082124248	-7.105000E+00	  0.082124248	8.342100E+01	  0.082124248	3.681500E+01	  0.082124248	4.008500E+01
312	  0.082324654	-7.104000E+00	  0.082324654	8.319800E+01	  0.082324654	3.692800E+01	  0.082324654	4.019500E+01
313	  0.082525052	-7.105000E+00	  0.082525052	8.295500E+01	  0.082525052	3.705700E+01	  0.082525052	4.030900E+01
314	  0.082725458	-7.104000E+00	  0.082725458	8.272800E+01	  0.082725458	3.717200E+01	  0.082725458	4.042300E+01
315	  0.082925856	-7.104000E+00	  0.082925856	8.248300E+01	  0.082925856	3.730300E+01	  0.082925856	4.053700E+01
316	  0.083126254	-7.098000E+00	  0.083126254	8.227900E+01	  0.083126254	3.739100E+01	  0.083126254	4.065800E+01
317	  0.083326660	-7.104000E+00	  0.083326660	8.203700E+01	  0.083326660	3.753900E+01	  0.083326660	4.075200E+01
318	  0.083527058	-7.100000E+00	  0.083527058	8.181400E+01	  0.083527058	3.764600E+01	  0.083527058	4.087400E+01
319	  0.083727457	-7.099000E+00	  0.083727457	8.159400E+01	  0.083727457	3.776200E+01	  0.083727457	4.098200E+01
320	  0.083927862	-7.101000E+00	  0.083927862	8.137000E+01	  0.083927862	3.788700E+01	  0.083927862	4.108600E+01
321	  0.084128261	-7.097000E+00	  0.084128261	8.112800E+01	  0.084128261	3.800700E+01	  0.084128261	4.121600E+01
322	  0.084328659	-7.097000E+00	  0.084328659	8.091100E+01	  0.084328659	3.812600E+01	  0.084328659	4.131900E+01
323	  0.084529065	-7.097000E+00	  0.084529065	8.067300E+01	  0.084529065	3.825800E+01	  0.084529065	4.143300E+01
324	  0.084729463	-7.097000E+00	  0.084729463	8.044600E+01	  0.084729463	3.838500E+01	  0.084729463	4.154200E+01
325	  0.084929861	-7.098000E+00	  0.084929861	8.023800E+01	  0.084929861	3.850300E+01	  0.084929861	4.163800E+01
326	  0.085130267	-7.093000E+00	  0.085130267	8.000000E+01	  0.085130267	3.862100E+01	  0.085130267	4.177200E+01
327	  0.085330658	-7.093000E+00	  0.085330658	7.978900E+01	  0.085330658	3.874000E+01	  0.085330658	4.187400E+01
328	  0.085531056	-7.095000E+00	  0.085531056	7.955200E+01	  0.085531056	3.888000E+01	  0.085531056	4.198000E+01
329	  0.085731462	-7.093000E+00	  0.085731462	7.931200E+01	  0.085731462	3.901000E+01	  0.085731462	4.210400E+01
330	  0.085931860	-7.095000E+00	  0.085931860	7.909400E+01	  0.085931860	3.914400E+01	  0.085931860	4.219900E+01
331	  0.086132258	-7.093000E+00	  0.086132258	7.888200E+01	  0.086132258	3.926000E+01	  0.086132258	4.230900E+01
332	  0.086332664	-7.093000E+00	  0.086332664	7.864600E+01	  0.086332664	3.939600E+01	  0.086332664	4.242300E+01
333	  0.086533062	-7.093000E+00	  0.086533062	7.842400E+01	  0.086533062	3.952500E+01	  0.086533062	4.253000E+01
334	  0.086733460	-7.093000E+00	  0.086733460	7.819000E+01	  0.086733460	3.966500E+01	  0.086733460	4.264000E+01
335	  0.086933866	-7.092000E+00	  0.086933866	7.796000E+01	  0.086933866	3.979800E+01	  0.086933866	4.275400E+01
336	  0.087134264	-7.091000E+00	  0.087134264	7.773500E+01	  0.087134264	3.992900E+01	  0.087134264	4.286600E+01
337	  0.087334670	-7.092000E+00	  0.087334670	7.752000E+01	  0.087334670	4.006000E+01	  0.087334670	4.296600E+01
338	  0.087535068	-7.088000E+00	  0.087535068	7.729300E+01	  0.087535068	4.018400E+01	  0.087535068	4.309100E+01
339	  0.087735467	-7.086000E+00	  0.087735467	7.705900E+01	  0.087735467	4.032200E+01	  0.087735467	4.320800E+01
340	  0.087935872	-7.089000E+00	  0.087935872	7.683300E+01	  0.087935872	4.046600E+01	  0.087935872	4.330700E+01
341	  0.088136271	-7.089000E+00	  0.088136271	7.661600E+01	  0.088136271	4.060100E+01	  0.088136271	4.340800E+01
342	  0.088336669	-7.086000E+00	  0.088336669	7.638500E+01	  0.088336669	4.073300E+01	  0.088336669	4.353300E+01
343	  0.088537075	-7.087000E+00	  0.088537075	7.615500E+01	  0.088537075	4.088100E+01	  0.088537075	4.363600E+01
344	  0.088737473	-7.083000E+00	  0.088737473	7.593800E+01	  0.088737473	4.100400E+01	  0.088737473	4.375500E+01
345	  0.088937871	-7.086000E+00	  0.088937871	7.571200E+01	  0.088937871	4.115400E+01	  0.088937871	4.385300E+01
346	  0.089138277	-7.085000E+00	  0.089138277	7.548300E+01	  0.089138277	4.129600E+01	  0.089138277	4.396500E+01
347	  0.089338675	-7.085000E+00	  0.089338675	7.526000E+01	  0.089338675	4.143600E+01	  0.089338675	4.407400E+01
348	  0.089539073	-7.085000E+00	  0.089539073	7.504300E+01	  0.089539073	4.157500E+01	  0.089539073	4.417700E+01
349	  0.089739479	-7.085000E+00	  0.089739479	7.481400E+01	  0.089739479	4.172300E+01	  0.089739479	4.428400E+01
350	  0.089939877	-7.082000E+00	  0.089939877	7.458600E+01	  0.089939877	4.186000E+01	  0.089939877	4.440700E+01
351	  0.090140276	-7.086000E+00	  0.090140276	7.435200E+01	  0.090140276	4.202500E+01	  0.090140276	4.450000E+01
352	  0.090340681	-7.082000E+00	  0.090340681	7.414100E+01	  0.090340681	4.215100E+01	  0.090340681	4.461600E+01
353	  0.090541080	-7.084000E+00	  0.090541080	7.390400E+01	  0.090541080	4.231500E+01	  0.090541080	4.471800E+01
354	  0.090741485	-7.083000E+00	  0.090741485	7.367900E+01	  0.090741485	4.246100E+01	  0.090741485	4.482900E+01
355	  0.090941884	-7.083000E+00	  0.090941884	7.345400E+01	  0.090941884	4.261000E+01	  0.090941884	4.493600E+01
356	  0.091142282	-7.082000E+00	  0.091142282	7.322700E+01	  0.091142282	4.276000E+01	  0.091142282	4.504600E+01
357	  0.091342688	-7.082000E+00	  0.091342688	7.298400E+01	  0.091342688	4.292200E+01	  0.091342688	4.516300E+01
358	  0.091543086	-7.083000E+00	  0.091543086	7.278200E+01	  0.091543086	4.306100E+01	  0.091543086	4.525500E+01
359	  0.091743484	-7.079000E+00	  0.091743484	7.253400E+01	  0.091743484	4.322100E+01	  0.091743484	4.538700E+01
360	  0.091943890	-7.080000E+00	  0.091943890	7.232200E+01	  0.091943890	4.337000E+01	  0.091943890	4.548100E+01
361	  0.092144288	-7.078000E+00	  0.092144288	7.208000E+01	  0.092144288	4.352800E+01	  0.092144288	4.560700E+01
362	  0.092344686	-7.080000E+00	  0.092344686	7.187700E+01	  0.092344686	4.367800E+01	  0.092344686	4.568900E+01
363	  0.092545092	-7.081000E+00	  0.092545092	7.163000E+01	  0.092545092	4.385200E+01	  0.092545092	4.580300E+01
364	  0.092745490	-7.078000E+00	  0.092745490	7.140900E+01	  0.092745490	4.399900E+01	  0.092745490	4.591900E+01
365	  0.092945889	-7.079000E+00	  0.092945889	7.119700E+01	  0.092945889	4.415200E+01	  0.092945889	4.601200E+01
366	  0.093146294	-7.078000E+00	  0.093146294	7.095700E+01	  0.093146294	4.432000E+01	  0.093146294	4.612800E+01
367	  0.093346693	-7.076000E+00	  0.093346693	7.074500E+01	  0.093346693	4.446400E+01	  0.093346693	4.623900E+01
368	  0.093547091	-7.077000E+00	  0.093547091	7.052100E+01	  0.093547091	4.463000E+01	  0.093547091	4.633400E+01
369	  0.093747497	-7.075000E+00	  0.093747497	7.028900E+01	  0.093747497	4.479300E+01	  0.093747497	4.645100E+01
370	  0.093947895	-7.074000E+00	  0.093947895	7.006000E+01	  0.093947895	4.495600E+01	  0.093947895	4.656200E+01
371	  0.094148301	-7.071000E+00	  0.094148301	6.982900E+01	  0.094148301	4.511600E+01	  0.094148301	4.668300E+01
372	  0.094348699	-7.075000E+00	  0.094348699	6.960500E+01	  0.094348699	4.529100E+01	  0.094348699	4.677100E+01
373	  0.094549097	-7.072000E+00	  0.094549097	6.939300E+01	  0.094549097	4.543900E+01	  0.094549097	4.688300E+01
374	  0.094749503	-7.068000E+00	  0.094749503	6.915300E+01	  0.094749503	4.560700E+01	  0.094749503	4.701300E+01
375	  0.094949901	-7.070000E+00	  0.094949901	6.892400E+01	  0.094949901	4.578500E+01	  0.094949901	4.710700E+01
376	  0.095150299	-7.064000E+00	  0.095150299	6.872000E+01	  0.095150299	4.592100E+01	  0.095150299	4.723000E+01
377	  0.095350705	-7.067000E+00	  0.095350705	6.848100E+01	  0.095350705	4.611100E+01	  0.095350705	4.732500E+01
378	  0.095551103	-7.064000E+00	  0.095551103	6.825700E+01	  0.095551103	4.627500E+01	  0.095551103	4.743900E+01
379	  0.095751502	-7.066000E+00	  0.095751502	6.802100E+01	  0.095751502	4.646000E+01	  0.095751502	4.754000E+01
380	  0.095951907	-7.066000E+00	  0.095951907	6.778900E+01	  0.095951907	4.664100E+01	  0.095951907	4.764200E+01
381	  0.096152306	-7.062000E+00	  0.096152306	6.757300E+01	  0.096152306	4.679800E+01	  0.096152306	4.775900E+01
382	  0.096352704	-7.063000E+00	  0.096352704	6.735800E+01	  0.096352704	4.696900E+01	  0.096352704	4.785200E+01
383	  0.096553110	-7.061000E+00	  0.096553110	6.710400E+01	  0.096553110	4.716300E+01	  0.096553110	4.797700E+01
384	  0.096753508	-7.061000E+00	  0.096753508	6.689900E+01	  0.096753508	4.732500E+01	  0.096753508	4.806900E+01
385	  0.096953906	-7.059000E+00	  0.096953906	6.666800E+01	  0.096953906	4.750200E+01	  0.096953906	4.818500E+01
386	  0.097154312	-7.056000E+00	  0.097154312	6.644200E+01	  0.097154312	4.767500E+01	  0.097154312	4.830100E+01
387	  0.097354710	-7.058000E+00	  0.097354710	6.622000E+01	  0.097354710	4.786000E+01	  0.097354710	4.838900E+01
388	  0.097555116	-7.056000E+00	  0.097555116	6.599100E+01	  0.097555116	4.804000E+01	  0.097555116	4.850000E+01
389	  0.097755514	-7.056000E+00	  0.097755514	6.577100E+01	  0.097755514	4.821800E+01	  0.097755514	4.860200E+01
390	  0.097955912	-7.055000E+00	  0.097955912	6.553100E+01	  0.097955912	4.841400E+01	  0.097955912	4.870900E+01
391	  0.098156318	-7.054000E+00	  0.098156318	6.531900E+01	  0.098156318	4.858400E+01	  0.098156318	4.881100E+01
392	  0.098356716	-7.052000E+00	  0.098356716	6.509400E+01	  0.098356716	4.876500E+01	  0.098356716	4.892200E+01
393	  0.098557115	-7.050000E+00	  0.098557115	6.487700E+01	  0.098557115	4.894100E+01	  0.098557115	4.902600E+01
394	  0.098757520	-7.052000E+00	  0.098757520	6.464000E+01	  0.098757520	4.914500E+01	  0.098757520	4.912000E+01
395	  0.098957919	-7.048000E+00	  0.098957919	6.442400E+01	  0.098957919	4.931900E+01	  0.098957919	4.923200E+01
396	  0.099158317	-7.046000E+00	  0.099158317	6.419800E+01	  0.099158317	4.950300E+01	  0.099158317	4.934600E+01
397	  0.099358723	-7.048000E+00	  0.099358723	6.399100E+01	  0.099358723	4.968600E+01	  0.099358723	4.942200E+01
398	  0.099559121	-7.046000E+00	  0.099559121	6.375400E+01	  0.099559121	4.988500E+01	  0.099559121	4.953500E+01
399	  0.099759519	-7.047000E+00	  0.099759519	6.350600E+01	  0.099759519	5.010200E+01	  0.099759519	4.963800E+01
400	  0.099959925	-7.039000E+00	  0.099959925	6.332300E+01	  0.099959925	5.024000E+01	  0.099959925	4.975900E+01
401	  0.100160323	-7.036000E+00	  0.100160323	6.308800E+01	  0.100160323	5.043500E+01	  0.100160323	4.988000E+01
402	  0.100360721	-7.034000E+00	  0.100360721	6.287800E+01	  0.100360721	5.061500E+01	  0.100360721	4.998000E+01
403	  0.100561127	-7.033000E+00	  0.100561127	6.264900E+01	  0.100561127	5.081400E+01	  0.100561127	5.008500E+01
404	  0.100761525	-7.033000E+00	  0.100761525	6.244600E+01	  0.100761525	5.099700E+01	  0.100761525	5.016800E+01
405	  0.100961931	-7.029000E+00	  0.100961931	6.223100E+01	  0.100961931	5.117700E+01	  0.100961931	5.028400E+01
406	  0.101162329	-7.034000E+00	  0.101162329	6.202300E+01	  0.101162329	5.138000E+01	  0.101162329	5.033800E+01
407	  0.101362728	-7.030000E+00	  0.101362728	6.180000E+01	  0.101362728	5.157000E+01	  0.101362728	5.045600E+01
408	  0.101563133	-7.031000E+00	  0.101563133	6.155700E+01	  0.101563133	5.179400E+01	  0.101563133	5.055100E+01
409	  0.101763532	-7.024000E+00	  0.101763532	6.132300E+01	  0.101763532	5.198900E+01	  0.101763532	5.069100E+01
410	  0.101963930	-7.027000E+00	  0.101963930	6.111700E+01	  0.101963930	5.218600E+01	  0.101963930	5.075900E+01
411	  0.102164336	-7.027000E+00	  0.102164336	6.088200E+01	  0.102164336	5.240600E+01	  0.102164336	5.085100E+01
412	  0.102364734	-7.025000E+00	  0.102364734	6.062400E+01	  0.102364734	5.264100E+01	  0.102364734	5.097100E+01
413	  0.102565132	-7.023000E+00	  0.102565132	6.043000E+01	  0.102565132	5.281800E+01	  0.102565132	5.106200E+01
414	  0.102765530	-7.029000E+00	  0.102765530	6.023700E+01	  0.102765530	5.301400E+01	  0.102765530	5.110500E+01
415	  0.102965929	-7.023000E+00	  0.102965929	6.000800E+01	  0.102965929	5.321600E+01	  0.102965929	5.123500E+01
416	  0.103166327	-7.020000E+00	  0.103166327	5.978500E+01	  0.103166327	5.342100E+01	  0.103166327	5.134300E+01
417	  0.103366733	-7.022000E+00	  0.103366733	5.953700E+01	  0.103366733	5.366600E+01	  0.103366733	5.142500E+01
418	  0.103567131	-7.019000E+00	  0.103567131	5.936000E+01	  0.103567131	5.383000E+01	  0.103567131	5.151200E+01
419	  0.103767529	-7.019000E+00	  0.103767529	5.910900E+01	  0.103767529	5.407200E+01	  0.103767529	5.161400E+01
420	  0.103967935	-7.018000E+00	  0.103967935	5.888600E+01	  0.103967935	5.428900E+01	  0.103967935	5.170400E+01
421	  0.104168333	-7.020000E+00	  0.104168333	5.868800E+01	  0.104168333	5.448800E+01	  0.104168333	5.177000E+01
422	  0.104368731	-7.019000E+00	  0.104368731	5.843500E+01	  0.104368731	5.473300E+01	  0.104368731	5.187700E+01
423	  0.104569137	-7.015000E+00	  0.104569137	5.823300E+01	  0.104569137	5.492600E+01	  0.104569137	5.197700E+01
424	  0.104769535	-7.019000E+00	  0.104769535	5.798000E+01	  0.104769535	5.518800E+01	  0.104769535	5.205000E+01
425	  0.104969934	-7.012000E+00	  0.104969934	5.776700E+01	  0.104969934	5.538600E+01	  0.104969934	5.217300E+01
426	  0.105170339	-7.013000E+00	  0.105170339	5.758400E+01	  0.105170339	5.557300E+01	  0.105170339	5.223400E+01
427	  0.105370738	-7.012000E+00	  0.105370738	5.735000E+01	  0.105370738	5.580900E+01	  0.105370738	5.232700E+01
428	  0.105571143	-7.014000E+00	  0.105571143	5.710800E+01	  0.105571143	5.605900E+01	  0.105571143	5.240900E+01
429	  0.105771542	-7.017000E+00	  0.105771542	5.688800E+01	  0.105771542	5.629200E+01	  0.105771542	5.246900E+01
430	  0.105971940	-7.013000E+00	  0.105971940	5.668800E+01	  0.105971940	5.649200E+01	  0.105971940	5.256400E+01
431	  0.106172346	-7.010000E+00	  0.106172346	5.646100E+01	  0.106172346	5.672000E+01	  0.106172346	5.266900E+01
432	  0.106372744	-7.010000E+00	  0.106372744	5.622100E+01	  0.106372744	5.697200E+01	  0.106372744	5.275100E+01
433	  0.106573142	-7.011000E+00	  0.106573142	5.600600E+01	  0.106573142	5.719900E+01	  0.106573142	5.282500E+01
434	  0.106773548	-7.010000E+00	  0.106773548	5.577200E+01	  0.106773548	5.744500E+01	  0.106773548	5.291100E+01
435	  0.106973946	-7.010000E+00	  0.106973946	5.555900E+01	  0.106973946	5.767000E+01	  0.106973946	5.298800E+01
436	  0.107174344	-7.008000E+00	  0.107174344	5.532100E+01	  0.107174344	5.792100E+01	  0.107174344	5.308200E+01
437	  0.107374750	-7.006000E+00	  0.107374750	5.512200E+01	  0.107374750	5.813100E+01	  0.107374750	5.316200E+01
438	  0.107575148	-7.002000E+00	  0.107575148	5.491500E+01	  0.107575148	5.834700E+01	  0.107575148	5.326000E+01
439	  0.107775547	-7.002000E+00	  0.107775547	5.468300E+01	  0.107775547	5.859800E+01	  0.107775547	5.334100E+01
440	  0.107975952	-7.004000E+00	  0.107975952	5.445900E+01	  0.107975952	5.884800E+01	  0.107975952	5.339700E+01
441	  0.108176351	-7.001000E+00	  0.108176351	5.423600E+01	  0.108176351	5.908600E+01	  0.108176351	5.349700E+01
442	  0.108376749	-7.000000E+00	  0.108376749	5.399900E+01	  0.108376749	5.934600E+01	  0.108376749	5.358200E+01
443	  0.108577155	-6.998000E+00	  0.108577155	5.380200E+01	  0.108577155	5.956100E+01	  0.108577155	5.365900E+01
444	  0.108777553	-6.998000E+00	  0.108777553	5.355400E+01	  0.108777553	5.983900E+01	  0.108777553	5.373600E+01
445	  0.108977959	-6.995000E+00	  0.108977959	5.335500E+01	  0.108977959	6.005700E+01	  0.108977959	5.381800E+01
446	  0.109178357	-6.997000E+00	  0.109178357	5.313500E+01	  0.109178357	6.031000E+01	  0.109178357	5.387500E+01
447	  0.109378755	-6.995000E+00	  0.109378755	5.293100E+01	  0.109378755	6.053700E+01	  0.109378755	5.395200E+01
448	  0.109579161	-6.998000E+00	  0.109579161	5.267900E+01	  0.109579161	6.083200E+01	  0.109579161	5.400800E+01
449	  0.109779559	-6.993000E+00	  0.109779559	5.248200E+01	  0.109779559	6.104900E+01	  0.109779559	5.410100E+01
450	  0.109979957	-6.994000E+00	  0.109979957	5.222700E+01	  0.109979957	6.134400E+01	  0.109979957	5.417000E+01
451	  0.110180363	-6.991000E+00	  0.110180363	5.202100E+01	  0.110180363	6.157900E+01	  0.110180363	5.425400E+01
452	  0.110380761	-6.992000E+00	  0.110380761	5.178700E+01	  0.110380761	6.185400E+01	  0.110380761	5.431200E+01
453	  0.110581160	-6.987000E+00	  0.110581160	5.155900E+01	  0.110581160	6.211300E+01	  0.110581160	5.441500E+01
454	  0.110781565	-6.986000E+00	  0.110781565	5.137900E+01	  0.110781565	6.232400E+01	  0.110781565	5.447100E+01
455	  0.110981964	-6.986000E+00	  0.110981964	5.115800E+01	  0.110981964	6.258800E+01	  0.110981964	5.452900E+01
456	  0.111182362	-6.985000E+00	  0.111182362	5.091700E+01	  0.111182362	6.287200E+01	  0.111182362	5.460900E+01
457	  0.111382768	-6.987000E+00	  0.111382768	5.070400E+01	  0.111382768	6.313200E+01	  0.111382768	5.464800E+01
458	  0.111583166	-6.983000E+00	  0.111583166	5.046300E+01	  0.111583166	6.341700E+01	  0.111583166	5.474100E+01
459	  0.111783572	-6.983000E+00	  0.111783572	5.026300E+01	  0.111783572	6.366100E+01	  0.111783572	5.478700E+01
460	  0.111983970	-6.981000E+00	  0.111983970	5.003700E+01	  0.111983970	6.393400E+01	  0.111983970	5.486000E+01
461	  0.112184368	-6.982000E+00	  0.112184368	4.983500E+01	  0.112184368	6.418200E+01	  0.112184368	5.490900E+01
462	  0.112384774	-6.979000E+00	  0.112384774	4.959100E+01	  0.112384774	6.447800E+01	  0.112384774	5.499000E+01
463	  0.112585172	-6.981000E+00	  0.112585172	4.937600E+01	  0.112585172	6.474700E+01	  0.112585172	5.502600E+01
464	  0.112785570	-6.977000E+00	  0.112785570	4.916400E+01	  0.112785570	6.500600E+01	  0.112785570	5.510600E+01
465	  0.112985976	-6.979000E+00	  0.112985976	4.893600E+01	  0.112985976	6.529500E+01	  0.112985976	5.514300E+01
466	  0.113186374	-6.980000E+00	  0.113186374	4.871600E+01	  0.113186374	6.557400E+01	  0.113186374	5.518300E+01
467	  0.113386773	-6.976000E+00	  0.113386773	4.847000E+01	  0.113386773	6.588000E+01	  0.113386773	5.526400E+01
468	  0.113587178	-6.976000E+00	  0.113587178	4.827000E+01	  0.113587178	6.613500E+01	  0.113587178	5.530900E+01
469	  0.113787577	-6.977000E+00	  0.113787577	4.803100E+01	  0.113787577	6.644200E+01	  0.113787577	5.534600E+01
470	  0.113987975	-6.976000E+00	  0.113987975	4.784700E+01	  0.113987975	6.667800E+01	  0.113987975	5.539000E+01
471	  0.114188381	-6.971000E+00	  0.114188381	4.761800E+01	  0.114188381	6.696800E+01	  0.114188381	5.547700E+01
472	  0.114388779	-6.970000E+00	  0.114388779	4.739000E+01	  0.114388779	6.726300E+01	  0.114388779	5.552700E+01
473	  0.114589177	-6.975000E+00	  0.114589177	4.717400E+01	  0.114589177	6.755000E+01	  0.114589177	5.552700E+01
474	  0.114789583	-6.972000E+00	  0.114789583	4.697100E+01	  0.114789583	6.781300E+01	  0.114789583	5.559300E+01
475	  0.114989981	-6.969000E+00	  0.114989981	4.673600E+01	  0.114989981	6.812000E+01	  0.114989981	5.565500E+01
476	  0.115190387	-6.967000E+00	  0.115190387	4.652200E+01	  0.115190387	6.840300E+01	  0.115190387	5.570500E+01
477	  0.115390785	-6.967000E+00	  0.115390785	4.631800E+01	  0.115390785	6.867400E+01	  0.115390785	5.573800E+01
478	  0.115591183	-6.966000E+00	  0.115591183	4.607100E+01	  0.115591183	6.900500E+01	  0.115591183	5.578600E+01
479	  0.115791589	-6.970000E+00	  0.115791589	4.587400E+01	  0.115791589	6.927400E+01	  0.115791589	5.577500E+01
480	  0.115991987	-6.964000E+00	  0.115991987	4.565100E+01	  0.115991987	6.957000E+01	  0.115991987	5.586500E+01
481	  0.116192386	-6.967000E+00	  0.116192386	4.545000E+01	  0.116192386	6.984500E+01	  0.116192386	5.586800E+01
482	  0.116392791	-6.964000E+00	  0.116392791	4.521100E+01	  0.116392791	7.016900E+01	  0.116392791	5.592200E+01
483	  0.116593190	-6.961000E+00	  0.116593190	4.499600E+01	  0.116593190	7.046100E+01	  0.116593190	5.597500E+01
484	  0.116793588	-6.964000E+00	  0.116793588	4.478000E+01	  0.116793588	7.076300E+01	  0.116793588	5.597200E+01
485	  0.116993994	-6.962000E+00	  0.116993994	4.453300E+01	  0.116993994	7.110400E+01	  0.116993994	5.601800E+01
486	  0.117194392	-6.961000E+00	  0.117194392	4.433100E+01	  0.117194392	7.138500E+01	  0.117194392	5.604700E+01
487	  0.117394790	-6.961000E+00	  0.117394790	4.412800E+01	  0.117394790	7.166900E+01	  0.117394790	5.606300E+01
488	  0.117595196	-6.963000E+00	  0.117595196	4.388400E+01	  0.117595196	7.201200E+01	  0.117595196	5.606100E+01
489	  0.117795594	-6.959000E+00	  0.117795594	4.367600E+01	  0.117795594	7.230500E+01	  0.117795594	5.612100E+01
490	  0.117995992	-6.961000E+00	  0.117995992	4.344400E+01	  0.117995992	7.263500E+01	  0.117995992	5.611800E+01
491	  0.118196398	-6.958000E+00	  0.118196398	4.324500E+01	  0.118196398	7.291800E+01	  0.118196398	5.615600E+01
492	  0.118396796	-6.961000E+00	  0.118396796	4.301500E+01	  0.118396796	7.324700E+01	  0.118396796	5.614100E+01
493	  0.118597202	-6.955000E+00	  0.118597202	4.279500E+01	  0.118597202	7.356200E+01	  0.118597202	5.620400E+01
494	  0.118797600	-6.957000E+00	  0.118797600	4.258700E+01	  0.118797600	7.386300E+01	  0.118797600	5.619600E+01
495	  0.118997999	-6.955000E+00	  0.118997999	4.237000E+01	  0.118997999	7.417900E+01	  0.118997999	5.622400E+01
496	  0.119198404	-6.954000E+00	  0.119198404	4.214900E+01	  0.119198404	7.450100E+01	  0.119198404	5.623400E+01
497	  0.119398803	-6.951000E+00	  0.119398803	4.193700E+01	  0.119398803	7.481200E+01	  0.119398803	5.626700E+01
498	  0.119599201	-6.951000E+00	  0.119599201	4.171000E+01	  0.119599201	7.514600E+01	  0.119599201	5.627400E+01
499	  0.119799607	-6.953000E+00	  0.119799607	4.149700E+01	  0.119799607	7.546100E+01	  0.119799607	5.625700E+01
500	  0.120000005	-6.952000E+00	  0.120000005	4.126300E+01	  0.120000005	7.580800E+01	  0.120000005	5.625900E+01
