! Anritsu VNA Master:             	Model: MS2036C/10/77
! SN:             	1601066
! /card0/usr/uu.s11.47pf.txt
! Existing Calibration Information:
! TYPE:             	Current Settings	Active Cal Settings
! TIME:             	05/23/2018 11:57:36 AM	05/23/2018 11:36:58 AM
! INTERNAL TEMP:    	48.3 C	48.8 C
! # POINTS:         	500	500
! START FREQ:       	20.000 MHz	20.000 MHz
! STOP FREQ:        	120.000 MHz	120.000 MHz
! SOURCE POWER:     	High	High
! IFBW:             	50 Hz	50 Hz
! AVG FACTOR:       	  1 	  1 
! REF PLANE 1:      	0 mm	0 mm
! REF PLANE 2:      	0 mm	0 mm
! CAL TYPE:         	Full S11	Full S11
! CAL METHOD:       	SOLT	SOLT
! CAL LINE TYPE:    	Coax	Coax
! DUT PORT 1:       	K-Conn(M)	K-Conn(M)
! DUT PORT 2:       	K-Conn(M)	K-Conn(M)
! CAL STATUS:       	OK: Accuracy High	--
! PROP-V:       	0.700
! CABLE LOSS:       	0.000 dB/m
! REF IMPEDANCE:       	50.0
! Trace Specific Parameters:	TR1	TR2	TR3	TR4
! TRACE.#.Y (GRAPH TYPE)	LOG MAG	PHASE	REAL IMPEDANCE	IMAGINARY IMPEDANCE
! TRACE.#.X 	FREQ.GHZ	FREQ.GHZ	FREQ.GHZ	FREQ.GHZ
! S-PARAMETER	S11	S11	S11	S11
! SMOOTH/APERTURE %	0	0	0	0
! WINDOW	NSL	NSL	NSL	NSL
! GATING	OFF	OFF	OFF	OFF
! FGTD	OFF	OFF	OFF	OFF
Marker Information per Trace:	TR1	TR2	TR3	TR4
!MK1	--	--	--	--
!MK2	--	--	--	--
!MK3	--	--	--	--
!MK4	--	--	--	--
!MK5	--	--	--	--
!MK6	--	--	--	--
!MK7	--	--	--	--
!MK8	--	--	--	--
PNT	TR1.FREQ.GHZ	TR1.LOG MAG.dB	TR2.FREQ.GHZ	TR2.PHASE.deg	TR3.FREQ.GHZ	TR3.REAL IMPEDANCE.ohm	TR4.FREQ.GHZ	TR4.IMAGINARY IMPEDANCE.ohm
1	  0.020000000	-2.700000E-02	  0.020000000	-5.502900E+01	  0.020000000	3.750000E-01	  0.020000000	-9.598700E+01
2	  0.020200402	-2.700000E-02	  0.020200402	-5.557500E+01	  0.020200402	3.660000E-01	  0.020200402	-9.488200E+01
3	  0.020400802	-2.800000E-02	  0.020400802	-5.610300E+01	  0.020400802	3.690000E-01	  0.020400802	-9.383000E+01
4	  0.020601204	-2.900000E-02	  0.020601204	-5.663300E+01	  0.020601204	3.810000E-01	  0.020601204	-9.279300E+01
5	  0.020801604	-3.100000E-02	  0.020801604	-5.718500E+01	  0.020801604	3.900000E-01	  0.020801604	-9.173300E+01
6	  0.021002004	-3.100000E-02	  0.021002004	-5.771800E+01	  0.021002004	3.880000E-01	  0.021002004	-9.072500E+01
7	  0.021202406	-3.100000E-02	  0.021202406	-5.825500E+01	  0.021202406	3.880000E-01	  0.021202406	-8.972800E+01
8	  0.021402806	-3.200000E-02	  0.021402806	-5.878900E+01	  0.021402806	3.820000E-01	  0.021402806	-8.875300E+01
9	  0.021603208	-3.300000E-02	  0.021603208	-5.932500E+01	  0.021603208	3.990000E-01	  0.021603208	-8.779000E+01
10	  0.021803608	-3.500000E-02	  0.021803608	-5.985800E+01	  0.021803608	4.070000E-01	  0.021803608	-8.684900E+01
11	  0.022004008	-3.500000E-02	  0.022004008	-6.039300E+01	  0.022004008	4.010000E-01	  0.022004008	-8.591900E+01
12	  0.022204408	-3.600000E-02	  0.022204408	-6.093600E+01	  0.022204408	4.070000E-01	  0.022204408	-8.498900E+01
13	  0.022404809	-3.600000E-02	  0.022404809	-6.147600E+01	  0.022404809	4.040000E-01	  0.022404809	-8.407900E+01
14	  0.022605211	-3.600000E-02	  0.022605211	-6.200100E+01	  0.022605211	3.920000E-01	  0.022605211	-8.320900E+01
15	  0.022805611	-3.400000E-02	  0.022805611	-6.253300E+01	  0.022805611	3.690000E-01	  0.022805611	-8.234200E+01
16	  0.023006011	-3.500000E-02	  0.023006011	-6.307100E+01	  0.023006011	3.770000E-01	  0.023006011	-8.147600E+01
17	  0.023206413	-3.600000E-02	  0.023206413	-6.360600E+01	  0.023206413	3.800000E-01	  0.023206413	-8.063000E+01
18	  0.023406813	-3.600000E-02	  0.023406813	-6.412700E+01	  0.023406813	3.770000E-01	  0.023406813	-7.981700E+01
19	  0.023607215	-3.600000E-02	  0.023607215	-6.466700E+01	  0.023607215	3.710000E-01	  0.023607215	-7.898800E+01
20	  0.023807615	-3.500000E-02	  0.023807615	-6.520900E+01	  0.023807615	3.540000E-01	  0.023807615	-7.816800E+01
21	  0.024008015	-3.400000E-02	  0.024008015	-6.574300E+01	  0.024008015	3.410000E-01	  0.024008015	-7.737000E+01
22	  0.024208417	-3.600000E-02	  0.024208417	-6.627600E+01	  0.024208417	3.520000E-01	  0.024208417	-7.658600E+01
23	  0.024408817	-3.600000E-02	  0.024408817	-6.680700E+01	  0.024408817	3.460000E-01	  0.024408817	-7.581600E+01
24	  0.024609219	-3.600000E-02	  0.024609219	-6.733000E+01	  0.024609219	3.450000E-01	  0.024609219	-7.506800E+01
25	  0.024809619	-3.700000E-02	  0.024809619	-6.787300E+01	  0.024809619	3.470000E-01	  0.024809619	-7.430400E+01
26	  0.025010020	-3.700000E-02	  0.025010020	-6.840500E+01	  0.025010020	3.450000E-01	  0.025010020	-7.356400E+01
27	  0.025210422	-3.700000E-02	  0.025210422	-6.893800E+01	  0.025210422	3.390000E-01	  0.025210422	-7.283300E+01
28	  0.025410822	-3.800000E-02	  0.025410822	-6.947700E+01	  0.025410822	3.440000E-01	  0.025410822	-7.210400E+01
29	  0.025611224	-3.700000E-02	  0.025611224	-7.000500E+01	  0.025611224	3.270000E-01	  0.025611224	-7.139800E+01
30	  0.025811624	-3.800000E-02	  0.025811624	-7.054300E+01	  0.025811624	3.350000E-01	  0.025811624	-7.069000E+01
31	  0.026012026	-4.000000E-02	  0.026012026	-7.107800E+01	  0.026012026	3.410000E-01	  0.026012026	-6.999400E+01
32	  0.026212426	-3.800000E-02	  0.026212426	-7.161700E+01	  0.026212426	3.240000E-01	  0.026212426	-6.930300E+01
33	  0.026412826	-4.100000E-02	  0.026412826	-7.215800E+01	  0.026412826	3.440000E-01	  0.026412826	-6.861800E+01
34	  0.026613226	-4.100000E-02	  0.026613226	-7.268200E+01	  0.026613226	3.400000E-01	  0.026613226	-6.796300E+01
35	  0.026813626	-4.300000E-02	  0.026813626	-7.322300E+01	  0.026813626	3.500000E-01	  0.026813626	-6.729400E+01
36	  0.027014028	-4.300000E-02	  0.027014028	-7.375600E+01	  0.027014028	3.440000E-01	  0.027014028	-6.664400E+01
37	  0.027214428	-4.400000E-02	  0.027214428	-7.430300E+01	  0.027214428	3.500000E-01	  0.027214428	-6.598700E+01
38	  0.027414829	-4.500000E-02	  0.027414829	-7.483300E+01	  0.027414829	3.540000E-01	  0.027414829	-6.535600E+01
39	  0.027615231	-4.600000E-02	  0.027615231	-7.537200E+01	  0.027615231	3.600000E-01	  0.027615231	-6.472300E+01
40	  0.027815631	-4.900000E-02	  0.027815631	-7.590100E+01	  0.027815631	3.740000E-01	  0.027815631	-6.410900E+01
41	  0.028016033	-5.000000E-02	  0.028016033	-7.644500E+01	  0.028016033	3.780000E-01	  0.028016033	-6.348500E+01
42	  0.028216433	-5.200000E-02	  0.028216433	-7.696900E+01	  0.028216433	3.880000E-01	  0.028216433	-6.289100E+01
43	  0.028416833	-5.400000E-02	  0.028416833	-7.749700E+01	  0.028416833	3.980000E-01	  0.028416833	-6.230000E+01
44	  0.028617235	-5.500000E-02	  0.028617235	-7.803000E+01	  0.028617235	4.050000E-01	  0.028617235	-6.170900E+01
45	  0.028817635	-5.700000E-02	  0.028817635	-7.856300E+01	  0.028817635	4.120000E-01	  0.028817635	-6.112500E+01
46	  0.029018037	-6.000000E-02	  0.029018037	-7.909900E+01	  0.029018037	4.270000E-01	  0.029018037	-6.054500E+01
47	  0.029218437	-6.200000E-02	  0.029218437	-7.962900E+01	  0.029218437	4.380000E-01	  0.029218437	-5.997800E+01
48	  0.029418837	-6.400000E-02	  0.029418837	-8.015800E+01	  0.029418837	4.480000E-01	  0.029418837	-5.941900E+01
49	  0.029619239	-6.500000E-02	  0.029619239	-8.068200E+01	  0.029619239	4.480000E-01	  0.029619239	-5.886900E+01
50	  0.029819639	-6.800000E-02	  0.029819639	-8.121000E+01	  0.029819639	4.630000E-01	  0.029819639	-5.832300E+01
51	  0.030020041	-7.100000E-02	  0.030020041	-8.174000E+01	  0.030020041	4.780000E-01	  0.030020041	-5.777900E+01
52	  0.030220442	-7.200000E-02	  0.030220442	-8.225400E+01	  0.030220442	4.820000E-01	  0.030220442	-5.725800E+01
53	  0.030420844	-7.300000E-02	  0.030420844	-8.278400E+01	  0.030420844	4.850000E-01	  0.030420844	-5.672600E+01
54	  0.030621244	-7.700000E-02	  0.030621244	-8.331100E+01	  0.030621244	5.020000E-01	  0.030621244	-5.620300E+01
55	  0.030821644	-7.800000E-02	  0.030821644	-8.381600E+01	  0.030821644	5.050000E-01	  0.030821644	-5.570700E+01
56	  0.031022044	-8.000000E-02	  0.031022044	-8.433400E+01	  0.031022044	5.130000E-01	  0.031022044	-5.520300E+01
57	  0.031222444	-7.900000E-02	  0.031222444	-8.485800E+01	  0.031222444	5.010000E-01	  0.031222444	-5.469800E+01
58	  0.031422846	-8.000000E-02	  0.031422846	-8.537300E+01	  0.031422846	5.040000E-01	  0.031422846	-5.420700E+01
59	  0.031623244	-8.300000E-02	  0.031623244	-8.587500E+01	  0.031623244	5.160000E-01	  0.031623244	-5.373300E+01
60	  0.031823646	-8.400000E-02	  0.031823646	-8.638600E+01	  0.031823646	5.180000E-01	  0.031823646	-5.325400E+01
61	  0.032024048	-8.700000E-02	  0.032024048	-8.688100E+01	  0.032024048	5.330000E-01	  0.032024048	-5.279500E+01
62	  0.032224450	-8.700000E-02	  0.032224450	-8.738300E+01	  0.032224450	5.300000E-01	  0.032224450	-5.233400E+01
63	  0.032424849	-8.900000E-02	  0.032424849	-8.790100E+01	  0.032424849	5.350000E-01	  0.032424849	-5.186200E+01
64	  0.032625251	-9.100000E-02	  0.032625251	-8.838700E+01	  0.032625251	5.420000E-01	  0.032625251	-5.142400E+01
65	  0.032825653	-9.200000E-02	  0.032825653	-8.888200E+01	  0.032825653	5.420000E-01	  0.032825653	-5.098200E+01
66	  0.033026051	-9.300000E-02	  0.033026051	-8.938000E+01	  0.033026051	5.460000E-01	  0.033026051	-5.054000E+01
67	  0.033226453	-9.400000E-02	  0.033226453	-8.989100E+01	  0.033226453	5.450000E-01	  0.033226453	-5.009200E+01
68	  0.033426855	-9.500000E-02	  0.033426855	-9.038700E+01	  0.033426855	5.460000E-01	  0.033426855	-4.966000E+01
69	  0.033627257	-9.800000E-02	  0.033627257	-9.088400E+01	  0.033627257	5.560000E-01	  0.033627257	-4.923000E+01
70	  0.033827655	-9.600000E-02	  0.033827655	-9.138200E+01	  0.033827655	5.440000E-01	  0.033827655	-4.880500E+01
71	  0.034028057	-9.900000E-02	  0.034028057	-9.187600E+01	  0.034028057	5.520000E-01	  0.034028057	-4.838500E+01
72	  0.034228459	-1.000000E-01	  0.034228459	-9.236100E+01	  0.034228459	5.550000E-01	  0.034228459	-4.797700E+01
73	  0.034428857	-1.010000E-01	  0.034428857	-9.287100E+01	  0.034428857	5.540000E-01	  0.034428857	-4.755100E+01
74	  0.034629259	-1.020000E-01	  0.034629259	-9.335500E+01	  0.034629259	5.590000E-01	  0.034629259	-4.715000E+01
75	  0.034829661	-1.020000E-01	  0.034829661	-9.384500E+01	  0.034829661	5.500000E-01	  0.034829661	-4.674800E+01
76	  0.035030060	-1.010000E-01	  0.035030060	-9.436200E+01	  0.035030060	5.420000E-01	  0.035030060	-4.632700E+01
77	  0.035230462	-1.040000E-01	  0.035230462	-9.484800E+01	  0.035230462	5.530000E-01	  0.035230462	-4.593500E+01
78	  0.035430863	-1.030000E-01	  0.035430863	-9.534600E+01	  0.035430863	5.440000E-01	  0.035430863	-4.553600E+01
79	  0.035631265	-1.050000E-01	  0.035631265	-9.584500E+01	  0.035631265	5.490000E-01	  0.035631265	-4.513900E+01
80	  0.035831664	-1.040000E-01	  0.035831664	-9.631900E+01	  0.035831664	5.430000E-01	  0.035831664	-4.476500E+01
81	  0.036032066	-1.050000E-01	  0.036032066	-9.682500E+01	  0.036032066	5.410000E-01	  0.036032066	-4.436900E+01
82	  0.036232468	-1.060000E-01	  0.036232468	-9.731900E+01	  0.036232468	5.450000E-01	  0.036232468	-4.398500E+01
83	  0.036432866	-1.070000E-01	  0.036432866	-9.781500E+01	  0.036432866	5.440000E-01	  0.036432866	-4.360300E+01
84	  0.036633268	-1.060000E-01	  0.036633268	-9.830500E+01	  0.036633268	5.360000E-01	  0.036633268	-4.322800E+01
85	  0.036833670	-1.080000E-01	  0.036833670	-9.880700E+01	  0.036833670	5.390000E-01	  0.036833670	-4.284600E+01
86	  0.037034072	-1.090000E-01	  0.037034072	-9.929100E+01	  0.037034072	5.440000E-01	  0.037034072	-4.248100E+01
87	  0.037234470	-1.090000E-01	  0.037234470	-9.978800E+01	  0.037234470	5.370000E-01	  0.037234470	-4.210900E+01
88	  0.037434869	-1.090000E-01	  0.037434869	-1.002770E+02	  0.037434869	5.360000E-01	  0.037434869	-4.174600E+01
89	  0.037635271	-1.110000E-01	  0.037635271	-1.007730E+02	  0.037635271	5.390000E-01	  0.037635271	-4.138000E+01
90	  0.037835669	-1.110000E-01	  0.037835669	-1.012740E+02	  0.037835669	5.350000E-01	  0.037835669	-4.101200E+01
91	  0.038036071	-1.120000E-01	  0.038036071	-1.017560E+02	  0.038036071	5.370000E-01	  0.038036071	-4.066200E+01
92	  0.038236473	-1.100000E-01	  0.038236473	-1.022430E+02	  0.038236473	5.250000E-01	  0.038236473	-4.031000E+01
93	  0.038436871	-1.120000E-01	  0.038436871	-1.027370E+02	  0.038436871	5.310000E-01	  0.038436871	-3.995600E+01
94	  0.038637273	-1.120000E-01	  0.038637273	-1.032210E+02	  0.038637273	5.250000E-01	  0.038637273	-3.961100E+01
95	  0.038837675	-1.120000E-01	  0.038837675	-1.037190E+02	  0.038837675	5.210000E-01	  0.038837675	-3.925900E+01
96	  0.039038073	-1.120000E-01	  0.039038073	-1.041990E+02	  0.039038073	5.210000E-01	  0.039038073	-3.892100E+01
97	  0.039238475	-1.110000E-01	  0.039238475	-1.046860E+02	  0.039238475	5.120000E-01	  0.039238475	-3.858100E+01
98	  0.039438877	-1.140000E-01	  0.039438877	-1.051770E+02	  0.039438877	5.220000E-01	  0.039438877	-3.824000E+01
99	  0.039639279	-1.130000E-01	  0.039639279	-1.056520E+02	  0.039639279	5.120000E-01	  0.039639279	-3.791300E+01
100	  0.039839678	-1.150000E-01	  0.039839678	-1.061470E+02	  0.039839678	5.190000E-01	  0.039839678	-3.757400E+01
101	  0.040040080	-1.140000E-01	  0.040040080	-1.066260E+02	  0.040040080	5.140000E-01	  0.040040080	-3.724800E+01
102	  0.040240481	-1.140000E-01	  0.040240481	-1.071240E+02	  0.040240481	5.110000E-01	  0.040240481	-3.691100E+01
103	  0.040440880	-1.140000E-01	  0.040440880	-1.076020E+02	  0.040440880	5.060000E-01	  0.040440880	-3.659000E+01
104	  0.040641282	-1.150000E-01	  0.040641282	-1.080790E+02	  0.040641282	5.060000E-01	  0.040641282	-3.627100E+01
105	  0.040841684	-1.160000E-01	  0.040841684	-1.085660E+02	  0.040841684	5.100000E-01	  0.040841684	-3.594800E+01
106	  0.041042086	-1.170000E-01	  0.041042086	-1.090600E+02	  0.041042086	5.080000E-01	  0.041042086	-3.562200E+01
107	  0.041242484	-1.170000E-01	  0.041242484	-1.095320E+02	  0.041242484	5.080000E-01	  0.041242484	-3.531300E+01
108	  0.041442886	-1.170000E-01	  0.041442886	-1.100110E+02	  0.041442886	5.050000E-01	  0.041442886	-3.500000E+01
109	  0.041643288	-1.190000E-01	  0.041643288	-1.105010E+02	  0.041643288	5.080000E-01	  0.041643288	-3.468200E+01
110	  0.041843686	-1.180000E-01	  0.041843686	-1.109720E+02	  0.041843686	5.010000E-01	  0.041843686	-3.437900E+01
111	  0.042044088	-1.190000E-01	  0.042044088	-1.114540E+02	  0.042044088	5.030000E-01	  0.042044088	-3.407000E+01
112	  0.042244490	-1.200000E-01	  0.042244490	-1.119260E+02	  0.042244490	5.030000E-01	  0.042244490	-3.376900E+01
113	  0.042444889	-1.190000E-01	  0.042444889	-1.124210E+02	  0.042444889	4.990000E-01	  0.042444889	-3.345600E+01
114	  0.042645290	-1.200000E-01	  0.042645290	-1.128890E+02	  0.042645290	5.010000E-01	  0.042645290	-3.316100E+01
115	  0.042845692	-1.190000E-01	  0.042845692	-1.133650E+02	  0.042845692	4.920000E-01	  0.042845692	-3.286300E+01
116	  0.043046094	-1.210000E-01	  0.043046094	-1.138510E+02	  0.043046094	4.990000E-01	  0.043046094	-3.256000E+01
117	  0.043246493	-1.220000E-01	  0.043246493	-1.143230E+02	  0.043246493	4.980000E-01	  0.043246493	-3.226700E+01
118	  0.043446895	-1.230000E-01	  0.043446895	-1.148060E+02	  0.043446895	5.020000E-01	  0.043446895	-3.197000E+01
119	  0.043647297	-1.220000E-01	  0.043647297	-1.152710E+02	  0.043647297	4.950000E-01	  0.043647297	-3.168500E+01
120	  0.043847695	-1.230000E-01	  0.043847695	-1.157560E+02	  0.043847695	4.950000E-01	  0.043847695	-3.138900E+01
121	  0.044048097	-1.220000E-01	  0.044048097	-1.162190E+02	  0.044048097	4.890000E-01	  0.044048097	-3.110800E+01
122	  0.044248499	-1.240000E-01	  0.044248499	-1.167030E+02	  0.044248499	4.950000E-01	  0.044248499	-3.081600E+01
123	  0.044448901	-1.260000E-01	  0.044448901	-1.171620E+02	  0.044448901	4.980000E-01	  0.044448901	-3.054000E+01
124	  0.044649299	-1.260000E-01	  0.044649299	-1.176290E+02	  0.044649299	4.970000E-01	  0.044649299	-3.026100E+01
125	  0.044849701	-1.280000E-01	  0.044849701	-1.181080E+02	  0.044849701	5.040000E-01	  0.044849701	-2.997600E+01
126	  0.045050103	-1.270000E-01	  0.045050103	-1.185800E+02	  0.045050103	4.960000E-01	  0.045050103	-2.969700E+01
127	  0.045250501	-1.270000E-01	  0.045250501	-1.190530E+02	  0.045250501	4.940000E-01	  0.045250501	-2.941800E+01
128	  0.045450903	-1.290000E-01	  0.045450903	-1.195340E+02	  0.045450903	4.980000E-01	  0.045450903	-2.913600E+01
129	  0.045651305	-1.290000E-01	  0.045651305	-1.200010E+02	  0.045651305	4.950000E-01	  0.045651305	-2.886400E+01
130	  0.045851704	-1.310000E-01	  0.045851704	-1.204610E+02	  0.045851704	5.030000E-01	  0.045851704	-2.859700E+01
131	  0.046052106	-1.330000E-01	  0.046052106	-1.209310E+02	  0.046052106	5.060000E-01	  0.046052106	-2.832600E+01
132	  0.046252504	-1.330000E-01	  0.046252504	-1.213980E+02	  0.046252504	5.040000E-01	  0.046252504	-2.805700E+01
133	  0.046452906	-1.340000E-01	  0.046452906	-1.218780E+02	  0.046452906	5.050000E-01	  0.046452906	-2.778200E+01
134	  0.046653304	-1.350000E-01	  0.046653304	-1.223480E+02	  0.046653304	5.080000E-01	  0.046653304	-2.751400E+01
135	  0.046853706	-1.350000E-01	  0.046853706	-1.228190E+02	  0.046853706	5.040000E-01	  0.046853706	-2.724700E+01
136	  0.047054108	-1.320000E-01	  0.047054108	-1.232840E+02	  0.047054108	4.900000E-01	  0.047054108	-2.698500E+01
137	  0.047254506	-1.330000E-01	  0.047254506	-1.237620E+02	  0.047254506	4.930000E-01	  0.047254506	-2.671600E+01
138	  0.047454908	-1.340000E-01	  0.047454908	-1.242120E+02	  0.047454908	4.940000E-01	  0.047454908	-2.646400E+01
139	  0.047655310	-1.330000E-01	  0.047655310	-1.246860E+02	  0.047655310	4.890000E-01	  0.047655310	-2.620000E+01
140	  0.047855709	-1.350000E-01	  0.047855709	-1.251520E+02	  0.047855709	4.940000E-01	  0.047855709	-2.594100E+01
141	  0.048056111	-1.370000E-01	  0.048056111	-1.256270E+02	  0.048056111	4.990000E-01	  0.048056111	-2.567900E+01
142	  0.048256513	-1.390000E-01	  0.048256513	-1.260980E+02	  0.048256513	5.040000E-01	  0.048256513	-2.542000E+01
143	  0.048456915	-1.380000E-01	  0.048456915	-1.265620E+02	  0.048456915	5.000000E-01	  0.048456915	-2.516500E+01
144	  0.048657313	-1.400000E-01	  0.048657313	-1.270250E+02	  0.048657313	5.050000E-01	  0.048657313	-2.491200E+01
145	  0.048857715	-1.410000E-01	  0.048857715	-1.274840E+02	  0.048857715	5.070000E-01	  0.048857715	-2.466300E+01
146	  0.049058117	-1.420000E-01	  0.049058117	-1.279540E+02	  0.049058117	5.060000E-01	  0.049058117	-2.440900E+01
147	  0.049258515	-1.430000E-01	  0.049258515	-1.284200E+02	  0.049258515	5.080000E-01	  0.049258515	-2.415700E+01
148	  0.049458917	-1.430000E-01	  0.049458917	-1.288810E+02	  0.049458917	5.070000E-01	  0.049458917	-2.391000E+01
149	  0.049659319	-1.450000E-01	  0.049659319	-1.293390E+02	  0.049659319	5.130000E-01	  0.049659319	-2.366500E+01
150	  0.049859721	-1.450000E-01	  0.049859721	-1.298220E+02	  0.049859721	5.090000E-01	  0.049859721	-2.340700E+01
151	  0.050060119	-1.470000E-01	  0.050060119	-1.302790E+02	  0.050060119	5.140000E-01	  0.050060119	-2.316400E+01
152	  0.050260521	-1.470000E-01	  0.050260521	-1.307380E+02	  0.050260521	5.130000E-01	  0.050260521	-2.292200E+01
153	  0.050460923	-1.470000E-01	  0.050460923	-1.312030E+02	  0.050460923	5.100000E-01	  0.050460923	-2.267700E+01
154	  0.050661322	-1.480000E-01	  0.050661322	-1.316520E+02	  0.050661322	5.140000E-01	  0.050661322	-2.244100E+01
155	  0.050861724	-1.490000E-01	  0.050861724	-1.321090E+02	  0.050861724	5.160000E-01	  0.050861724	-2.220200E+01
156	  0.051062126	-1.510000E-01	  0.051062126	-1.325810E+02	  0.051062126	5.190000E-01	  0.051062126	-2.195500E+01
157	  0.051262524	-1.500000E-01	  0.051262524	-1.330320E+02	  0.051262524	5.150000E-01	  0.051262524	-2.172100E+01
158	  0.051462926	-1.510000E-01	  0.051462926	-1.334980E+02	  0.051462926	5.170000E-01	  0.051462926	-2.148000E+01
159	  0.051663328	-1.530000E-01	  0.051663328	-1.339580E+02	  0.051663328	5.200000E-01	  0.051663328	-2.124300E+01
160	  0.051863730	-1.530000E-01	  0.051863730	-1.344010E+02	  0.051863730	5.200000E-01	  0.051863730	-2.101500E+01
161	  0.052064128	-1.530000E-01	  0.052064128	-1.348550E+02	  0.052064128	5.170000E-01	  0.052064128	-2.078200E+01
162	  0.052264530	-1.520000E-01	  0.052264530	-1.353060E+02	  0.052264530	5.110000E-01	  0.052264530	-2.055200E+01
163	  0.052464932	-1.530000E-01	  0.052464932	-1.357550E+02	  0.052464932	5.130000E-01	  0.052464932	-2.032300E+01
164	  0.052665330	-1.540000E-01	  0.052665330	-1.362110E+02	  0.052665330	5.150000E-01	  0.052665330	-2.009200E+01
165	  0.052865732	-1.540000E-01	  0.052865732	-1.366570E+02	  0.052865732	5.150000E-01	  0.052865732	-1.986600E+01
166	  0.053066134	-1.540000E-01	  0.053066134	-1.371130E+02	  0.053066134	5.110000E-01	  0.053066134	-1.963600E+01
167	  0.053266536	-1.560000E-01	  0.053266536	-1.375550E+02	  0.053266536	5.180000E-01	  0.053266536	-1.941400E+01
168	  0.053466935	-1.540000E-01	  0.053466935	-1.380120E+02	  0.053466935	5.100000E-01	  0.053466935	-1.918400E+01
169	  0.053667337	-1.560000E-01	  0.053667337	-1.384460E+02	  0.053667337	5.150000E-01	  0.053667337	-1.896800E+01
170	  0.053867739	-1.560000E-01	  0.053867739	-1.388940E+02	  0.053867739	5.130000E-01	  0.053867739	-1.874400E+01
171	  0.054068137	-1.570000E-01	  0.054068137	-1.393410E+02	  0.054068137	5.160000E-01	  0.054068137	-1.852200E+01
172	  0.054268539	-1.570000E-01	  0.054268539	-1.397790E+02	  0.054268539	5.130000E-01	  0.054268539	-1.830500E+01
173	  0.054468941	-1.580000E-01	  0.054468941	-1.402370E+02	  0.054468941	5.170000E-01	  0.054468941	-1.807900E+01
174	  0.054669339	-1.590000E-01	  0.054669339	-1.406770E+02	  0.054669339	5.170000E-01	  0.054669339	-1.786200E+01
175	  0.054869737	-1.600000E-01	  0.054869737	-1.411190E+02	  0.054869737	5.180000E-01	  0.054869737	-1.764500E+01
176	  0.055070139	-1.610000E-01	  0.055070139	-1.415590E+02	  0.055070139	5.210000E-01	  0.055070139	-1.742900E+01
177	  0.055270538	-1.630000E-01	  0.055270538	-1.420070E+02	  0.055270538	5.250000E-01	  0.055270538	-1.721000E+01
178	  0.055470940	-1.630000E-01	  0.055470940	-1.424510E+02	  0.055470940	5.240000E-01	  0.055470940	-1.699400E+01
179	  0.055671342	-1.630000E-01	  0.055671342	-1.428930E+02	  0.055671342	5.250000E-01	  0.055671342	-1.677900E+01
180	  0.055871744	-1.650000E-01	  0.055871744	-1.433360E+02	  0.055871744	5.270000E-01	  0.055871744	-1.656400E+01
181	  0.056072142	-1.660000E-01	  0.056072142	-1.437770E+02	  0.056072142	5.290000E-01	  0.056072142	-1.635100E+01
182	  0.056272544	-1.660000E-01	  0.056272544	-1.442110E+02	  0.056272544	5.290000E-01	  0.056272544	-1.614200E+01
183	  0.056472946	-1.670000E-01	  0.056472946	-1.446630E+02	  0.056472946	5.320000E-01	  0.056472946	-1.592400E+01
184	  0.056673344	-1.690000E-01	  0.056673344	-1.450930E+02	  0.056673344	5.350000E-01	  0.056673344	-1.571800E+01
185	  0.056873746	-1.700000E-01	  0.056873746	-1.455340E+02	  0.056873746	5.390000E-01	  0.056873746	-1.550700E+01
186	  0.057074148	-1.700000E-01	  0.057074148	-1.459690E+02	  0.057074148	5.370000E-01	  0.057074148	-1.529900E+01
187	  0.057274550	-1.740000E-01	  0.057274550	-1.464110E+02	  0.057274550	5.460000E-01	  0.057274550	-1.508800E+01
188	  0.057474948	-1.750000E-01	  0.057474948	-1.468490E+02	  0.057474948	5.490000E-01	  0.057474948	-1.488000E+01
189	  0.057675350	-1.750000E-01	  0.057675350	-1.472920E+02	  0.057675350	5.490000E-01	  0.057675350	-1.467000E+01
190	  0.057875752	-1.760000E-01	  0.057875752	-1.477220E+02	  0.057875752	5.520000E-01	  0.057875752	-1.446600E+01
191	  0.058076151	-1.780000E-01	  0.058076151	-1.481630E+02	  0.058076151	5.560000E-01	  0.058076151	-1.425800E+01
192	  0.058276553	-1.800000E-01	  0.058276553	-1.485930E+02	  0.058276553	5.600000E-01	  0.058276553	-1.405500E+01
193	  0.058476955	-1.810000E-01	  0.058476955	-1.490210E+02	  0.058476955	5.620000E-01	  0.058476955	-1.385400E+01
194	  0.058677353	-1.830000E-01	  0.058677353	-1.494640E+02	  0.058677353	5.670000E-01	  0.058677353	-1.364600E+01
195	  0.058877755	-1.840000E-01	  0.058877755	-1.498970E+02	  0.058877755	5.700000E-01	  0.058877755	-1.344300E+01
196	  0.059078157	-1.860000E-01	  0.059078157	-1.503350E+02	  0.059078157	5.730000E-01	  0.059078157	-1.323900E+01
197	  0.059278559	-1.870000E-01	  0.059278559	-1.507710E+02	  0.059278559	5.770000E-01	  0.059278559	-1.303500E+01
198	  0.059478957	-1.900000E-01	  0.059478957	-1.511950E+02	  0.059478957	5.820000E-01	  0.059478957	-1.283800E+01
199	  0.059679359	-1.910000E-01	  0.059679359	-1.516250E+02	  0.059679359	5.850000E-01	  0.059679359	-1.263800E+01
200	  0.059879761	-1.920000E-01	  0.059879761	-1.520590E+02	  0.059879761	5.880000E-01	  0.059879761	-1.243600E+01
201	  0.060080159	-1.920000E-01	  0.060080159	-1.524870E+02	  0.060080159	5.860000E-01	  0.060080159	-1.223900E+01
202	  0.060280561	-1.940000E-01	  0.060280561	-1.529200E+02	  0.060280561	5.910000E-01	  0.060280561	-1.203800E+01
203	  0.060480963	-1.950000E-01	  0.060480963	-1.533500E+02	  0.060480963	5.940000E-01	  0.060480963	-1.184000E+01
204	  0.060681365	-1.960000E-01	  0.060681365	-1.537750E+02	  0.060681365	5.970000E-01	  0.060681365	-1.164400E+01
205	  0.060881764	-1.970000E-01	  0.060881764	-1.542170E+02	  0.060881764	5.980000E-01	  0.060881764	-1.144200E+01
206	  0.061082166	-1.980000E-01	  0.061082166	-1.546390E+02	  0.061082166	5.990000E-01	  0.061082166	-1.124800E+01
207	  0.061282568	-1.990000E-01	  0.061282568	-1.550700E+02	  0.061282568	6.020000E-01	  0.061282568	-1.105000E+01
208	  0.061482966	-1.980000E-01	  0.061482966	-1.554910E+02	  0.061482966	5.990000E-01	  0.061482966	-1.085800E+01
209	  0.061683368	-1.990000E-01	  0.061683368	-1.559220E+02	  0.061683368	6.000000E-01	  0.061683368	-1.066100E+01
210	  0.061883770	-2.010000E-01	  0.061883770	-1.563530E+02	  0.061883770	6.050000E-01	  0.061883770	-1.046500E+01
211	  0.062084168	-2.010000E-01	  0.062084168	-1.567710E+02	  0.062084168	6.040000E-01	  0.062084168	-1.027400E+01
212	  0.062284570	-2.010000E-01	  0.062284570	-1.572020E+02	  0.062284570	6.030000E-01	  0.062284570	-1.007900E+01
213	  0.062484972	-1.950000E-01	  0.062484972	-1.575910E+02	  0.062484972	5.830000E-01	  0.062484972	-9.903000E+00
214	  0.062685370	-1.970000E-01	  0.062685370	-1.580030E+02	  0.062685370	5.910000E-01	  0.062685370	-9.716000E+00
215	  0.062885776	-1.960000E-01	  0.062885776	-1.584300E+02	  0.062885776	5.860000E-01	  0.062885776	-9.522000E+00
216	  0.063086174	-1.980000E-01	  0.063086174	-1.588530E+02	  0.063086174	5.900000E-01	  0.063086174	-9.331000E+00
217	  0.063286573	-1.990000E-01	  0.063286573	-1.592610E+02	  0.063286573	5.940000E-01	  0.063286573	-9.147000E+00
218	  0.063486971	-2.000000E-01	  0.063486971	-1.596980E+02	  0.063486971	5.960000E-01	  0.063486971	-8.950000E+00
219	  0.063687377	-2.000000E-01	  0.063687377	-1.601180E+02	  0.063687377	5.950000E-01	  0.063687377	-8.761000E+00
220	  0.063887775	-2.020000E-01	  0.063887775	-1.605340E+02	  0.063887775	6.000000E-01	  0.063887775	-8.574000E+00
221	  0.064088173	-2.030000E-01	  0.064088173	-1.609500E+02	  0.064088173	6.000000E-01	  0.064088173	-8.388000E+00
222	  0.064288579	-2.040000E-01	  0.064288579	-1.613810E+02	  0.064288579	6.030000E-01	  0.064288579	-8.194000E+00
223	  0.064488977	-2.030000E-01	  0.064488977	-1.618030E+02	  0.064488977	6.000000E-01	  0.064488977	-8.006000E+00
224	  0.064689375	-2.080000E-01	  0.064689375	-1.622190E+02	  0.064689375	6.130000E-01	  0.064689375	-7.820000E+00
225	  0.064889781	-2.080000E-01	  0.064889781	-1.626410E+02	  0.064889781	6.130000E-01	  0.064889781	-7.631000E+00
226	  0.065090179	-2.080000E-01	  0.065090179	-1.630550E+02	  0.065090179	6.120000E-01	  0.065090179	-7.446000E+00
227	  0.065290578	-2.090000E-01	  0.065290578	-1.634660E+02	  0.065290578	6.150000E-01	  0.065290578	-7.263000E+00
228	  0.065490983	-2.100000E-01	  0.065490983	-1.638860E+02	  0.065490983	6.190000E-01	  0.065490983	-7.076000E+00
229	  0.065691382	-2.110000E-01	  0.065691382	-1.643180E+02	  0.065691382	6.190000E-01	  0.065691382	-6.884000E+00
230	  0.065891780	-2.100000E-01	  0.065891780	-1.647240E+02	  0.065891780	6.180000E-01	  0.065891780	-6.704000E+00
231	  0.066092186	-2.120000E-01	  0.066092186	-1.651390E+02	  0.066092186	6.220000E-01	  0.066092186	-6.519000E+00
232	  0.066292584	-2.140000E-01	  0.066292584	-1.655560E+02	  0.066292584	6.260000E-01	  0.066292584	-6.334000E+00
233	  0.066492982	-2.130000E-01	  0.066492982	-1.659690E+02	  0.066492982	6.240000E-01	  0.066492982	-6.151000E+00
234	  0.066693388	-2.130000E-01	  0.066693388	-1.663980E+02	  0.066693388	6.220000E-01	  0.066693388	-5.962000E+00
235	  0.066893786	-2.160000E-01	  0.066893786	-1.668070E+02	  0.066893786	6.300000E-01	  0.066893786	-5.780000E+00
236	  0.067094192	-2.180000E-01	  0.067094192	-1.672200E+02	  0.067094192	6.360000E-01	  0.067094192	-5.598000E+00
237	  0.067294590	-2.190000E-01	  0.067294590	-1.676370E+02	  0.067294590	6.370000E-01	  0.067294590	-5.414000E+00
238	  0.067494988	-2.190000E-01	  0.067494988	-1.680510E+02	  0.067494988	6.370000E-01	  0.067494988	-5.231000E+00
239	  0.067695394	-2.200000E-01	  0.067695394	-1.684700E+02	  0.067695394	6.400000E-01	  0.067695394	-5.047000E+00
240	  0.067895792	-2.180000E-01	  0.067895792	-1.688850E+02	  0.067895792	6.360000E-01	  0.067895792	-4.864000E+00
241	  0.068096191	-2.210000E-01	  0.068096191	-1.692860E+02	  0.068096191	6.430000E-01	  0.068096191	-4.687000E+00
242	  0.068296596	-2.230000E-01	  0.068296596	-1.696930E+02	  0.068296596	6.480000E-01	  0.068296596	-4.508000E+00
243	  0.068496995	-2.220000E-01	  0.068496995	-1.701080E+02	  0.068496995	6.440000E-01	  0.068496995	-4.326000E+00
244	  0.068697393	-2.240000E-01	  0.068697393	-1.705190E+02	  0.068697393	6.490000E-01	  0.068697393	-4.145000E+00
245	  0.068897791	-2.260000E-01	  0.068897791	-1.709260E+02	  0.068897791	6.560000E-01	  0.068897791	-3.966000E+00
246	  0.069098189	-2.270000E-01	  0.069098189	-1.713320E+02	  0.069098189	6.580000E-01	  0.069098189	-3.788000E+00
247	  0.069298595	-2.260000E-01	  0.069298595	-1.717420E+02	  0.069298595	6.560000E-01	  0.069298595	-3.608000E+00
248	  0.069498993	-2.280000E-01	  0.069498993	-1.721500E+02	  0.069498993	6.600000E-01	  0.069498993	-3.429000E+00
249	  0.069699399	-2.280000E-01	  0.069699399	-1.725490E+02	  0.069699399	6.600000E-01	  0.069699399	-3.254000E+00
250	  0.069899797	-2.290000E-01	  0.069899797	-1.729630E+02	  0.069899797	6.640000E-01	  0.069899797	-3.073000E+00
251	  0.070100196	-2.290000E-01	  0.070100196	-1.733650E+02	  0.070100196	6.640000E-01	  0.070100196	-2.897000E+00
252	  0.070300601	-2.300000E-01	  0.070300601	-1.737650E+02	  0.070300601	6.660000E-01	  0.070300601	-2.722000E+00
253	  0.070501000	-2.330000E-01	  0.070501000	-1.741620E+02	  0.070501000	6.740000E-01	  0.070501000	-2.549000E+00
254	  0.070701398	-2.340000E-01	  0.070701398	-1.745730E+02	  0.070701398	6.760000E-01	  0.070701398	-2.368000E+00
255	  0.070901804	-2.360000E-01	  0.070901804	-1.749670E+02	  0.070901804	6.800000E-01	  0.070901804	-2.196000E+00
256	  0.071102202	-2.350000E-01	  0.071102202	-1.753760E+02	  0.071102202	6.790000E-01	  0.071102202	-2.017000E+00
257	  0.071302600	-2.360000E-01	  0.071302600	-1.757710E+02	  0.071302600	6.800000E-01	  0.071302600	-1.845000E+00
258	  0.071503006	-2.360000E-01	  0.071503006	-1.761760E+02	  0.071503006	6.810000E-01	  0.071503006	-1.668000E+00
259	  0.071703404	-2.360000E-01	  0.071703404	-1.765700E+02	  0.071703404	6.800000E-01	  0.071703404	-1.496000E+00
260	  0.071903802	-2.370000E-01	  0.071903802	-1.769680E+02	  0.071903802	6.840000E-01	  0.071903802	-1.322000E+00
261	  0.072104208	-2.380000E-01	  0.072104208	-1.773740E+02	  0.072104208	6.870000E-01	  0.072104208	-1.145000E+00
262	  0.072304606	-2.390000E-01	  0.072304606	-1.777690E+02	  0.072304606	6.880000E-01	  0.072304606	-9.730000E-01
263	  0.072505005	-2.390000E-01	  0.072505005	-1.781540E+02	  0.072505005	6.890000E-01	  0.072505005	-8.050000E-01
264	  0.072705410	-2.390000E-01	  0.072705410	-1.785570E+02	  0.072705410	6.890000E-01	  0.072705410	-6.290000E-01
265	  0.072905809	-2.420000E-01	  0.072905809	-1.789560E+02	  0.072905809	6.970000E-01	  0.072905809	-4.550000E-01
266	  0.073106214	-2.400000E-01	  0.073106214	-1.793460E+02	  0.073106214	6.920000E-01	  0.073106214	-2.850000E-01
267	  0.073306613	-2.410000E-01	  0.073306613	-1.797360E+02	  0.073306613	6.950000E-01	  0.073306613	-1.150000E-01
268	  0.073507011	-2.410000E-01	  0.073507011	1.798580E+02	  0.073507011	6.950000E-01	  0.073507011	6.100000E-02
269	  0.073707417	-2.430000E-01	  0.073707417	1.794620E+02	  0.073707417	7.000000E-01	  0.073707417	2.340000E-01
270	  0.073907815	-2.420000E-01	  0.073907815	1.790750E+02	  0.073907815	6.980000E-01	  0.073907815	4.030000E-01
271	  0.074108213	-2.430000E-01	  0.074108213	1.786880E+02	  0.074108213	7.010000E-01	  0.074108213	5.720000E-01
272	  0.074308619	-2.420000E-01	  0.074308619	1.782940E+02	  0.074308619	6.980000E-01	  0.074308619	7.430000E-01
273	  0.074509017	-2.430000E-01	  0.074509017	1.779020E+02	  0.074509017	6.990000E-01	  0.074509017	9.150000E-01
274	  0.074709415	-2.430000E-01	  0.074709415	1.775180E+02	  0.074709415	7.010000E-01	  0.074709415	1.082000E+00
275	  0.074909821	-2.430000E-01	  0.074909821	1.771120E+02	  0.074909821	7.010000E-01	  0.074909821	1.259000E+00
276	  0.075110219	-2.430000E-01	  0.075110219	1.767440E+02	  0.075110219	7.000000E-01	  0.075110219	1.420000E+00
277	  0.075310618	-2.440000E-01	  0.075310618	1.763380E+02	  0.075310618	7.050000E-01	  0.075310618	1.597000E+00
278	  0.075511023	-2.440000E-01	  0.075511023	1.759600E+02	  0.075511023	7.030000E-01	  0.075511023	1.763000E+00
279	  0.075711422	-2.440000E-01	  0.075711422	1.755650E+02	  0.075711422	7.040000E-01	  0.075711422	1.935000E+00
280	  0.075911827	-2.450000E-01	  0.075911827	1.751860E+02	  0.075911827	7.080000E-01	  0.075911827	2.101000E+00
281	  0.076112226	-2.440000E-01	  0.076112226	1.747980E+02	  0.076112226	7.060000E-01	  0.076112226	2.270000E+00
282	  0.076312624	-2.460000E-01	  0.076312624	1.744060E+02	  0.076312624	7.110000E-01	  0.076312624	2.442000E+00
283	  0.076513030	-2.470000E-01	  0.076513030	1.740230E+02	  0.076513030	7.150000E-01	  0.076513030	2.609000E+00
284	  0.076713428	-2.490000E-01	  0.076713428	1.736350E+02	  0.076713428	7.190000E-01	  0.076713428	2.779000E+00
285	  0.076913826	-2.500000E-01	  0.076913826	1.732600E+02	  0.076913826	7.230000E-01	  0.076913826	2.943000E+00
286	  0.077114232	-2.510000E-01	  0.077114232	1.728740E+02	  0.077114232	7.270000E-01	  0.077114232	3.112000E+00
287	  0.077314630	-2.520000E-01	  0.077314630	1.724750E+02	  0.077314630	7.300000E-01	  0.077314630	3.287000E+00
288	  0.077515028	-2.530000E-01	  0.077515028	1.721010E+02	  0.077515028	7.330000E-01	  0.077515028	3.451000E+00
289	  0.077715434	-2.550000E-01	  0.077715434	1.717200E+02	  0.077715434	7.390000E-01	  0.077715434	3.617000E+00
290	  0.077915832	-2.580000E-01	  0.077915832	1.713290E+02	  0.077915832	7.480000E-01	  0.077915832	3.789000E+00
291	  0.078116231	-2.580000E-01	  0.078116231	1.709570E+02	  0.078116231	7.470000E-01	  0.078116231	3.952000E+00
292	  0.078316636	-2.590000E-01	  0.078316636	1.705710E+02	  0.078316636	7.520000E-01	  0.078316636	4.122000E+00
293	  0.078517035	-2.600000E-01	  0.078517035	1.701830E+02	  0.078517035	7.550000E-01	  0.078517035	4.292000E+00
294	  0.078717433	-2.610000E-01	  0.078717433	1.698030E+02	  0.078717433	7.590000E-01	  0.078717433	4.459000E+00
295	  0.078917839	-2.640000E-01	  0.078917839	1.694140E+02	  0.078917839	7.660000E-01	  0.078917839	4.630000E+00
296	  0.079118237	-2.650000E-01	  0.079118237	1.690340E+02	  0.079118237	7.710000E-01	  0.079118237	4.797000E+00
297	  0.079318643	-2.660000E-01	  0.079318643	1.686530E+02	  0.079318643	7.740000E-01	  0.079318643	4.966000E+00
298	  0.079519041	-2.670000E-01	  0.079519041	1.682640E+02	  0.079519041	7.770000E-01	  0.079519041	5.137000E+00
299	  0.079719439	-2.680000E-01	  0.079719439	1.678900E+02	  0.079719439	7.820000E-01	  0.079719439	5.302000E+00
300	  0.079919845	-2.680000E-01	  0.079919845	1.675120E+02	  0.079919845	7.820000E-01	  0.079919845	5.469000E+00
301	  0.080120243	-2.720000E-01	  0.080120243	1.671260E+02	  0.080120243	7.930000E-01	  0.080120243	5.639000E+00
302	  0.080320641	-2.720000E-01	  0.080320641	1.667340E+02	  0.080320641	7.940000E-01	  0.080320641	5.812000E+00
303	  0.080521047	-2.740000E-01	  0.080521047	1.663640E+02	  0.080521047	8.000000E-01	  0.080521047	5.976000E+00
304	  0.080721445	-2.750000E-01	  0.080721445	1.659780E+02	  0.080721445	8.030000E-01	  0.080721445	6.147000E+00
305	  0.080921844	-2.760000E-01	  0.080921844	1.656070E+02	  0.080921844	8.090000E-01	  0.080921844	6.311000E+00
306	  0.081122249	-2.770000E-01	  0.081122249	1.652350E+02	  0.081122249	8.130000E-01	  0.081122249	6.476000E+00
307	  0.081322648	-2.780000E-01	  0.081322648	1.648460E+02	  0.081322648	8.170000E-01	  0.081322648	6.648000E+00
308	  0.081523046	-2.780000E-01	  0.081523046	1.644680E+02	  0.081523046	8.160000E-01	  0.081523046	6.817000E+00
309	  0.081723452	-2.800000E-01	  0.081723452	1.640780E+02	  0.081723452	8.220000E-01	  0.081723452	6.990000E+00
310	  0.081923850	-2.820000E-01	  0.081923850	1.637070E+02	  0.081923850	8.290000E-01	  0.081923850	7.155000E+00
311	  0.082124248	-2.820000E-01	  0.082124248	1.633360E+02	  0.082124248	8.310000E-01	  0.082124248	7.320000E+00
312	  0.082324654	-2.830000E-01	  0.082324654	1.629620E+02	  0.082324654	8.320000E-01	  0.082324654	7.487000E+00
313	  0.082525052	-2.860000E-01	  0.082525052	1.625820E+02	  0.082525052	8.440000E-01	  0.082525052	7.656000E+00
314	  0.082725458	-2.860000E-01	  0.082725458	1.622060E+02	  0.082725458	8.440000E-01	  0.082725458	7.824000E+00
315	  0.082925856	-2.870000E-01	  0.082925856	1.618220E+02	  0.082925856	8.490000E-01	  0.082925856	7.996000E+00
316	  0.083126254	-2.880000E-01	  0.083126254	1.614520E+02	  0.083126254	8.510000E-01	  0.083126254	8.162000E+00
317	  0.083326660	-2.890000E-01	  0.083326660	1.610750E+02	  0.083326660	8.570000E-01	  0.083326660	8.330000E+00
318	  0.083527058	-2.900000E-01	  0.083527058	1.607070E+02	  0.083527058	8.600000E-01	  0.083527058	8.495000E+00
319	  0.083727457	-2.920000E-01	  0.083727457	1.603350E+02	  0.083727457	8.650000E-01	  0.083727457	8.662000E+00
320	  0.083927862	-2.920000E-01	  0.083927862	1.599640E+02	  0.083927862	8.670000E-01	  0.083927862	8.829000E+00
321	  0.084128261	-2.930000E-01	  0.084128261	1.595910E+02	  0.084128261	8.720000E-01	  0.084128261	8.997000E+00
322	  0.084328659	-2.930000E-01	  0.084328659	1.592200E+02	  0.084328659	8.740000E-01	  0.084328659	9.164000E+00
323	  0.084529065	-2.940000E-01	  0.084529065	1.588490E+02	  0.084529065	8.750000E-01	  0.084529065	9.332000E+00
324	  0.084729463	-2.950000E-01	  0.084729463	1.584780E+02	  0.084729463	8.800000E-01	  0.084729463	9.499000E+00
325	  0.084929861	-2.960000E-01	  0.084929861	1.581120E+02	  0.084929861	8.850000E-01	  0.084929861	9.665000E+00
326	  0.085130267	-2.970000E-01	  0.085130267	1.577360E+02	  0.085130267	8.880000E-01	  0.085130267	9.835000E+00
327	  0.085330658	-2.970000E-01	  0.085330658	1.573650E+02	  0.085330658	8.890000E-01	  0.085330658	1.000300E+01
328	  0.085531056	-2.990000E-01	  0.085531056	1.570020E+02	  0.085531056	8.960000E-01	  0.085531056	1.016800E+01
329	  0.085731462	-3.000000E-01	  0.085731462	1.566340E+02	  0.085731462	9.000000E-01	  0.085731462	1.033500E+01
330	  0.085931860	-3.000000E-01	  0.085931860	1.562620E+02	  0.085931860	9.020000E-01	  0.085931860	1.050500E+01
331	  0.086132258	-3.010000E-01	  0.086132258	1.559020E+02	  0.086132258	9.060000E-01	  0.086132258	1.066900E+01
332	  0.086332664	-3.010000E-01	  0.086332664	1.555320E+02	  0.086332664	9.080000E-01	  0.086332664	1.083800E+01
333	  0.086533062	-3.020000E-01	  0.086533062	1.551690E+02	  0.086533062	9.120000E-01	  0.086533062	1.100300E+01
334	  0.086733460	-3.020000E-01	  0.086733460	1.548030E+02	  0.086733460	9.140000E-01	  0.086733460	1.117000E+01
335	  0.086933866	-3.030000E-01	  0.086933866	1.544280E+02	  0.086933866	9.190000E-01	  0.086933866	1.134300E+01
336	  0.087134264	-3.050000E-01	  0.087134264	1.540750E+02	  0.087134264	9.260000E-01	  0.087134264	1.150500E+01
337	  0.087334670	-3.050000E-01	  0.087334670	1.537070E+02	  0.087334670	9.280000E-01	  0.087334670	1.167400E+01
338	  0.087535068	-3.050000E-01	  0.087535068	1.533530E+02	  0.087535068	9.290000E-01	  0.087535068	1.183700E+01
339	  0.087735467	-3.070000E-01	  0.087735467	1.529780E+02	  0.087735467	9.360000E-01	  0.087735467	1.200900E+01
340	  0.087935872	-3.070000E-01	  0.087935872	1.526150E+02	  0.087935872	9.360000E-01	  0.087935872	1.217700E+01
341	  0.088136271	-3.090000E-01	  0.088136271	1.522570E+02	  0.088136271	9.450000E-01	  0.088136271	1.234300E+01
342	  0.088336669	-3.080000E-01	  0.088336669	1.518900E+02	  0.088336669	9.420000E-01	  0.088336669	1.251200E+01
343	  0.088537075	-3.100000E-01	  0.088537075	1.515340E+02	  0.088537075	9.510000E-01	  0.088537075	1.267800E+01
344	  0.088737473	-3.100000E-01	  0.088737473	1.511750E+02	  0.088737473	9.510000E-01	  0.088737473	1.284400E+01
345	  0.088937871	-3.120000E-01	  0.088937871	1.508110E+02	  0.088937871	9.610000E-01	  0.088937871	1.301400E+01
346	  0.089138277	-3.120000E-01	  0.089138277	1.504480E+02	  0.089138277	9.620000E-01	  0.089138277	1.318300E+01
347	  0.089338675	-3.130000E-01	  0.089338675	1.500920E+02	  0.089338675	9.670000E-01	  0.089338675	1.334900E+01
348	  0.089539073	-3.130000E-01	  0.089539073	1.497370E+02	  0.089539073	9.690000E-01	  0.089539073	1.351500E+01
349	  0.089739479	-3.150000E-01	  0.089739479	1.493820E+02	  0.089739479	9.760000E-01	  0.089739479	1.368100E+01
350	  0.089939877	-3.150000E-01	  0.089939877	1.490280E+02	  0.089939877	9.770000E-01	  0.089939877	1.384800E+01
351	  0.090140276	-3.180000E-01	  0.090140276	1.486610E+02	  0.090140276	9.870000E-01	  0.090140276	1.402000E+01
352	  0.090340681	-3.170000E-01	  0.090340681	1.483080E+02	  0.090340681	9.870000E-01	  0.090340681	1.418600E+01
353	  0.090541080	-3.190000E-01	  0.090541080	1.479530E+02	  0.090541080	9.960000E-01	  0.090541080	1.435400E+01
354	  0.090741485	-3.190000E-01	  0.090741485	1.475980E+02	  0.090741485	9.980000E-01	  0.090741485	1.452100E+01
355	  0.090941884	-3.210000E-01	  0.090941884	1.472350E+02	  0.090941884	1.006000E+00	  0.090941884	1.469300E+01
356	  0.091142282	-3.220000E-01	  0.091142282	1.468820E+02	  0.091142282	1.008000E+00	  0.091142282	1.486000E+01
357	  0.091342688	-3.230000E-01	  0.091342688	1.465230E+02	  0.091342688	1.014000E+00	  0.091342688	1.503100E+01
358	  0.091543086	-3.240000E-01	  0.091543086	1.461820E+02	  0.091543086	1.019000E+00	  0.091543086	1.519300E+01
359	  0.091743484	-3.240000E-01	  0.091743484	1.458190E+02	  0.091743484	1.021000E+00	  0.091743484	1.536600E+01
360	  0.091943890	-3.250000E-01	  0.091943890	1.454620E+02	  0.091943890	1.027000E+00	  0.091943890	1.553700E+01
361	  0.092144288	-3.250000E-01	  0.092144288	1.451070E+02	  0.092144288	1.030000E+00	  0.092144288	1.570700E+01
362	  0.092344686	-3.280000E-01	  0.092344686	1.447590E+02	  0.092344686	1.041000E+00	  0.092344686	1.587400E+01
363	  0.092545092	-3.280000E-01	  0.092545092	1.443860E+02	  0.092545092	1.043000E+00	  0.092545092	1.605300E+01
364	  0.092745490	-3.290000E-01	  0.092745490	1.440500E+02	  0.092745490	1.047000E+00	  0.092745490	1.621500E+01
365	  0.092945889	-3.300000E-01	  0.092945889	1.436890E+02	  0.092945889	1.052000E+00	  0.092945889	1.638900E+01
366	  0.093146294	-3.320000E-01	  0.093146294	1.433380E+02	  0.093146294	1.061000E+00	  0.093146294	1.655800E+01
367	  0.093346693	-3.310000E-01	  0.093346693	1.429830E+02	  0.093346693	1.060000E+00	  0.093346693	1.673000E+01
368	  0.093547091	-3.320000E-01	  0.093547091	1.426380E+02	  0.093547091	1.066000E+00	  0.093547091	1.689800E+01
369	  0.093747497	-3.340000E-01	  0.093747497	1.422700E+02	  0.093747497	1.073000E+00	  0.093747497	1.707700E+01
370	  0.093947895	-3.350000E-01	  0.093947895	1.419220E+02	  0.093947895	1.080000E+00	  0.093947895	1.724700E+01
371	  0.094148301	-3.340000E-01	  0.094148301	1.415610E+02	  0.094148301	1.078000E+00	  0.094148301	1.742300E+01
372	  0.094348699	-3.350000E-01	  0.094348699	1.412160E+02	  0.094348699	1.084000E+00	  0.094348699	1.759200E+01
373	  0.094549097	-3.350000E-01	  0.094549097	1.408650E+02	  0.094549097	1.087000E+00	  0.094549097	1.776400E+01
374	  0.094749503	-3.350000E-01	  0.094749503	1.405070E+02	  0.094749503	1.088000E+00	  0.094749503	1.794000E+01
375	  0.094949901	-3.360000E-01	  0.094949901	1.401450E+02	  0.094949901	1.094000E+00	  0.094949901	1.811800E+01
376	  0.095150299	-3.340000E-01	  0.095150299	1.398070E+02	  0.095150299	1.091000E+00	  0.095150299	1.828600E+01
377	  0.095350705	-3.360000E-01	  0.095350705	1.394480E+02	  0.095350705	1.101000E+00	  0.095350705	1.846300E+01
378	  0.095551103	-3.360000E-01	  0.095551103	1.391020E+02	  0.095551103	1.103000E+00	  0.095551103	1.863500E+01
379	  0.095751502	-3.380000E-01	  0.095751502	1.387450E+02	  0.095751502	1.111000E+00	  0.095751502	1.881200E+01
380	  0.095951907	-3.390000E-01	  0.095951907	1.383970E+02	  0.095951907	1.116000E+00	  0.095951907	1.898600E+01
381	  0.096152306	-3.370000E-01	  0.096152306	1.380480E+02	  0.096152306	1.115000E+00	  0.096152306	1.916000E+01
382	  0.096352704	-3.380000E-01	  0.096352704	1.376990E+02	  0.096352704	1.118000E+00	  0.096352704	1.933500E+01
383	  0.096553110	-3.370000E-01	  0.096553110	1.373390E+02	  0.096553110	1.120000E+00	  0.096553110	1.951600E+01
384	  0.096753508	-3.400000E-01	  0.096753508	1.369940E+02	  0.096753508	1.130000E+00	  0.096753508	1.968900E+01
385	  0.096953906	-3.380000E-01	  0.096953906	1.366460E+02	  0.096953906	1.129000E+00	  0.096953906	1.986500E+01
386	  0.097154312	-3.390000E-01	  0.097154312	1.362890E+02	  0.097154312	1.134000E+00	  0.097154312	2.004500E+01
387	  0.097354710	-3.400000E-01	  0.097354710	1.359490E+02	  0.097354710	1.141000E+00	  0.097354710	2.021700E+01
388	  0.097555116	-3.410000E-01	  0.097555116	1.356020E+02	  0.097555116	1.144000E+00	  0.097555116	2.039400E+01
389	  0.097755514	-3.400000E-01	  0.097755514	1.352530E+02	  0.097755514	1.144000E+00	  0.097755514	2.057100E+01
390	  0.097955912	-3.410000E-01	  0.097955912	1.349080E+02	  0.097955912	1.151000E+00	  0.097955912	2.074700E+01
391	  0.098156318	-3.430000E-01	  0.098156318	1.345560E+02	  0.098156318	1.161000E+00	  0.098156318	2.092700E+01
392	  0.098356716	-3.410000E-01	  0.098356716	1.342230E+02	  0.098356716	1.158000E+00	  0.098356716	2.109900E+01
393	  0.098557115	-3.410000E-01	  0.098557115	1.338680E+02	  0.098557115	1.159000E+00	  0.098557115	2.128100E+01
394	  0.098757520	-3.420000E-01	  0.098757520	1.335250E+02	  0.098757520	1.168000E+00	  0.098757520	2.145800E+01
395	  0.098957919	-3.430000E-01	  0.098957919	1.331820E+02	  0.098957919	1.172000E+00	  0.098957919	2.163600E+01
396	  0.099158317	-3.420000E-01	  0.099158317	1.328380E+02	  0.099158317	1.171000E+00	  0.099158317	2.181400E+01
397	  0.099358723	-3.430000E-01	  0.099358723	1.325040E+02	  0.099358723	1.179000E+00	  0.099358723	2.198700E+01
398	  0.099559121	-3.450000E-01	  0.099559121	1.321660E+02	  0.099559121	1.189000E+00	  0.099559121	2.216400E+01
399	  0.099759519	-3.450000E-01	  0.099759519	1.318080E+02	  0.099759519	1.194000E+00	  0.099759519	2.235000E+01
400	  0.099959925	-3.490000E-01	  0.099959925	1.314650E+02	  0.099959925	1.211000E+00	  0.099959925	2.253000E+01
401	  0.100160323	-3.510000E-01	  0.100160323	1.311470E+02	  0.100160323	1.221000E+00	  0.100160323	2.269700E+01
402	  0.100360721	-3.480000E-01	  0.100360721	1.307970E+02	  0.100360721	1.214000E+00	  0.100360721	2.288100E+01
403	  0.100561127	-3.520000E-01	  0.100561127	1.304600E+02	  0.100561127	1.229000E+00	  0.100561127	2.305900E+01
404	  0.100761525	-3.500000E-01	  0.100761525	1.301150E+02	  0.100761525	1.226000E+00	  0.100761525	2.324200E+01
405	  0.100961931	-3.500000E-01	  0.100961931	1.297930E+02	  0.100961931	1.228000E+00	  0.100961931	2.341300E+01
406	  0.101162329	-3.540000E-01	  0.101162329	1.294560E+02	  0.101162329	1.246000E+00	  0.101162329	2.359200E+01
407	  0.101362728	-3.490000E-01	  0.101362728	1.290920E+02	  0.101362728	1.232000E+00	  0.101362728	2.378700E+01
408	  0.101563133	-3.530000E-01	  0.101563133	1.287610E+02	  0.101563133	1.251000E+00	  0.101563133	2.396400E+01
409	  0.101763532	-3.500000E-01	  0.101763532	1.284230E+02	  0.101763532	1.244000E+00	  0.101763532	2.414500E+01
410	  0.101963930	-3.500000E-01	  0.101963930	1.280820E+02	  0.101963930	1.248000E+00	  0.101963930	2.432900E+01
411	  0.102164336	-3.540000E-01	  0.102164336	1.277570E+02	  0.102164336	1.267000E+00	  0.102164336	2.450400E+01
412	  0.102364734	-3.530000E-01	  0.102364734	1.273950E+02	  0.102364734	1.264000E+00	  0.102364734	2.470100E+01
413	  0.102565132	-3.550000E-01	  0.102565132	1.270580E+02	  0.102565132	1.276000E+00	  0.102565132	2.488400E+01
414	  0.102765530	-3.550000E-01	  0.102765530	1.267450E+02	  0.102765530	1.278000E+00	  0.102765530	2.505400E+01
415	  0.102965929	-3.560000E-01	  0.102965929	1.264130E+02	  0.102965929	1.286000E+00	  0.102965929	2.523600E+01
416	  0.103166327	-3.530000E-01	  0.103166327	1.260730E+02	  0.103166327	1.282000E+00	  0.103166327	2.542200E+01
417	  0.103366733	-3.570000E-01	  0.103366733	1.257260E+02	  0.103366733	1.298000E+00	  0.103366733	2.561200E+01
418	  0.103567131	-3.530000E-01	  0.103567131	1.254230E+02	  0.103567131	1.287000E+00	  0.103567131	2.578000E+01
419	  0.103767529	-3.550000E-01	  0.103767529	1.250730E+02	  0.103767529	1.299000E+00	  0.103767529	2.597300E+01
420	  0.103967935	-3.560000E-01	  0.103967935	1.247330E+02	  0.103967935	1.306000E+00	  0.103967935	2.616200E+01
421	  0.104168333	-3.550000E-01	  0.104168333	1.244100E+02	  0.104168333	1.306000E+00	  0.104168333	2.634100E+01
422	  0.104368731	-3.560000E-01	  0.104368731	1.240580E+02	  0.104368731	1.314000E+00	  0.104368731	2.653800E+01
423	  0.104569137	-3.520000E-01	  0.104569137	1.237370E+02	  0.104569137	1.305000E+00	  0.104569137	2.671800E+01
424	  0.104769535	-3.570000E-01	  0.104769535	1.234070E+02	  0.104769535	1.328000E+00	  0.104769535	2.690300E+01
425	  0.104969934	-3.560000E-01	  0.104969934	1.230630E+02	  0.104969934	1.325000E+00	  0.104969934	2.709700E+01
426	  0.105170339	-3.550000E-01	  0.105170339	1.227360E+02	  0.105170339	1.328000E+00	  0.105170339	2.728100E+01
427	  0.105370738	-3.580000E-01	  0.105370738	1.224060E+02	  0.105370738	1.344000E+00	  0.105370738	2.746800E+01
428	  0.105571143	-3.590000E-01	  0.105571143	1.220660E+02	  0.105571143	1.352000E+00	  0.105571143	2.766200E+01
429	  0.105771542	-3.600000E-01	  0.105771542	1.217430E+02	  0.105771542	1.360000E+00	  0.105771542	2.784600E+01
430	  0.105971940	-3.580000E-01	  0.105971940	1.214320E+02	  0.105971940	1.354000E+00	  0.105971940	2.802400E+01
431	  0.106172346	-3.580000E-01	  0.106172346	1.210840E+02	  0.106172346	1.360000E+00	  0.106172346	2.822400E+01
432	  0.106372744	-3.600000E-01	  0.106372744	1.207370E+02	  0.106372744	1.372000E+00	  0.106372744	2.842400E+01
433	  0.106573142	-3.620000E-01	  0.106573142	1.204120E+02	  0.106573142	1.385000E+00	  0.106573142	2.861100E+01
434	  0.106773548	-3.640000E-01	  0.106773548	1.200900E+02	  0.106773548	1.396000E+00	  0.106773548	2.879700E+01
435	  0.106973946	-3.630000E-01	  0.106973946	1.197640E+02	  0.106973946	1.396000E+00	  0.106973946	2.898700E+01
436	  0.107174344	-3.610000E-01	  0.107174344	1.194140E+02	  0.107174344	1.396000E+00	  0.107174344	2.919200E+01
437	  0.107374750	-3.640000E-01	  0.107374750	1.190880E+02	  0.107374750	1.410000E+00	  0.107374750	2.938200E+01
438	  0.107575148	-3.620000E-01	  0.107575148	1.187630E+02	  0.107575148	1.409000E+00	  0.107575148	2.957300E+01
439	  0.107775547	-3.620000E-01	  0.107775547	1.184250E+02	  0.107775547	1.412000E+00	  0.107775547	2.977300E+01
440	  0.107975952	-3.640000E-01	  0.107975952	1.181100E+02	  0.107975952	1.423000E+00	  0.107975952	2.995900E+01
441	  0.108176351	-3.630000E-01	  0.108176351	1.177610E+02	  0.108176351	1.427000E+00	  0.108176351	3.016700E+01
442	  0.108376749	-3.630000E-01	  0.108376749	1.174310E+02	  0.108376749	1.432000E+00	  0.108376749	3.036300E+01
443	  0.108577155	-3.610000E-01	  0.108577155	1.171240E+02	  0.108577155	1.430000E+00	  0.108577155	3.054700E+01
444	  0.108777553	-3.640000E-01	  0.108777553	1.167970E+02	  0.108777553	1.447000E+00	  0.108777553	3.074200E+01
445	  0.108977959	-3.620000E-01	  0.108977959	1.164700E+02	  0.108977959	1.444000E+00	  0.108977959	3.094000E+01
446	  0.109178357	-3.650000E-01	  0.109178357	1.161440E+02	  0.109178357	1.458000E+00	  0.109178357	3.113600E+01
447	  0.109378755	-3.630000E-01	  0.109378755	1.158230E+02	  0.109378755	1.456000E+00	  0.109378755	3.133100E+01
448	  0.109579161	-3.670000E-01	  0.109579161	1.154790E+02	  0.109579161	1.480000E+00	  0.109579161	3.154000E+01
449	  0.109779559	-3.660000E-01	  0.109779559	1.151730E+02	  0.109779559	1.481000E+00	  0.109779559	3.172700E+01
450	  0.109979957	-3.660000E-01	  0.109979957	1.148320E+02	  0.109979957	1.486000E+00	  0.109979957	3.193600E+01
451	  0.110180363	-3.630000E-01	  0.110180363	1.145180E+02	  0.110180363	1.480000E+00	  0.110180363	3.212900E+01
452	  0.110380761	-3.650000E-01	  0.110380761	1.141820E+02	  0.110380761	1.492000E+00	  0.110380761	3.233600E+01
453	  0.110581160	-3.660000E-01	  0.110581160	1.138560E+02	  0.110581160	1.500000E+00	  0.110581160	3.253900E+01
454	  0.110781565	-3.640000E-01	  0.110781565	1.135530E+02	  0.110781565	1.497000E+00	  0.110781565	3.272700E+01
455	  0.110981964	-3.630000E-01	  0.110981964	1.132230E+02	  0.110981964	1.501000E+00	  0.110981964	3.293300E+01
456	  0.111182362	-3.640000E-01	  0.111182362	1.129120E+02	  0.111182362	1.508000E+00	  0.111182362	3.312700E+01
457	  0.111382768	-3.630000E-01	  0.111382768	1.125840E+02	  0.111382768	1.511000E+00	  0.111382768	3.333400E+01
458	  0.111583166	-3.660000E-01	  0.111583166	1.122530E+02	  0.111583166	1.528000E+00	  0.111583166	3.354300E+01
459	  0.111783572	-3.640000E-01	  0.111783572	1.119430E+02	  0.111783572	1.526000E+00	  0.111783572	3.373900E+01
460	  0.111983970	-3.640000E-01	  0.111983970	1.116180E+02	  0.111983970	1.533000E+00	  0.111983970	3.394600E+01
461	  0.112184368	-3.650000E-01	  0.112184368	1.113140E+02	  0.112184368	1.540000E+00	  0.112184368	3.414000E+01
462	  0.112384774	-3.630000E-01	  0.112384774	1.109740E+02	  0.112384774	1.541000E+00	  0.112384774	3.435800E+01
463	  0.112585172	-3.660000E-01	  0.112585172	1.106580E+02	  0.112585172	1.558000E+00	  0.112585172	3.456100E+01
464	  0.112785570	-3.650000E-01	  0.112785570	1.103460E+02	  0.112785570	1.561000E+00	  0.112785570	3.476200E+01
465	  0.112985976	-3.660000E-01	  0.112985976	1.100040E+02	  0.112985976	1.570000E+00	  0.112985976	3.498400E+01
466	  0.113186374	-3.680000E-01	  0.113186374	1.097040E+02	  0.113186374	1.587000E+00	  0.113186374	3.517900E+01
467	  0.113386773	-3.670000E-01	  0.113386773	1.093820E+02	  0.113386773	1.588000E+00	  0.113386773	3.538900E+01
468	  0.113587178	-3.690000E-01	  0.113587178	1.090700E+02	  0.113587178	1.602000E+00	  0.113587178	3.559400E+01
469	  0.113787577	-3.680000E-01	  0.113787577	1.087440E+02	  0.113787577	1.605000E+00	  0.113787577	3.580800E+01
470	  0.113987975	-3.680000E-01	  0.113987975	1.084480E+02	  0.113987975	1.609000E+00	  0.113987975	3.600400E+01
471	  0.114188381	-3.680000E-01	  0.114188381	1.081300E+02	  0.114188381	1.615000E+00	  0.114188381	3.621500E+01
472	  0.114388779	-3.660000E-01	  0.114388779	1.077830E+02	  0.114388779	1.616000E+00	  0.114388779	3.644600E+01
473	  0.114589177	-3.710000E-01	  0.114589177	1.074810E+02	  0.114589177	1.641000E+00	  0.114589177	3.664700E+01
474	  0.114789583	-3.700000E-01	  0.114789583	1.071670E+02	  0.114789583	1.646000E+00	  0.114789583	3.685900E+01
475	  0.114989981	-3.700000E-01	  0.114989981	1.068440E+02	  0.114989981	1.651000E+00	  0.114989981	3.707700E+01
476	  0.115190387	-3.690000E-01	  0.115190387	1.065450E+02	  0.115190387	1.656000E+00	  0.115190387	3.727900E+01
477	  0.115390785	-3.680000E-01	  0.115390785	1.062270E+02	  0.115390785	1.657000E+00	  0.115390785	3.749500E+01
478	  0.115591183	-3.720000E-01	  0.115591183	1.059040E+02	  0.115591183	1.681000E+00	  0.115591183	3.771500E+01
479	  0.115791589	-3.720000E-01	  0.115791589	1.055950E+02	  0.115791589	1.690000E+00	  0.115791589	3.792700E+01
480	  0.115991987	-3.690000E-01	  0.115991987	1.052760E+02	  0.115991987	1.684000E+00	  0.115991987	3.814700E+01
481	  0.116192386	-3.720000E-01	  0.116192386	1.049840E+02	  0.116192386	1.701000E+00	  0.116192386	3.834900E+01
482	  0.116392791	-3.710000E-01	  0.116392791	1.046480E+02	  0.116392791	1.705000E+00	  0.116392791	3.858200E+01
483	  0.116593190	-3.690000E-01	  0.116593190	1.043310E+02	  0.116593190	1.706000E+00	  0.116593190	3.880300E+01
484	  0.116793588	-3.730000E-01	  0.116793588	1.040310E+02	  0.116793588	1.727000E+00	  0.116793588	3.901200E+01
485	  0.116993994	-3.730000E-01	  0.116993994	1.037020E+02	  0.116993994	1.739000E+00	  0.116993994	3.924400E+01
486	  0.117194392	-3.710000E-01	  0.117194392	1.033990E+02	  0.117194392	1.734000E+00	  0.117194392	3.945800E+01
487	  0.117394790	-3.730000E-01	  0.117394790	1.030940E+02	  0.117394790	1.750000E+00	  0.117394790	3.967400E+01
488	  0.117595196	-3.750000E-01	  0.117595196	1.027730E+02	  0.117595196	1.768000E+00	  0.117595196	3.990200E+01
489	  0.117795594	-3.710000E-01	  0.117795594	1.024530E+02	  0.117795594	1.759000E+00	  0.117795594	4.013200E+01
490	  0.117995992	-3.750000E-01	  0.117995992	1.021490E+02	  0.117995992	1.785000E+00	  0.117995992	4.035000E+01
491	  0.118196398	-3.720000E-01	  0.118196398	1.018350E+02	  0.118196398	1.776000E+00	  0.118196398	4.057700E+01
492	  0.118396796	-3.760000E-01	  0.118396796	1.015280E+02	  0.118396796	1.805000E+00	  0.118396796	4.079900E+01
493	  0.118597202	-3.730000E-01	  0.118597202	1.012090E+02	  0.118597202	1.798000E+00	  0.118597202	4.103200E+01
494	  0.118797600	-3.750000E-01	  0.118797600	1.009040E+02	  0.118797600	1.815000E+00	  0.118797600	4.125400E+01
495	  0.118997999	-3.730000E-01	  0.118997999	1.005880E+02	  0.118997999	1.813000E+00	  0.118997999	4.148700E+01
496	  0.119198404	-3.720000E-01	  0.119198404	1.002780E+02	  0.119198404	1.821000E+00	  0.119198404	4.171500E+01
497	  0.119398803	-3.710000E-01	  0.119398803	9.996100E+01	  0.119398803	1.824000E+00	  0.119398803	4.195000E+01
498	  0.119599201	-3.720000E-01	  0.119599201	9.963300E+01	  0.119599201	1.834000E+00	  0.119599201	4.219400E+01
499	  0.119799607	-3.730000E-01	  0.119799607	9.934000E+01	  0.119799607	1.847000E+00	  0.119799607	4.241400E+01
500	  0.120000005	-3.730000E-01	  0.120000005	9.901800E+01	  0.120000005	1.859000E+00	  0.120000005	4.265500E+01
