! Anritsu VNA Master:             	Model: MS2036C/10/77
! SN:             	1601066
! /bd0/18may09/b255.ew.m1.txt
! Existing Calibration Information:
! TYPE:             	Current Settings	Active Cal Settings
! TIME:             	05/09/2018 08:09:47 PM	05/09/2018 08:05:48 PM
! INTERNAL TEMP:    	54.5 C	54.5 C
! # POINTS:         	494	494
! START FREQ:       	20.000 MHz	20.000 MHz
! STOP FREQ:        	118.797 594 MHz	118.797 594 MHz
! SOURCE POWER:     	High	High
! IFBW:             	50 Hz	50 Hz
! AVG FACTOR:       	  1 	  1 
! REF PLANE 1:      	0 mm	0 mm
! REF PLANE 2:      	0 mm	0 mm
! CAL TYPE:         	Full S22	Full S22
! CAL METHOD:       	SOLT	SOLT
! CAL LINE TYPE:    	Coax	Coax
! DUT PORT 1:       	K-Conn(M)	K-Conn(M)
! DUT PORT 2:       	K-Conn(M)	K-Conn(M)
! CAL STATUS:       	OK: Accuracy High	--
! PROP-V:       	0.700
! CABLE LOSS:       	0.000 dB/m
! REF IMPEDANCE:       	50.0
! Trace Specific Parameters:	TR1	TR2	TR3	TR4
! TRACE.#.Y (GRAPH TYPE)	LOG MAG	PHASE	REAL IMPEDANCE	IMAGINARY IMPEDANCE
! TRACE.#.X 	FREQ.GHZ	FREQ.GHZ	FREQ.GHZ	FREQ.GHZ
! S-PARAMETER	S22	S22	S22	S22
! SMOOTH/APERTURE %	0	0	0	0
! WINDOW	NSL	NSL	NSL	NSL
! GATING	OFF	OFF	OFF	OFF
! FGTD	OFF	OFF	OFF	OFF
Marker Information per Trace:	TR1	TR2	TR3	TR4
!MK1	--	"MK1 TR2:  20.000 MHz,PH:-125.56°"	--	--
!MK2	--	--	"MK2 TR3:  70.100 200 MHz,Z:(16.682 ohm, -1.521 ohm)"	--
!MK3	--	--	--	--
!MK4	--	--	--	--
!MK5	--	--	--	--
!MK6	--	--	--	--
!MK7	--	--	--	--
!MK8	--	--	--	--
PNT	TR1.FREQ.GHZ	TR1.LOG MAG.dB	TR2.FREQ.GHZ	TR2.PHASE.deg	TR3.FREQ.GHZ	TR3.REAL IMPEDANCE.ohm	TR4.FREQ.GHZ	TR4.IMAGINARY IMPEDANCE.ohm
1	  0.020000000	-9.050000E-01	  0.020000000	-1.255580E+02	  0.020000000	3.291000E+00	  0.020000000	-2.563100E+01
2	  0.020200402	-9.120000E-01	  0.020200402	-1.269990E+02	  0.020200402	3.274000E+00	  0.020200402	-2.484300E+01
3	  0.020400802	-9.210000E-01	  0.020400802	-1.284510E+02	  0.020400802	3.265000E+00	  0.020400802	-2.405900E+01
4	  0.020601204	-9.300000E-01	  0.020601204	-1.299190E+02	  0.020601204	3.259000E+00	  0.020601204	-2.327600E+01
5	  0.020801604	-9.410000E-01	  0.020801604	-1.314090E+02	  0.020801604	3.257000E+00	  0.020801604	-2.249100E+01
6	  0.021002004	-9.480000E-01	  0.021002004	-1.329260E+02	  0.021002004	3.242000E+00	  0.021002004	-2.170100E+01
7	  0.021202406	-9.560000E-01	  0.021202406	-1.344280E+02	  0.021202406	3.235000E+00	  0.021202406	-2.092800E+01
8	  0.021402806	-9.670000E-01	  0.021402806	-1.359220E+02	  0.021402806	3.234000E+00	  0.021402806	-2.016700E+01
9	  0.021603208	-9.750000E-01	  0.021603208	-1.374290E+02	  0.021603208	3.229000E+00	  0.021603208	-1.940800E+01
10	  0.021803608	-9.860000E-01	  0.021803608	-1.389230E+02	  0.021803608	3.233000E+00	  0.021803608	-1.866300E+01
11	  0.022004008	-9.970000E-01	  0.022004008	-1.404150E+02	  0.022004008	3.239000E+00	  0.022004008	-1.792600E+01
12	  0.022204408	-1.009000E+00	  0.022204408	-1.419340E+02	  0.022204408	3.245000E+00	  0.022204408	-1.718300E+01
13	  0.022404809	-1.020000E+00	  0.022404809	-1.434840E+02	  0.022404809	3.251000E+00	  0.022404809	-1.643200E+01
14	  0.022605211	-1.026000E+00	  0.022605211	-1.450520E+02	  0.022605211	3.241000E+00	  0.022605211	-1.567900E+01
15	  0.022805611	-1.037000E+00	  0.022805611	-1.466060E+02	  0.022805611	3.249000E+00	  0.022805611	-1.493900E+01
16	  0.023006011	-1.047000E+00	  0.023006011	-1.481620E+02	  0.023006011	3.256000E+00	  0.023006011	-1.420400E+01
17	  0.023206413	-1.057000E+00	  0.023206413	-1.497060E+02	  0.023206413	3.261000E+00	  0.023206413	-1.348000E+01
18	  0.023406813	-1.067000E+00	  0.023406813	-1.512640E+02	  0.023406813	3.268000E+00	  0.023406813	-1.275600E+01
19	  0.023607215	-1.079000E+00	  0.023607215	-1.528330E+02	  0.023607215	3.283000E+00	  0.023607215	-1.203100E+01
20	  0.023807615	-1.092000E+00	  0.023807615	-1.544170E+02	  0.023807615	3.302000E+00	  0.023807615	-1.130400E+01
21	  0.024008015	-1.104000E+00	  0.024008015	-1.560290E+02	  0.024008015	3.318000E+00	  0.024008015	-1.056900E+01
22	  0.024208417	-1.116000E+00	  0.024208417	-1.576540E+02	  0.024208417	3.333000E+00	  0.024208417	-9.833000E+00
23	  0.024408817	-1.128000E+00	  0.024408817	-1.592890E+02	  0.024408817	3.350000E+00	  0.024408817	-9.096000E+00
24	  0.024609219	-1.139000E+00	  0.024609219	-1.609160E+02	  0.024609219	3.365000E+00	  0.024609219	-8.367000E+00
25	  0.024809619	-1.150000E+00	  0.024809619	-1.625570E+02	  0.024809619	3.385000E+00	  0.024809619	-7.635000E+00
26	  0.025010020	-1.167000E+00	  0.025010020	-1.642080E+02	  0.025010020	3.420000E+00	  0.025010020	-6.902000E+00
27	  0.025210422	-1.182000E+00	  0.025210422	-1.658580E+02	  0.025210422	3.450000E+00	  0.025210422	-6.172000E+00
28	  0.025410822	-1.197000E+00	  0.025410822	-1.675260E+02	  0.025410822	3.482000E+00	  0.025410822	-5.437000E+00
29	  0.025611224	-1.214000E+00	  0.025611224	-1.692060E+02	  0.025611224	3.519000E+00	  0.025611224	-4.700000E+00
30	  0.025811624	-1.230000E+00	  0.025811624	-1.708970E+02	  0.025811624	3.559000E+00	  0.025811624	-3.960000E+00
31	  0.026012026	-1.245000E+00	  0.026012026	-1.726010E+02	  0.026012026	3.595000E+00	  0.026012026	-3.215000E+00
32	  0.026212426	-1.261000E+00	  0.026212426	-1.743200E+02	  0.026212426	3.633000E+00	  0.026212426	-2.466000E+00
33	  0.026412826	-1.280000E+00	  0.026412826	-1.760400E+02	  0.026412826	3.683000E+00	  0.026412826	-1.719000E+00
34	  0.026613226	-1.298000E+00	  0.026613226	-1.777710E+02	  0.026613226	3.732000E+00	  0.026613226	-9.670000E-01
35	  0.026813626	-1.319000E+00	  0.026813626	-1.795170E+02	  0.026813626	3.789000E+00	  0.026813626	-2.090000E-01
36	  0.027014028	-1.340000E+00	  0.027014028	1.787450E+02	  0.027014028	3.851000E+00	  0.027014028	5.440000E-01
37	  0.027214428	-1.362000E+00	  0.027214428	1.769910E+02	  0.027214428	3.917000E+00	  0.027214428	1.304000E+00
38	  0.027414829	-1.383000E+00	  0.027414829	1.752380E+02	  0.027414829	3.980000E+00	  0.027414829	2.065000E+00
39	  0.027615231	-1.404000E+00	  0.027615231	1.734580E+02	  0.027615231	4.048000E+00	  0.027615231	2.838000E+00
40	  0.027815631	-1.428000E+00	  0.027815631	1.716750E+02	  0.027815631	4.123000E+00	  0.027815631	3.613000E+00
41	  0.028016033	-1.451000E+00	  0.028016033	1.698750E+02	  0.028016033	4.200000E+00	  0.028016033	4.398000E+00
42	  0.028216433	-1.477000E+00	  0.028216433	1.680730E+02	  0.028216433	4.289000E+00	  0.028216433	5.184000E+00
43	  0.028416833	-1.503000E+00	  0.028416833	1.662530E+02	  0.028416833	4.380000E+00	  0.028416833	5.981000E+00
44	  0.028617235	-1.528000E+00	  0.028617235	1.644410E+02	  0.028617235	4.469000E+00	  0.028617235	6.776000E+00
45	  0.028817635	-1.556000E+00	  0.028817635	1.626150E+02	  0.028817635	4.571000E+00	  0.028817635	7.581000E+00
46	  0.029018037	-1.584000E+00	  0.029018037	1.608030E+02	  0.029018037	4.676000E+00	  0.029018037	8.383000E+00
47	  0.029218437	-1.614000E+00	  0.029218437	1.589600E+02	  0.029218437	4.791000E+00	  0.029218437	9.202000E+00
48	  0.029418837	-1.643000E+00	  0.029418837	1.570930E+02	  0.029418837	4.907000E+00	  0.029418837	1.003600E+01
49	  0.029619239	-1.674000E+00	  0.029619239	1.552330E+02	  0.029619239	5.034000E+00	  0.029619239	1.087100E+01
50	  0.029819639	-1.705000E+00	  0.029819639	1.533550E+02	  0.029819639	5.163000E+00	  0.029819639	1.172000E+01
51	  0.030020041	-1.737000E+00	  0.030020041	1.514730E+02	  0.030020041	5.303000E+00	  0.030020041	1.257600E+01
52	  0.030220442	-1.768000E+00	  0.030220442	1.495850E+02	  0.030220442	5.442000E+00	  0.030220442	1.344100E+01
53	  0.030420844	-1.799000E+00	  0.030420844	1.476940E+02	  0.030420844	5.589000E+00	  0.030420844	1.431400E+01
54	  0.030621244	-1.835000E+00	  0.030621244	1.458160E+02	  0.030621244	5.754000E+00	  0.030621244	1.518700E+01
55	  0.030821642	-1.870000E+00	  0.030821642	1.439290E+02	  0.030821642	5.924000E+00	  0.030821642	1.607200E+01
56	  0.031022044	-1.906000E+00	  0.031022044	1.420070E+02	  0.031022044	6.105000E+00	  0.031022044	1.698300E+01
57	  0.031222444	-1.935000E+00	  0.031222444	1.401220E+02	  0.031222444	6.269000E+00	  0.031222444	1.788500E+01
58	  0.031422846	-1.973000E+00	  0.031422846	1.381570E+02	  0.031422846	6.471000E+00	  0.031422846	1.883400E+01
59	  0.031623244	-2.010000E+00	  0.031623244	1.362080E+02	  0.031623244	6.677000E+00	  0.031623244	1.978600E+01
60	  0.031823646	-2.048000E+00	  0.031823646	1.342530E+02	  0.031823646	6.895000E+00	  0.031823646	2.075200E+01
61	  0.032024048	-2.088000E+00	  0.032024048	1.322920E+02	  0.032024048	7.133000E+00	  0.032024048	2.173100E+01
62	  0.032224450	-2.129000E+00	  0.032224450	1.303440E+02	  0.032224450	7.380000E+00	  0.032224450	2.271500E+01
63	  0.032424849	-2.169000E+00	  0.032424849	1.283360E+02	  0.032424849	7.639000E+00	  0.032424849	2.374500E+01
64	  0.032625251	-2.210000E+00	  0.032625251	1.263500E+02	  0.032625251	7.915000E+00	  0.032625251	2.477700E+01
65	  0.032825653	-2.252000E+00	  0.032825653	1.243310E+02	  0.032825653	8.208000E+00	  0.032825653	2.584100E+01
66	  0.033026051	-2.293000E+00	  0.033026051	1.223300E+02	  0.033026051	8.506000E+00	  0.033026051	2.691200E+01
67	  0.033226453	-2.333000E+00	  0.033226453	1.202960E+02	  0.033226453	8.823000E+00	  0.033226453	2.801900E+01
68	  0.033426855	-2.375000E+00	  0.033426855	1.182940E+02	  0.033426855	9.159000E+00	  0.033426855	2.912400E+01
69	  0.033627257	-2.420000E+00	  0.033627257	1.162640E+02	  0.033627257	9.527000E+00	  0.033627257	3.026200E+01
70	  0.033827655	-2.463000E+00	  0.033827655	1.142430E+02	  0.033827655	9.904000E+00	  0.033827655	3.141700E+01
71	  0.034028057	-2.508000E+00	  0.034028057	1.122460E+02	  0.034028057	1.030700E+01	  0.034028057	3.257600E+01
72	  0.034228459	-2.553000E+00	  0.034228459	1.101900E+02	  0.034228459	1.073900E+01	  0.034228459	3.379200E+01
73	  0.034428857	-2.601000E+00	  0.034428857	1.081400E+02	  0.034428857	1.120400E+01	  0.034428857	3.502600E+01
74	  0.034629259	-2.646000E+00	  0.034629259	1.060720E+02	  0.034629259	1.168900E+01	  0.034629259	3.629800E+01
75	  0.034829661	-2.695000E+00	  0.034829661	1.040090E+02	  0.034829661	1.221400E+01	  0.034829661	3.758900E+01
76	  0.035030060	-2.743000E+00	  0.035030060	1.019410E+02	  0.035030060	1.277200E+01	  0.035030060	3.890900E+01
77	  0.035230462	-2.791000E+00	  0.035230462	9.987200E+01	  0.035230462	1.336100E+01	  0.035230462	4.025900E+01
78	  0.035430863	-2.841000E+00	  0.035430863	9.781800E+01	  0.035430863	1.398900E+01	  0.035430863	4.162500E+01
79	  0.035631265	-2.887000E+00	  0.035631265	9.576100E+01	  0.035631265	1.464400E+01	  0.035631265	4.302800E+01
80	  0.035831664	-2.935000E+00	  0.035831664	9.366700E+01	  0.035831664	1.535600E+01	  0.035831664	4.448600E+01
81	  0.036032066	-2.985000E+00	  0.036032066	9.159300E+01	  0.036032066	1.611700E+01	  0.036032066	4.596000E+01
82	  0.036232468	-3.033000E+00	  0.036232468	8.950900E+01	  0.036232468	1.692100E+01	  0.036232468	4.747900E+01
83	  0.036432866	-3.082000E+00	  0.036432866	8.740900E+01	  0.036432866	1.779000E+01	  0.036432866	4.904400E+01
84	  0.036633268	-3.125000E+00	  0.036633268	8.533100E+01	  0.036633268	1.868100E+01	  0.036633268	5.064100E+01
85	  0.036833670	-3.171000E+00	  0.036833670	8.323400E+01	  0.036833670	1.965600E+01	  0.036833670	5.228700E+01
86	  0.037034072	-3.215000E+00	  0.037034072	8.112300E+01	  0.037034072	2.069300E+01	  0.037034072	5.399000E+01
87	  0.037234470	-3.253000E+00	  0.037234470	7.901300E+01	  0.037234470	2.177400E+01	  0.037234470	5.575100E+01
88	  0.037434869	-3.289000E+00	  0.037434869	7.685200E+01	  0.037434869	2.294800E+01	  0.037434869	5.761000E+01
89	  0.037635271	-3.321000E+00	  0.037635271	7.463800E+01	  0.037635271	2.421400E+01	  0.037635271	5.958700E+01
90	  0.037835669	-3.364000E+00	  0.037835669	7.233600E+01	  0.037835669	2.570100E+01	  0.037835669	6.167000E+01
91	  0.038036071	-3.416000E+00	  0.038036071	6.996200E+01	  0.038036071	2.742300E+01	  0.038036071	6.384800E+01
92	  0.038236473	-3.488000E+00	  0.038236473	6.763300E+01	  0.038236473	2.941700E+01	  0.038236473	6.593800E+01
93	  0.038436871	-3.568000E+00	  0.038436871	6.536900E+01	  0.038436871	3.158700E+01	  0.038436871	6.795400E+01
94	  0.038637273	-3.650000E+00	  0.038637273	6.320400E+01	  0.038637273	3.387100E+01	  0.038637273	6.986500E+01
95	  0.038837675	-3.721000E+00	  0.038837675	6.108000E+01	  0.038837675	3.622700E+01	  0.038837675	7.178800E+01
96	  0.039038073	-3.787000E+00	  0.039038073	5.898900E+01	  0.039038073	3.870100E+01	  0.039038073	7.370800E+01
97	  0.039238475	-3.849000E+00	  0.039238475	5.690400E+01	  0.039238475	4.133800E+01	  0.039238475	7.563700E+01
98	  0.039438877	-3.910000E+00	  0.039438877	5.481300E+01	  0.039438877	4.418800E+01	  0.039438877	7.756400E+01
99	  0.039639279	-3.968000E+00	  0.039639279	5.273100E+01	  0.039639279	4.722900E+01	  0.039639279	7.948000E+01
100	  0.039839678	-4.025000E+00	  0.039839678	5.061400E+01	  0.039839678	5.057400E+01	  0.039839678	8.138900E+01
101	  0.040040080	-4.079000E+00	  0.040040080	4.851400E+01	  0.040040080	5.413800E+01	  0.040040080	8.324900E+01
102	  0.040240481	-4.132000E+00	  0.040240481	4.641000E+01	  0.040240481	5.799500E+01	  0.040240481	8.503900E+01
103	  0.040440880	-4.182000E+00	  0.040440880	4.430800E+01	  0.040440880	6.213900E+01	  0.040440880	8.674900E+01
104	  0.040641282	-4.234000E+00	  0.040641282	4.220600E+01	  0.040641282	6.663600E+01	  0.040641282	8.827600E+01
105	  0.040841684	-4.288000E+00	  0.040841684	4.012900E+01	  0.040841684	7.143500E+01	  0.040841684	8.956400E+01
106	  0.041042086	-4.340000E+00	  0.041042086	3.806400E+01	  0.041042086	7.654900E+01	  0.041042086	9.062400E+01
107	  0.041242484	-4.392000E+00	  0.041242484	3.595700E+01	  0.041242484	8.212600E+01	  0.041242484	9.142100E+01
108	  0.041442886	-4.444000E+00	  0.041442886	3.386300E+01	  0.041442886	8.804500E+01	  0.041442886	9.182300E+01
109	  0.041643288	-4.491000E+00	  0.041643288	3.177200E+01	  0.041643288	9.430200E+01	  0.041643288	9.188100E+01
110	  0.041843686	-4.537000E+00	  0.041843686	2.965500E+01	  0.041843686	1.009880E+02	  0.041843686	9.142600E+01
111	  0.042044088	-4.586000E+00	  0.042044088	2.758900E+01	  0.042044088	1.078270E+02	  0.042044088	9.031500E+01
112	  0.042244490	-4.636000E+00	  0.042244490	2.549900E+01	  0.042244490	1.149850E+02	  0.042244490	8.846800E+01
113	  0.042444889	-4.683000E+00	  0.042444889	2.343700E+01	  0.042444889	1.222230E+02	  0.042444889	8.593800E+01
114	  0.042645290	-4.728000E+00	  0.042645290	2.138600E+01	  0.042645290	1.294960E+02	  0.042645290	8.260400E+01
115	  0.042845692	-4.776000E+00	  0.042845692	1.932500E+01	  0.042845692	1.367230E+02	  0.042845692	7.828100E+01
116	  0.043046094	-4.820000E+00	  0.043046094	1.726500E+01	  0.043046094	1.437890E+02	  0.043046094	7.309400E+01
117	  0.043246493	-4.865000E+00	  0.043246493	1.522700E+01	  0.043246493	1.503740E+02	  0.043246493	6.695100E+01
118	  0.043446895	-4.905000E+00	  0.043446895	1.317900E+01	  0.043446895	1.565580E+02	  0.043446895	5.996300E+01
119	  0.043647297	-4.948000E+00	  0.043647297	1.113900E+01	  0.043647297	1.619570E+02	  0.043647297	5.206500E+01
120	  0.043847695	-4.986000E+00	  0.043847695	9.105000E+00	  0.043847695	1.665420E+02	  0.043847695	4.347500E+01
121	  0.044048097	-5.025000E+00	  0.044048097	7.101000E+00	  0.044048097	1.700370E+02	  0.044048097	3.437600E+01
122	  0.044248499	-5.064000E+00	  0.044248499	5.097000E+00	  0.044248499	1.724280E+02	  0.044248499	2.484400E+01
123	  0.044448901	-5.105000E+00	  0.044448901	3.099000E+00	  0.044448901	1.735670E+02	  0.044448901	1.508200E+01
124	  0.044649299	-5.138000E+00	  0.044649299	1.114000E+00	  0.044649299	1.737430E+02	  0.044649299	5.392000E+00
125	  0.044849701	-5.175000E+00	  0.044849701	-8.650000E-01	  0.044849701	1.726430E+02	  0.044849701	-4.128000E+00
126	  0.045050103	-5.208000E+00	  0.045050103	-2.833000E+00	  0.045050103	1.705950E+02	  0.045050103	-1.325400E+01
127	  0.045250501	-5.242000E+00	  0.045250501	-4.799000E+00	  0.045250501	1.675500E+02	  0.045250501	-2.187200E+01
128	  0.045450903	-5.274000E+00	  0.045450903	-6.746000E+00	  0.045450903	1.637350E+02	  0.045450903	-2.980700E+01
129	  0.045651305	-5.308000E+00	  0.045651305	-8.690000E+00	  0.045651305	1.591980E+02	  0.045651305	-3.701000E+01
130	  0.045851704	-5.338000E+00	  0.045851704	-1.063100E+01	  0.045851704	1.542060E+02	  0.045851704	-4.349800E+01
131	  0.046052102	-5.368000E+00	  0.046052102	-1.255600E+01	  0.046052102	1.488500E+02	  0.046052102	-4.916600E+01
132	  0.046252504	-5.395000E+00	  0.046252504	-1.444200E+01	  0.046252504	1.433870E+02	  0.046252504	-5.403100E+01
133	  0.046452906	-5.425000E+00	  0.046452906	-1.634600E+01	  0.046452906	1.376580E+02	  0.046452906	-5.817400E+01
134	  0.046653304	-5.452000E+00	  0.046653304	-1.824900E+01	  0.046653304	1.319100E+02	  0.046653304	-6.167700E+01
135	  0.046853706	-5.478000E+00	  0.046853706	-2.013300E+01	  0.046853706	1.262390E+02	  0.046853706	-6.452300E+01
136	  0.047054108	-5.505000E+00	  0.047054108	-2.202200E+01	  0.047054108	1.206320E+02	  0.047054108	-6.679300E+01
137	  0.047254506	-5.531000E+00	  0.047254506	-2.389500E+01	  0.047254506	1.152140E+02	  0.047254506	-6.856000E+01
138	  0.047454908	-5.553000E+00	  0.047454908	-2.577100E+01	  0.047454908	1.099700E+02	  0.047454908	-6.992700E+01
139	  0.047655310	-5.576000E+00	  0.047655310	-2.759700E+01	  0.047655310	1.050350E+02	  0.047655310	-7.082200E+01
140	  0.047855709	-5.599000E+00	  0.047855709	-2.941900E+01	  0.047855709	1.003140E+02	  0.047855709	-7.138600E+01
141	  0.048056111	-5.624000E+00	  0.048056111	-3.124600E+01	  0.048056111	9.578300E+01	  0.048056111	-7.161300E+01
142	  0.048256513	-5.645000E+00	  0.048256513	-3.305200E+01	  0.048256513	9.152600E+01	  0.048256513	-7.164900E+01
143	  0.048456915	-5.669000E+00	  0.048456915	-3.486600E+01	  0.048456915	8.746300E+01	  0.048456915	-7.142500E+01
144	  0.048657313	-5.687000E+00	  0.048657313	-3.666500E+01	  0.048657313	8.364000E+01	  0.048657313	-7.108700E+01
145	  0.048857715	-5.706000E+00	  0.048857715	-3.845300E+01	  0.048857715	8.003900E+01	  0.048857715	-7.057200E+01
146	  0.049058117	-5.721000E+00	  0.049058117	-4.024200E+01	  0.049058117	7.662600E+01	  0.049058117	-6.997500E+01
147	  0.049258515	-5.739000E+00	  0.049258515	-4.199900E+01	  0.049258515	7.345600E+01	  0.049258515	-6.924000E+01
148	  0.049458917	-5.756000E+00	  0.049458917	-4.375200E+01	  0.049458917	7.046600E+01	  0.049458917	-6.841500E+01
149	  0.049659319	-5.773000E+00	  0.049659319	-4.549200E+01	  0.049659319	6.766100E+01	  0.049659319	-6.751300E+01
150	  0.049859721	-5.790000E+00	  0.049859721	-4.720600E+01	  0.049859721	6.505100E+01	  0.049859721	-6.656500E+01
151	  0.050060119	-5.804000E+00	  0.050060119	-4.892500E+01	  0.050060119	6.256800E+01	  0.050060119	-6.558700E+01
152	  0.050260521	-5.818000E+00	  0.050260521	-5.064300E+01	  0.050260521	6.021700E+01	  0.050260521	-6.457300E+01
153	  0.050460923	-5.829000E+00	  0.050460923	-5.233900E+01	  0.050460923	5.801700E+01	  0.050460923	-6.355200E+01
154	  0.050661322	-5.840000E+00	  0.050661322	-5.403400E+01	  0.050661322	5.593200E+01	  0.050661322	-6.250900E+01
155	  0.050861724	-5.850000E+00	  0.050861724	-5.568700E+01	  0.050861724	5.400500E+01	  0.050861724	-6.146900E+01
156	  0.051062126	-5.862000E+00	  0.051062126	-5.736200E+01	  0.051062126	5.216200E+01	  0.051062126	-6.038600E+01
157	  0.051262524	-5.874000E+00	  0.051262524	-5.900700E+01	  0.051262524	5.044500E+01	  0.051262524	-5.931300E+01
158	  0.051462926	-5.882000E+00	  0.051462926	-6.061800E+01	  0.051462926	4.883500E+01	  0.051462926	-5.827900E+01
159	  0.051663328	-5.891000E+00	  0.051663328	-6.226100E+01	  0.051663328	4.728100E+01	  0.051663328	-5.720900E+01
160	  0.051863730	-5.901000E+00	  0.051863730	-6.385700E+01	  0.051863730	4.585200E+01	  0.051863730	-5.616000E+01
161	  0.052064128	-5.906000E+00	  0.052064128	-6.547800E+01	  0.052064128	4.444900E+01	  0.052064128	-5.512600E+01
162	  0.052264530	-5.908000E+00	  0.052264530	-6.707800E+01	  0.052264530	4.312500E+01	  0.052264530	-5.411600E+01
163	  0.052464932	-5.914000E+00	  0.052464932	-6.865100E+01	  0.052464932	4.189500E+01	  0.052464932	-5.310900E+01
164	  0.052665330	-5.922000E+00	  0.052665330	-7.021400E+01	  0.052665330	4.074300E+01	  0.052665330	-5.209600E+01
165	  0.052865732	-5.930000E+00	  0.052865732	-7.176700E+01	  0.052865732	3.965300E+01	  0.052865732	-5.109500E+01
166	  0.053066134	-5.937000E+00	  0.053066134	-7.332000E+01	  0.053066134	3.860700E+01	  0.053066134	-5.010800E+01
167	  0.053266536	-5.945000E+00	  0.053266536	-7.484000E+01	  0.053266536	3.763400E+01	  0.053266536	-4.914300E+01
168	  0.053466935	-5.950000E+00	  0.053466935	-7.635400E+01	  0.053466935	3.669900E+01	  0.053466935	-4.820000E+01
169	  0.053667337	-5.953000E+00	  0.053667337	-7.786500E+01	  0.053667337	3.579800E+01	  0.053667337	-4.727400E+01
170	  0.053867739	-5.957000E+00	  0.053867739	-7.937800E+01	  0.053867739	3.493900E+01	  0.053867739	-4.635100E+01
171	  0.054068137	-5.961000E+00	  0.054068137	-8.087600E+01	  0.054068137	3.412800E+01	  0.054068137	-4.544200E+01
172	  0.054268539	-5.961000E+00	  0.054268539	-8.235800E+01	  0.054268539	3.334400E+01	  0.054268539	-4.456500E+01
173	  0.054468941	-5.970000E+00	  0.054468941	-8.381700E+01	  0.054468941	3.263500E+01	  0.054468941	-4.368200E+01
174	  0.054669335	-5.977000E+00	  0.054669335	-8.528600E+01	  0.054669335	3.194800E+01	  0.054669335	-4.280400E+01
175	  0.054869737	-5.981000E+00	  0.054869737	-8.671800E+01	  0.054869737	3.129100E+01	  0.054869737	-4.197000E+01
176	  0.055070139	-5.988000E+00	  0.055070139	-8.815100E+01	  0.055070139	3.067400E+01	  0.055070139	-4.113200E+01
177	  0.055270538	-5.992000E+00	  0.055270538	-8.957100E+01	  0.055270538	3.007500E+01	  0.055270538	-4.031800E+01
178	  0.055470940	-5.993000E+00	  0.055470940	-9.098800E+01	  0.055470940	2.949300E+01	  0.055470940	-3.952100E+01
179	  0.055671342	-5.996000E+00	  0.055671342	-9.243100E+01	  0.055671342	2.892700E+01	  0.055671342	-3.871400E+01
180	  0.055871744	-5.995000E+00	  0.055871744	-9.381100E+01	  0.055871744	2.839500E+01	  0.055871744	-3.795700E+01
181	  0.056072142	-5.999000E+00	  0.056072142	-9.520400E+01	  0.056072142	2.789500E+01	  0.056072142	-3.718900E+01
182	  0.056272544	-5.999000E+00	  0.056272544	-9.659200E+01	  0.056272544	2.740100E+01	  0.056272544	-3.644100E+01
183	  0.056472946	-5.999000E+00	  0.056472946	-9.794500E+01	  0.056472946	2.693800E+01	  0.056472946	-3.571800E+01
184	  0.056673344	-5.999000E+00	  0.056673344	-9.928800E+01	  0.056673344	2.649700E+01	  0.056673344	-3.500500E+01
185	  0.056873746	-6.004000E+00	  0.056873746	-1.006230E+02	  0.056873746	2.608900E+01	  0.056873746	-3.429300E+01
186	  0.057074148	-6.000000E+00	  0.057074148	-1.019600E+02	  0.057074148	2.566400E+01	  0.057074148	-3.360600E+01
187	  0.057274550	-6.000000E+00	  0.057274550	-1.032950E+02	  0.057274550	2.526900E+01	  0.057274550	-3.291700E+01
188	  0.057474948	-5.995000E+00	  0.057474948	-1.046320E+02	  0.057474948	2.487200E+01	  0.057474948	-3.224200E+01
189	  0.057675350	-5.994000E+00	  0.057675350	-1.059600E+02	  0.057675350	2.450300E+01	  0.057675350	-3.157000E+01
190	  0.057875752	-5.991000E+00	  0.057875752	-1.072850E+02	  0.057875752	2.414200E+01	  0.057875752	-3.090800E+01
191	  0.058076151	-5.991000E+00	  0.058076151	-1.085750E+02	  0.058076151	2.381000E+01	  0.058076151	-3.026500E+01
192	  0.058276553	-5.987000E+00	  0.058276553	-1.098760E+02	  0.058276553	2.347800E+01	  0.058276553	-2.962500E+01
193	  0.058476955	-5.984000E+00	  0.058476955	-1.111530E+02	  0.058476955	2.316100E+01	  0.058476955	-2.900400E+01
194	  0.058677353	-5.984000E+00	  0.058677353	-1.124600E+02	  0.058677353	2.286300E+01	  0.058677353	-2.836500E+01
195	  0.058877755	-5.980000E+00	  0.058877755	-1.137450E+02	  0.058877755	2.256300E+01	  0.058877755	-2.775000E+01
196	  0.059078157	-5.977000E+00	  0.059078157	-1.150170E+02	  0.059078157	2.228000E+01	  0.059078157	-2.714400E+01
197	  0.059278559	-5.972000E+00	  0.059278559	-1.162920E+02	  0.059278559	2.200100E+01	  0.059278559	-2.654300E+01
198	  0.059478957	-5.967000E+00	  0.059478957	-1.175590E+02	  0.059478957	2.173100E+01	  0.059478957	-2.595000E+01
199	  0.059679359	-5.967000E+00	  0.059679359	-1.188300E+02	  0.059679359	2.148400E+01	  0.059679359	-2.535300E+01
200	  0.059879761	-5.964000E+00	  0.059879761	-1.200760E+02	  0.059879761	2.124200E+01	  0.059879761	-2.477600E+01
201	  0.060080159	-5.965000E+00	  0.060080159	-1.213180E+02	  0.060080159	2.102000E+01	  0.060080159	-2.420000E+01
202	  0.060280561	-5.965000E+00	  0.060280561	-1.225680E+02	  0.060280561	2.080200E+01	  0.060280561	-2.362500E+01
203	  0.060480963	-5.961000E+00	  0.060480963	-1.237910E+02	  0.060480963	2.058300E+01	  0.060480963	-2.307100E+01
204	  0.060681365	-5.957000E+00	  0.060681365	-1.250310E+02	  0.060681365	2.037200E+01	  0.060681365	-2.251200E+01
205	  0.060881764	-5.954000E+00	  0.060881764	-1.262640E+02	  0.060881764	2.016800E+01	  0.060881764	-2.195900E+01
206	  0.061082166	-5.953000E+00	  0.061082166	-1.274870E+02	  0.061082166	1.997900E+01	  0.061082166	-2.141200E+01
207	  0.061282568	-5.954000E+00	  0.061282568	-1.287200E+02	  0.061282568	1.980200E+01	  0.061282568	-2.086200E+01
208	  0.061482966	-5.954000E+00	  0.061482966	-1.299170E+02	  0.061482966	1.963100E+01	  0.061482966	-2.033300E+01
209	  0.061683368	-5.951000E+00	  0.061683368	-1.311400E+02	  0.061683368	1.945400E+01	  0.061683368	-1.979800E+01
210	  0.061883770	-5.950000E+00	  0.061883770	-1.323280E+02	  0.061883770	1.929400E+01	  0.061883770	-1.927900E+01
211	  0.062084168	-5.950000E+00	  0.062084168	-1.335270E+02	  0.062084168	1.914300E+01	  0.062084168	-1.875700E+01
212	  0.062284570	-5.949000E+00	  0.062284570	-1.347230E+02	  0.062284570	1.899100E+01	  0.062284570	-1.824000E+01
213	  0.062484972	-5.939000E+00	  0.062484972	-1.358700E+02	  0.062484972	1.882700E+01	  0.062484972	-1.775500E+01
214	  0.062685370	-5.935000E+00	  0.062685370	-1.370400E+02	  0.062685370	1.868300E+01	  0.062685370	-1.725600E+01
215	  0.062885776	-5.934000E+00	  0.062885776	-1.382240E+02	  0.062885776	1.854800E+01	  0.062885776	-1.675200E+01
216	  0.063086174	-5.933000E+00	  0.063086174	-1.393810E+02	  0.063086174	1.842300E+01	  0.063086174	-1.626200E+01
217	  0.063286573	-5.933000E+00	  0.063286573	-1.405480E+02	  0.063286573	1.830200E+01	  0.063286573	-1.576900E+01
218	  0.063486971	-5.933000E+00	  0.063486971	-1.416730E+02	  0.063486971	1.819100E+01	  0.063486971	-1.529600E+01
219	  0.063687377	-5.929000E+00	  0.063687377	-1.428090E+02	  0.063687377	1.807300E+01	  0.063687377	-1.482300E+01
220	  0.063887775	-5.927000E+00	  0.063887775	-1.439400E+02	  0.063887775	1.796200E+01	  0.063887775	-1.435300E+01
221	  0.064088173	-5.928000E+00	  0.064088173	-1.450970E+02	  0.064088173	1.786400E+01	  0.064088173	-1.387200E+01
222	  0.064288579	-5.931000E+00	  0.064288579	-1.462380E+02	  0.064288579	1.777400E+01	  0.064288579	-1.339900E+01
223	  0.064488977	-5.930000E+00	  0.064488977	-1.473720E+02	  0.064488977	1.768000E+01	  0.064488977	-1.293300E+01
224	  0.064689375	-5.931000E+00	  0.064689375	-1.484830E+02	  0.064689375	1.759600E+01	  0.064689375	-1.247600E+01
225	  0.064889781	-5.931000E+00	  0.064889781	-1.496000E+02	  0.064889781	1.751200E+01	  0.064889781	-1.201900E+01
226	  0.065090179	-5.933000E+00	  0.065090179	-1.506970E+02	  0.065090179	1.743900E+01	  0.065090179	-1.157200E+01
227	  0.065290578	-5.933000E+00	  0.065290578	-1.517720E+02	  0.065290578	1.736300E+01	  0.065290578	-1.113600E+01
228	  0.065490983	-5.934000E+00	  0.065490983	-1.528760E+02	  0.065490983	1.729300E+01	  0.065490983	-1.068900E+01
229	  0.065691382	-5.936000E+00	  0.065691382	-1.539400E+02	  0.065691382	1.723200E+01	  0.065691382	-1.025800E+01
230	  0.065891780	-5.937000E+00	  0.065891780	-1.550440E+02	  0.065891780	1.716700E+01	  0.065891780	-9.814000E+00
231	  0.066092186	-5.944000E+00	  0.066092186	-1.560830E+02	  0.066092186	1.712600E+01	  0.066092186	-9.394000E+00
232	  0.066292584	-5.945000E+00	  0.066292584	-1.571500E+02	  0.066292584	1.707100E+01	  0.066292584	-8.967000E+00
233	  0.066492982	-5.949000E+00	  0.066492982	-1.582150E+02	  0.066492982	1.702600E+01	  0.066492982	-8.541000E+00
234	  0.066693388	-5.951000E+00	  0.066693388	-1.592480E+02	  0.066693388	1.697900E+01	  0.066693388	-8.129000E+00
235	  0.066893786	-5.955000E+00	  0.066893786	-1.602920E+02	  0.066893786	1.694100E+01	  0.066893786	-7.713000E+00
236	  0.067094192	-5.959000E+00	  0.067094192	-1.613240E+02	  0.067094192	1.690500E+01	  0.067094192	-7.303000E+00
237	  0.067294590	-5.964000E+00	  0.067294590	-1.623370E+02	  0.067294590	1.687800E+01	  0.067294590	-6.901000E+00
238	  0.067494988	-5.972000E+00	  0.067494988	-1.633470E+02	  0.067494988	1.685900E+01	  0.067494988	-6.501000E+00
239	  0.067695394	-5.974000E+00	  0.067695394	-1.643690E+02	  0.067695394	1.682600E+01	  0.067695394	-6.098000E+00
240	  0.067895792	-5.977000E+00	  0.067895792	-1.653650E+02	  0.067895792	1.680000E+01	  0.067895792	-5.705000E+00
241	  0.068096191	-5.987000E+00	  0.068096191	-1.663750E+02	  0.068096191	1.679100E+01	  0.068096191	-5.307000E+00
242	  0.068296596	-5.988000E+00	  0.068296596	-1.673830E+02	  0.068296596	1.676400E+01	  0.068296596	-4.912000E+00
243	  0.068496995	-5.992000E+00	  0.068496995	-1.683480E+02	  0.068496995	1.674700E+01	  0.068496995	-4.534000E+00
244	  0.068697393	-5.995000E+00	  0.068697393	-1.693430E+02	  0.068697393	1.673100E+01	  0.068697393	-4.144000E+00
245	  0.068897791	-5.998000E+00	  0.068897791	-1.703240E+02	  0.068897791	1.671600E+01	  0.068897791	-3.761000E+00
246	  0.069098189	-6.000000E+00	  0.069098189	-1.712900E+02	  0.069098189	1.670000E+01	  0.069098189	-3.384000E+00
247	  0.069298595	-6.004000E+00	  0.069298595	-1.722580E+02	  0.069298595	1.669200E+01	  0.069298595	-3.007000E+00
248	  0.069498993	-6.010000E+00	  0.069498993	-1.732420E+02	  0.069498993	1.669100E+01	  0.069498993	-2.623000E+00
249	  0.069699399	-6.014000E+00	  0.069699399	-1.742100E+02	  0.069699399	1.668800E+01	  0.069699399	-2.247000E+00
250	  0.069899797	-6.017000E+00	  0.069899797	-1.751720E+02	  0.069899797	1.668400E+01	  0.069899797	-1.873000E+00
251	  0.070100196	-6.019000E+00	  0.070100196	-1.760800E+02	  0.070100196	1.668200E+01	  0.070100196	-1.520000E+00
252	  0.070300601	-6.020000E+00	  0.070300601	-1.770450E+02	  0.070300601	1.667600E+01	  0.070300601	-1.146000E+00
253	  0.070501000	-6.021000E+00	  0.070501000	-1.780250E+02	  0.070501000	1.667200E+01	  0.070501000	-7.660000E-01
254	  0.070701398	-6.021000E+00	  0.070701398	-1.789230E+02	  0.070701398	1.667000E+01	  0.070701398	-4.170000E-01
255	  0.070901804	-6.022000E+00	  0.070901804	-1.798630E+02	  0.070901804	1.667200E+01	  0.070901804	-5.300000E-02
256	  0.071102202	-6.028000E+00	  0.071102202	1.791680E+02	  0.071102202	1.668700E+01	  0.071102202	3.220000E-01
257	  0.071302600	-6.029000E+00	  0.071302600	1.782300E+02	  0.071302600	1.669200E+01	  0.071302600	6.860000E-01
258	  0.071503006	-6.035000E+00	  0.071503006	1.773020E+02	  0.071503006	1.671200E+01	  0.071503006	1.045000E+00
259	  0.071703404	-6.034000E+00	  0.071703404	1.763600E+02	  0.071703404	1.671800E+01	  0.071703404	1.411000E+00
260	  0.071903802	-6.040000E+00	  0.071903802	1.754450E+02	  0.071903802	1.674000E+01	  0.071903802	1.765000E+00
261	  0.072104208	-6.043000E+00	  0.072104208	1.745040E+02	  0.072104208	1.675800E+01	  0.072104208	2.130000E+00
262	  0.072304606	-6.045000E+00	  0.072304606	1.736020E+02	  0.072304606	1.677500E+01	  0.072304606	2.480000E+00
263	  0.072505005	-6.048000E+00	  0.072505005	1.726940E+02	  0.072505005	1.679800E+01	  0.072505005	2.833000E+00
264	  0.072705410	-6.049000E+00	  0.072705410	1.717680E+02	  0.072705410	1.681600E+01	  0.072705410	3.192000E+00
265	  0.072905809	-6.055000E+00	  0.072905809	1.708370E+02	  0.072905809	1.685000E+01	  0.072905809	3.553000E+00
266	  0.073106214	-6.057000E+00	  0.073106214	1.699310E+02	  0.073106214	1.687500E+01	  0.073106214	3.906000E+00
267	  0.073306613	-6.064000E+00	  0.073306613	1.690060E+02	  0.073306613	1.691500E+01	  0.073306613	4.265000E+00
268	  0.073507011	-6.070000E+00	  0.073507011	1.680910E+02	  0.073507011	1.695500E+01	  0.073507011	4.621000E+00
269	  0.073707417	-6.071000E+00	  0.073707417	1.672080E+02	  0.073707417	1.698200E+01	  0.073707417	4.965000E+00
270	  0.073907815	-6.073000E+00	  0.073907815	1.663080E+02	  0.073907815	1.701600E+01	  0.073907815	5.316000E+00
271	  0.074108213	-6.081000E+00	  0.074108213	1.653910E+02	  0.074108213	1.706800E+01	  0.074108213	5.672000E+00
272	  0.074308619	-6.088000E+00	  0.074308619	1.644870E+02	  0.074308619	1.711700E+01	  0.074308619	6.025000E+00
273	  0.074509017	-6.093000E+00	  0.074509017	1.636060E+02	  0.074509017	1.716000E+01	  0.074509017	6.369000E+00
274	  0.074709415	-6.098000E+00	  0.074709415	1.627210E+02	  0.074709415	1.720800E+01	  0.074709415	6.714000E+00
275	  0.074909821	-6.104000E+00	  0.074909821	1.618050E+02	  0.074909821	1.726300E+01	  0.074909821	7.072000E+00
276	  0.075110219	-6.112000E+00	  0.075110219	1.609230E+02	  0.075110219	1.732200E+01	  0.075110219	7.417000E+00
277	  0.075310618	-6.118000E+00	  0.075310618	1.600660E+02	  0.075310618	1.737700E+01	  0.075310618	7.753000E+00
278	  0.075511023	-6.122000E+00	  0.075511023	1.591720E+02	  0.075511023	1.743100E+01	  0.075511023	8.104000E+00
279	  0.075711422	-6.127000E+00	  0.075711422	1.583340E+02	  0.075711422	1.748500E+01	  0.075711422	8.434000E+00
280	  0.075911827	-6.135000E+00	  0.075911827	1.574280E+02	  0.075911827	1.755400E+01	  0.075911827	8.790000E+00
281	  0.076112226	-6.140000E+00	  0.076112226	1.565740E+02	  0.076112226	1.761500E+01	  0.076112226	9.126000E+00
282	  0.076312624	-6.154000E+00	  0.076312624	1.557210E+02	  0.076312624	1.769900E+01	  0.076312624	9.459000E+00
283	  0.076513030	-6.159000E+00	  0.076513030	1.548690E+02	  0.076513030	1.776500E+01	  0.076513030	9.796000E+00
284	  0.076713428	-6.170000E+00	  0.076713428	1.539820E+02	  0.076713428	1.784900E+01	  0.076713428	1.014500E+01
285	  0.076913826	-6.181000E+00	  0.076913826	1.531020E+02	  0.076913826	1.793400E+01	  0.076913826	1.049100E+01
286	  0.077114232	-6.191000E+00	  0.077114232	1.522710E+02	  0.077114232	1.801600E+01	  0.077114232	1.081900E+01
287	  0.077314630	-6.203000E+00	  0.077314630	1.514190E+02	  0.077314630	1.810600E+01	  0.077314630	1.115500E+01
288	  0.077515028	-6.210000E+00	  0.077515028	1.505770E+02	  0.077515028	1.818400E+01	  0.077515028	1.148900E+01
289	  0.077715434	-6.225000E+00	  0.077715434	1.497420E+02	  0.077715434	1.828600E+01	  0.077715434	1.181800E+01
290	  0.077915832	-6.232000E+00	  0.077915832	1.488800E+02	  0.077915832	1.837100E+01	  0.077915832	1.216200E+01
291	  0.078116231	-6.241000E+00	  0.078116231	1.480280E+02	  0.078116231	1.846300E+01	  0.078116231	1.250100E+01
292	  0.078316636	-6.256000E+00	  0.078316636	1.471840E+02	  0.078316636	1.857300E+01	  0.078316636	1.283400E+01
293	  0.078517035	-6.270000E+00	  0.078517035	1.463220E+02	  0.078517035	1.868300E+01	  0.078517035	1.317500E+01
294	  0.078717433	-6.281000E+00	  0.078717433	1.454980E+02	  0.078717433	1.878300E+01	  0.078717433	1.350400E+01
295	  0.078917839	-6.293000E+00	  0.078917839	1.446470E+02	  0.078917839	1.889100E+01	  0.078917839	1.384300E+01
296	  0.079118237	-6.311000E+00	  0.079118237	1.438470E+02	  0.079118237	1.901400E+01	  0.079118237	1.415900E+01
297	  0.079318643	-6.321000E+00	  0.079318643	1.430190E+02	  0.079318643	1.912100E+01	  0.079318643	1.449000E+01
298	  0.079519041	-6.336000E+00	  0.079519041	1.421840E+02	  0.079519041	1.924400E+01	  0.079519041	1.482300E+01
299	  0.079719439	-6.349000E+00	  0.079719439	1.413590E+02	  0.079719439	1.936300E+01	  0.079719439	1.515200E+01
300	  0.079919845	-6.365000E+00	  0.079919845	1.405260E+02	  0.079919845	1.949100E+01	  0.079919845	1.548500E+01
301	  0.080120243	-6.377000E+00	  0.080120243	1.397010E+02	  0.080120243	1.961300E+01	  0.080120243	1.581600E+01
302	  0.080320641	-6.395000E+00	  0.080320641	1.388770E+02	  0.080320641	1.975100E+01	  0.080320641	1.614400E+01
303	  0.080521047	-6.405000E+00	  0.080521047	1.380770E+02	  0.080521047	1.987000E+01	  0.080521047	1.646800E+01
304	  0.080721445	-6.424000E+00	  0.080721445	1.372540E+02	  0.080721445	2.001700E+01	  0.080721445	1.679500E+01
305	  0.080921844	-6.443000E+00	  0.080921844	1.364750E+02	  0.080921844	2.016200E+01	  0.080921844	1.710400E+01
306	  0.081122249	-6.456000E+00	  0.081122249	1.357010E+02	  0.081122249	2.029300E+01	  0.081122249	1.741600E+01
307	  0.081322648	-6.472000E+00	  0.081322648	1.348750E+02	  0.081322648	2.044000E+01	  0.081322648	1.774800E+01
308	  0.081523046	-6.487000E+00	  0.081523046	1.340380E+02	  0.081523046	2.058700E+01	  0.081523046	1.808700E+01
309	  0.081723452	-6.503000E+00	  0.081723452	1.332780E+02	  0.081723452	2.073300E+01	  0.081723452	1.839200E+01
310	  0.081923850	-6.514000E+00	  0.081923850	1.324840E+02	  0.081923850	2.087100E+01	  0.081923850	1.871600E+01
311	  0.082124248	-6.530000E+00	  0.082124248	1.317040E+02	  0.082124248	2.102200E+01	  0.082124248	1.903000E+01
312	  0.082324654	-6.549000E+00	  0.082324654	1.309380E+02	  0.082324654	2.118200E+01	  0.082324654	1.933700E+01
313	  0.082525052	-6.566000E+00	  0.082525052	1.301660E+02	  0.082525052	2.134200E+01	  0.082525052	1.964800E+01
314	  0.082725458	-6.579000E+00	  0.082725458	1.294170E+02	  0.082725458	2.149100E+01	  0.082725458	1.995300E+01
315	  0.082925856	-6.599000E+00	  0.082925856	1.286790E+02	  0.082925856	2.165700E+01	  0.082925856	2.024700E+01
316	  0.083126254	-6.620000E+00	  0.083126254	1.279030E+02	  0.083126254	2.183800E+01	  0.083126254	2.055600E+01
317	  0.083326660	-6.640000E+00	  0.083326660	1.271560E+02	  0.083326660	2.201100E+01	  0.083326660	2.085500E+01
318	  0.083527058	-6.652000E+00	  0.083527058	1.263920E+02	  0.083527058	2.216900E+01	  0.083527058	2.117000E+01
319	  0.083727457	-6.673000E+00	  0.083727457	1.256630E+02	  0.083727457	2.235000E+01	  0.083727457	2.145900E+01
320	  0.083927862	-6.693000E+00	  0.083927862	1.249160E+02	  0.083927862	2.253200E+01	  0.083927862	2.175800E+01
321	  0.084128261	-6.715000E+00	  0.084128261	1.241850E+02	  0.084128261	2.272200E+01	  0.084128261	2.204800E+01
322	  0.084328659	-6.737000E+00	  0.084328659	1.234670E+02	  0.084328659	2.291100E+01	  0.084328659	2.233200E+01
323	  0.084529065	-6.755000E+00	  0.084529065	1.227560E+02	  0.084529065	2.309100E+01	  0.084529065	2.261700E+01
324	  0.084729463	-6.777000E+00	  0.084729463	1.220320E+02	  0.084729463	2.328800E+01	  0.084729463	2.290400E+01
325	  0.084929854	-6.796000E+00	  0.084929854	1.212820E+02	  0.084929854	2.348200E+01	  0.084929854	2.320600E+01
326	  0.085130259	-6.816000E+00	  0.085130259	1.205550E+02	  0.085130259	2.368000E+01	  0.085130259	2.349700E+01
327	  0.085330658	-6.838000E+00	  0.085330658	1.198120E+02	  0.085330658	2.388800E+01	  0.085330658	2.379200E+01
328	  0.085531056	-6.863000E+00	  0.085531056	1.191210E+02	  0.085531056	2.409800E+01	  0.085531056	2.406000E+01
329	  0.085731462	-6.885000E+00	  0.085731462	1.183690E+02	  0.085731462	2.431600E+01	  0.085731462	2.435800E+01
330	  0.085931860	-6.910000E+00	  0.085931860	1.176900E+02	  0.085931860	2.453100E+01	  0.085931860	2.461900E+01
331	  0.086132258	-6.932000E+00	  0.086132258	1.169910E+02	  0.086132258	2.474300E+01	  0.086132258	2.489400E+01
332	  0.086332664	-6.958000E+00	  0.086332664	1.162780E+02	  0.086332664	2.497300E+01	  0.086332664	2.517000E+01
333	  0.086533062	-6.982000E+00	  0.086533062	1.155780E+02	  0.086533062	2.519700E+01	  0.086533062	2.544100E+01
334	  0.086733460	-6.998000E+00	  0.086733460	1.148610E+02	  0.086733460	2.540600E+01	  0.086733460	2.573200E+01
335	  0.086933866	-7.023000E+00	  0.086933866	1.141980E+02	  0.086933866	2.563000E+01	  0.086933866	2.598600E+01
336	  0.087134264	-7.045000E+00	  0.087134264	1.135110E+02	  0.087134264	2.585500E+01	  0.087134264	2.625400E+01
337	  0.087334670	-7.068000E+00	  0.087334670	1.128070E+02	  0.087334670	2.609000E+01	  0.087334670	2.652800E+01
338	  0.087535068	-7.095000E+00	  0.087535068	1.121220E+02	  0.087535068	2.633500E+01	  0.087535068	2.678600E+01
339	  0.087735467	-7.118000E+00	  0.087735467	1.114630E+02	  0.087735467	2.656700E+01	  0.087735467	2.703800E+01
340	  0.087935872	-7.148000E+00	  0.087935872	1.107980E+02	  0.087935872	2.682300E+01	  0.087935872	2.728000E+01
341	  0.088136271	-7.172000E+00	  0.088136271	1.101060E+02	  0.088136271	2.706900E+01	  0.088136271	2.754600E+01
342	  0.088336669	-7.196000E+00	  0.088336669	1.094420E+02	  0.088336669	2.731500E+01	  0.088336669	2.779600E+01
343	  0.088537075	-7.222000E+00	  0.088537075	1.087670E+02	  0.088537075	2.757100E+01	  0.088537075	2.804800E+01
344	  0.088737473	-7.243000E+00	  0.088737473	1.081150E+02	  0.088737473	2.780900E+01	  0.088737473	2.829800E+01
345	  0.088937871	-7.267000E+00	  0.088937871	1.074240E+02	  0.088937871	2.807100E+01	  0.088937871	2.855900E+01
346	  0.089138277	-7.287000E+00	  0.089138277	1.067990E+02	  0.089138277	2.830600E+01	  0.089138277	2.879700E+01
347	  0.089338675	-7.313000E+00	  0.089338675	1.061330E+02	  0.089338675	2.857100E+01	  0.089338675	2.904300E+01
348	  0.089539073	-7.342000E+00	  0.089539073	1.055040E+02	  0.089539073	2.884100E+01	  0.089539073	2.926300E+01
349	  0.089739479	-7.370000E+00	  0.089739479	1.048740E+02	  0.089739479	2.910900E+01	  0.089739479	2.948600E+01
350	  0.089939877	-7.397000E+00	  0.089939877	1.042230E+02	  0.089939877	2.938500E+01	  0.089939877	2.971800E+01
351	  0.090140276	-7.422000E+00	  0.090140276	1.035900E+02	  0.090140276	2.965100E+01	  0.090140276	2.994700E+01
352	  0.090340681	-7.446000E+00	  0.090340681	1.029650E+02	  0.090340681	2.991700E+01	  0.090340681	3.017100E+01
353	  0.090541080	-7.478000E+00	  0.090541080	1.023300E+02	  0.090541080	3.020900E+01	  0.090541080	3.038400E+01
354	  0.090741485	-7.501000E+00	  0.090741485	1.017270E+02	  0.090741485	3.047200E+01	  0.090741485	3.059700E+01
355	  0.090941884	-7.532000E+00	  0.090941884	1.010880E+02	  0.090941884	3.077200E+01	  0.090941884	3.081000E+01
356	  0.091142282	-7.564000E+00	  0.091142282	1.004880E+02	  0.091142282	3.106300E+01	  0.091142282	3.100100E+01
357	  0.091342688	-7.596000E+00	  0.091342688	9.986800E+01	  0.091342688	3.136400E+01	  0.091342688	3.120100E+01
358	  0.091543086	-7.628000E+00	  0.091543086	9.926900E+01	  0.091543086	3.166200E+01	  0.091543086	3.138800E+01
359	  0.091743484	-7.650000E+00	  0.091743484	9.865500E+01	  0.091743484	3.193900E+01	  0.091743484	3.160300E+01
360	  0.091943890	-7.681000E+00	  0.091943890	9.805900E+01	  0.091943890	3.224000E+01	  0.091943890	3.178700E+01
361	  0.092144288	-7.710000E+00	  0.092144288	9.743300E+01	  0.092144288	3.254900E+01	  0.092144288	3.198700E+01
362	  0.092344686	-7.740000E+00	  0.092344686	9.682400E+01	  0.092344686	3.285500E+01	  0.092344686	3.217700E+01
363	  0.092545092	-7.768000E+00	  0.092545092	9.622700E+01	  0.092545092	3.315800E+01	  0.092545092	3.236300E+01
364	  0.092745490	-7.803000E+00	  0.092745490	9.567000E+01	  0.092745490	3.346500E+01	  0.092745490	3.251400E+01
365	  0.092945889	-7.830000E+00	  0.092945889	9.510600E+01	  0.092945889	3.375800E+01	  0.092945889	3.268500E+01
366	  0.093146294	-7.860000E+00	  0.093146294	9.452700E+01	  0.093146294	3.406500E+01	  0.093146294	3.285400E+01
367	  0.093346693	-7.892000E+00	  0.093346693	9.394800E+01	  0.093346693	3.438300E+01	  0.093346693	3.301300E+01
368	  0.093547091	-7.919000E+00	  0.093547091	9.337900E+01	  0.093547091	3.468300E+01	  0.093547091	3.318200E+01
369	  0.093747497	-7.951000E+00	  0.093747497	9.279700E+01	  0.093747497	3.500700E+01	  0.093747497	3.334000E+01
370	  0.093947895	-7.979000E+00	  0.093947895	9.223800E+01	  0.093947895	3.531300E+01	  0.093947895	3.349600E+01
371	  0.094148301	-8.009000E+00	  0.094148301	9.169700E+01	  0.094148301	3.562000E+01	  0.094148301	3.363700E+01
372	  0.094348699	-8.036000E+00	  0.094348699	9.115000E+01	  0.094348699	3.592300E+01	  0.094348699	3.378800E+01
373	  0.094549097	-8.073000E+00	  0.094549097	9.061500E+01	  0.094549097	3.625100E+01	  0.094549097	3.390300E+01
374	  0.094749503	-8.103000E+00	  0.094749503	9.011900E+01	  0.094749503	3.654600E+01	  0.094749503	3.401800E+01
375	  0.094949901	-8.129000E+00	  0.094949901	8.960900E+01	  0.094949901	3.683900E+01	  0.094949901	3.414800E+01
376	  0.095150299	-8.155000E+00	  0.095150299	8.908200E+01	  0.095150299	3.714000E+01	  0.095150299	3.428500E+01
377	  0.095350705	-8.183000E+00	  0.095350705	8.855600E+01	  0.095350705	3.744800E+01	  0.095350705	3.441400E+01
378	  0.095551103	-8.210000E+00	  0.095551103	8.805000E+01	  0.095551103	3.774900E+01	  0.095551103	3.453200E+01
379	  0.095751502	-8.237000E+00	  0.095751502	8.756700E+01	  0.095751502	3.804100E+01	  0.095751502	3.464100E+01
380	  0.095951907	-8.268000E+00	  0.095951907	8.713600E+01	  0.095951907	3.831800E+01	  0.095951907	3.471800E+01
381	  0.096152306	-8.298000E+00	  0.096152306	8.663900E+01	  0.096152306	3.862800E+01	  0.096152306	3.481700E+01
382	  0.096352704	-8.320000E+00	  0.096352704	8.616700E+01	  0.096352704	3.890600E+01	  0.096352704	3.493200E+01
383	  0.096553110	-8.347000E+00	  0.096553110	8.572500E+01	  0.096553110	3.918700E+01	  0.096553110	3.501500E+01
384	  0.096753508	-8.371000E+00	  0.096753508	8.527700E+01	  0.096753508	3.946200E+01	  0.096753508	3.511000E+01
385	  0.096953906	-8.398000E+00	  0.096953906	8.487200E+01	  0.096953906	3.972500E+01	  0.096953906	3.517900E+01
386	  0.097154312	-8.426000E+00	  0.097154312	8.440500E+01	  0.097154312	4.002500E+01	  0.097154312	3.526100E+01
387	  0.097354710	-8.448000E+00	  0.097354710	8.399800E+01	  0.097354710	4.028000E+01	  0.097354710	3.534200E+01
388	  0.097555116	-8.472000E+00	  0.097555116	8.357900E+01	  0.097555116	4.054700E+01	  0.097555116	3.541800E+01
389	  0.097755514	-8.496000E+00	  0.097755514	8.314400E+01	  0.097755514	4.082500E+01	  0.097755514	3.549600E+01
390	  0.097955912	-8.519000E+00	  0.097955912	8.276500E+01	  0.097955912	4.107200E+01	  0.097955912	3.555900E+01
391	  0.098156318	-8.539000E+00	  0.098156318	8.235900E+01	  0.098156318	4.132600E+01	  0.098156318	3.563900E+01
392	  0.098356716	-8.562000E+00	  0.098356716	8.197600E+01	  0.098356716	4.158000E+01	  0.098356716	3.569500E+01
393	  0.098557115	-8.578000E+00	  0.098557115	8.156900E+01	  0.098557115	4.183000E+01	  0.098557115	3.578600E+01
394	  0.098757520	-8.603000E+00	  0.098757520	8.117400E+01	  0.098757520	4.209500E+01	  0.098757520	3.583900E+01
395	  0.098957919	-8.617000E+00	  0.098957919	8.077800E+01	  0.098957919	4.233600E+01	  0.098957919	3.593000E+01
396	  0.099158317	-8.636000E+00	  0.099158317	8.038500E+01	  0.099158317	4.258900E+01	  0.099158317	3.599900E+01
397	  0.099358723	-8.653000E+00	  0.099358723	7.997800E+01	  0.099358723	4.284700E+01	  0.099358723	3.607900E+01
398	  0.099559121	-8.671000E+00	  0.099559121	7.962700E+01	  0.099559121	4.307600E+01	  0.099559121	3.613600E+01
399	  0.099759519	-8.688000E+00	  0.099759519	7.920500E+01	  0.099759519	4.334500E+01	  0.099759519	3.621700E+01
400	  0.099959925	-8.692000E+00	  0.099959925	7.888000E+01	  0.099959925	4.353200E+01	  0.099959925	3.631300E+01
401	  0.100160323	-8.710000E+00	  0.100160323	7.848800E+01	  0.100160323	4.379100E+01	  0.100160323	3.637500E+01
402	  0.100360721	-8.723000E+00	  0.100360721	7.812200E+01	  0.100360721	4.402300E+01	  0.100360721	3.645000E+01
403	  0.100561127	-8.733000E+00	  0.100561127	7.771400E+01	  0.100561127	4.427300E+01	  0.100561127	3.654800E+01
404	  0.100761525	-8.743000E+00	  0.100761525	7.735600E+01	  0.100761525	4.449900E+01	  0.100761525	3.662500E+01
405	  0.100961931	-8.753000E+00	  0.100961931	7.697000E+01	  0.100961931	4.474000E+01	  0.100961931	3.671200E+01
406	  0.101162329	-8.754000E+00	  0.101162329	7.663100E+01	  0.101162329	4.493700E+01	  0.101162329	3.681900E+01
407	  0.101362728	-8.760000E+00	  0.101362728	7.619300E+01	  0.101362728	4.520400E+01	  0.101362728	3.693500E+01
408	  0.101563133	-8.765000E+00	  0.101563133	7.582500E+01	  0.101563133	4.542900E+01	  0.101563133	3.703300E+01
409	  0.101763532	-8.771000E+00	  0.101763532	7.545100E+01	  0.101763532	4.566200E+01	  0.101763532	3.712600E+01
410	  0.101963930	-8.771000E+00	  0.101963930	7.503900E+01	  0.101963930	4.590800E+01	  0.101963930	3.725400E+01
411	  0.102164328	-8.777000E+00	  0.102164328	7.465800E+01	  0.102164328	4.614800E+01	  0.102164328	3.734900E+01
412	  0.102364726	-8.776000E+00	  0.102364726	7.422900E+01	  0.102364726	4.640500E+01	  0.102364726	3.748500E+01
413	  0.102565125	-8.781000E+00	  0.102565125	7.380900E+01	  0.102565125	4.667100E+01	  0.102565125	3.759300E+01
414	  0.102765530	-8.776000E+00	  0.102765530	7.342600E+01	  0.102765530	4.689600E+01	  0.102765530	3.773100E+01
415	  0.102965929	-8.778000E+00	  0.102965929	7.303500E+01	  0.102965929	4.714400E+01	  0.102965929	3.783700E+01
416	  0.103166327	-8.764000E+00	  0.103166327	7.257900E+01	  0.103166327	4.740100E+01	  0.103166327	3.803200E+01
417	  0.103366733	-8.768000E+00	  0.103366733	7.218000E+01	  0.103366733	4.766100E+01	  0.103366733	3.813200E+01
418	  0.103567131	-8.765000E+00	  0.103567131	7.173600E+01	  0.103567131	4.793800E+01	  0.103567131	3.827600E+01
419	  0.103767529	-8.762000E+00	  0.103767529	7.127700E+01	  0.103767529	4.822800E+01	  0.103767529	3.842000E+01
420	  0.103967935	-8.748000E+00	  0.103967935	7.083700E+01	  0.103967935	4.848900E+01	  0.103967935	3.860400E+01
421	  0.104168333	-8.752000E+00	  0.104168333	7.039100E+01	  0.104168333	4.878800E+01	  0.104168333	3.871500E+01
422	  0.104368731	-8.745000E+00	  0.104368731	6.997300E+01	  0.104368731	4.905200E+01	  0.104368731	3.886500E+01
423	  0.104569137	-8.737000E+00	  0.104569137	6.953700E+01	  0.104569137	4.932900E+01	  0.104569137	3.901900E+01
424	  0.104769535	-8.735000E+00	  0.104769535	6.901900E+01	  0.104769535	4.967600E+01	  0.104769535	3.917100E+01
425	  0.104969934	-8.729000E+00	  0.104969934	6.858000E+01	  0.104969934	4.996300E+01	  0.104969934	3.932100E+01
426	  0.105170339	-8.724000E+00	  0.105170339	6.806300E+01	  0.105170339	5.031200E+01	  0.105170339	3.947900E+01
427	  0.105370738	-8.719000E+00	  0.105370738	6.761700E+01	  0.105370738	5.061300E+01	  0.105370738	3.962300E+01
428	  0.105571143	-8.717000E+00	  0.105571143	6.714000E+01	  0.105571143	5.094600E+01	  0.105571143	3.975500E+01
429	  0.105771542	-8.711000E+00	  0.105771542	6.665600E+01	  0.105771542	5.127900E+01	  0.105771542	3.990900E+01
430	  0.105971940	-8.710000E+00	  0.105971940	6.612700E+01	  0.105971940	5.165800E+01	  0.105971940	4.004600E+01
431	  0.106172346	-8.704000E+00	  0.106172346	6.564600E+01	  0.106172346	5.199700E+01	  0.106172346	4.019300E+01
432	  0.106372744	-8.699000E+00	  0.106372744	6.513500E+01	  0.106372744	5.236400E+01	  0.106372744	4.034300E+01
433	  0.106573142	-8.700000E+00	  0.106573142	6.470600E+01	  0.106573142	5.268300E+01	  0.106573142	4.044000E+01
434	  0.106773548	-8.693000E+00	  0.106773548	6.412900E+01	  0.106773548	5.310500E+01	  0.106773548	4.061100E+01
435	  0.106973946	-8.682000E+00	  0.106973946	6.367600E+01	  0.106973946	5.342900E+01	  0.106973946	4.077200E+01
436	  0.107174344	-8.684000E+00	  0.107174344	6.315000E+01	  0.107174344	5.383500E+01	  0.107174344	4.087900E+01
437	  0.107374750	-8.679000E+00	  0.107374750	6.262100E+01	  0.107374750	5.423700E+01	  0.107374750	4.102000E+01
438	  0.107575148	-8.670000E+00	  0.107575148	6.205100E+01	  0.107575148	5.467000E+01	  0.107575148	4.118700E+01
439	  0.107775547	-8.661000E+00	  0.107775547	6.156900E+01	  0.107775547	5.503700E+01	  0.107775547	4.133700E+01
440	  0.107975952	-8.653000E+00	  0.107975952	6.107200E+01	  0.107975952	5.542300E+01	  0.107975952	4.148100E+01
441	  0.108176351	-8.644000E+00	  0.108176351	6.055700E+01	  0.108176351	5.582700E+01	  0.108176351	4.163000E+01
442	  0.108376749	-8.644000E+00	  0.108376749	6.003300E+01	  0.108376749	5.625500E+01	  0.108376749	4.172900E+01
443	  0.108577155	-8.643000E+00	  0.108577155	5.949500E+01	  0.108577155	5.669600E+01	  0.108577155	4.183500E+01
444	  0.108777553	-8.630000E+00	  0.108777553	5.894700E+01	  0.108777553	5.713700E+01	  0.108777553	4.200400E+01
445	  0.108977959	-8.628000E+00	  0.108977959	5.837200E+01	  0.108977959	5.762000E+01	  0.108977959	4.211100E+01
446	  0.109178357	-8.618000E+00	  0.109178357	5.781400E+01	  0.109178357	5.808400E+01	  0.109178357	4.226000E+01
447	  0.109378755	-8.614000E+00	  0.109378755	5.726500E+01	  0.109378755	5.855400E+01	  0.109378755	4.236600E+01
448	  0.109579161	-8.604000E+00	  0.109579161	5.671600E+01	  0.109579161	5.902200E+01	  0.109579161	4.250500E+01
449	  0.109779559	-8.592000E+00	  0.109779559	5.618400E+01	  0.109779559	5.947900E+01	  0.109779559	4.264700E+01
450	  0.109979957	-8.592000E+00	  0.109979957	5.554600E+01	  0.109979957	6.004700E+01	  0.109979957	4.273500E+01
451	  0.110180363	-8.577000E+00	  0.110180363	5.501400E+01	  0.110180363	6.051400E+01	  0.110180363	4.288800E+01
452	  0.110380761	-8.574000E+00	  0.110380761	5.439800E+01	  0.110380761	6.107300E+01	  0.110380761	4.297500E+01
453	  0.110581160	-8.575000E+00	  0.110581160	5.369500E+01	  0.110581160	6.172200E+01	  0.110581160	4.304300E+01
454	  0.110781565	-8.569000E+00	  0.110781565	5.316100E+01	  0.110781565	6.221600E+01	  0.110781565	4.312400E+01
455	  0.110981964	-8.565000E+00	  0.110981964	5.251400E+01	  0.110981964	6.282400E+01	  0.110981964	4.320200E+01
456	  0.111182362	-8.556000E+00	  0.111182362	5.192200E+01	  0.111182362	6.338400E+01	  0.111182362	4.329500E+01
457	  0.111382768	-8.553000E+00	  0.111382768	5.127900E+01	  0.111382768	6.400200E+01	  0.111382768	4.335000E+01
458	  0.111583166	-8.555000E+00	  0.111583166	5.060100E+01	  0.111583166	6.466200E+01	  0.111583166	4.337100E+01
459	  0.111783572	-8.550000E+00	  0.111783572	4.996100E+01	  0.111783572	6.529200E+01	  0.111783572	4.342100E+01
460	  0.111983970	-8.545000E+00	  0.111983970	4.925400E+01	  0.111983970	6.599500E+01	  0.111983970	4.346200E+01
461	  0.112184368	-8.541000E+00	  0.112184368	4.858200E+01	  0.112184368	6.667100E+01	  0.112184368	4.348600E+01
462	  0.112384774	-8.542000E+00	  0.112384774	4.790000E+01	  0.112384774	6.736500E+01	  0.112384774	4.347100E+01
463	  0.112585172	-8.548000E+00	  0.112585172	4.720000E+01	  0.112585172	6.808200E+01	  0.112585172	4.340200E+01
464	  0.112785570	-8.547000E+00	  0.112785570	4.649600E+01	  0.112785570	6.881300E+01	  0.112785570	4.337200E+01
465	  0.112985976	-8.550000E+00	  0.112985976	4.577000E+01	  0.112985976	6.957100E+01	  0.112985976	4.330300E+01
466	  0.113186374	-8.549000E+00	  0.113186374	4.505700E+01	  0.113186374	7.032500E+01	  0.113186374	4.324400E+01
467	  0.113386773	-8.544000E+00	  0.113386773	4.430400E+01	  0.113386773	7.113200E+01	  0.113386773	4.319300E+01
468	  0.113587178	-8.557000E+00	  0.113587178	4.356700E+01	  0.113587178	7.191400E+01	  0.113587178	4.300200E+01
469	  0.113787577	-8.556000E+00	  0.113787577	4.279600E+01	  0.113787577	7.275100E+01	  0.113787577	4.289100E+01
470	  0.113987975	-8.567000E+00	  0.113987975	4.205000E+01	  0.113987975	7.355300E+01	  0.113987975	4.267800E+01
471	  0.114188381	-8.579000E+00	  0.114188381	4.123200E+01	  0.114188381	7.443700E+01	  0.114188381	4.243000E+01
472	  0.114388779	-8.577000E+00	  0.114388779	4.048400E+01	  0.114388779	7.526600E+01	  0.114388779	4.226700E+01
473	  0.114589177	-8.591000E+00	  0.114589177	3.964000E+01	  0.114589177	7.618300E+01	  0.114589177	4.195400E+01
474	  0.114789583	-8.595000E+00	  0.114789583	3.885700E+01	  0.114789583	7.705100E+01	  0.114789583	4.170200E+01
475	  0.114989981	-8.609000E+00	  0.114989981	3.804800E+01	  0.114989981	7.793100E+01	  0.114989981	4.134300E+01
476	  0.115190387	-8.619000E+00	  0.115190387	3.725300E+01	  0.115190387	7.880400E+01	  0.115190387	4.100100E+01
477	  0.115390785	-8.638000E+00	  0.115390785	3.641300E+01	  0.115390785	7.970500E+01	  0.115390785	4.054800E+01
478	  0.115591183	-8.652000E+00	  0.115591183	3.554400E+01	  0.115591183	8.065000E+01	  0.115591183	4.009900E+01
479	  0.115791589	-8.663000E+00	  0.115791589	3.470000E+01	  0.115791589	8.157100E+01	  0.115791589	3.964800E+01
480	  0.115991987	-8.686000E+00	  0.115991987	3.381000E+01	  0.115991987	8.250300E+01	  0.115991987	3.906000E+01
481	  0.116192386	-8.702000E+00	  0.116192386	3.290500E+01	  0.116192386	8.346700E+01	  0.116192386	3.848900E+01
482	  0.116392791	-8.729000E+00	  0.116392791	3.202300E+01	  0.116392791	8.435600E+01	  0.116392791	3.781300E+01
483	  0.116593190	-8.750000E+00	  0.116593190	3.118600E+01	  0.116593190	8.520400E+01	  0.116593190	3.717600E+01
484	  0.116793588	-8.777000E+00	  0.116793588	3.024500E+01	  0.116793588	8.613000E+01	  0.116793588	3.640800E+01
485	  0.116993994	-8.803000E+00	  0.116993994	2.927800E+01	  0.116993994	8.707600E+01	  0.116993994	3.560200E+01
486	  0.117194392	-8.839000E+00	  0.117194392	2.835900E+01	  0.117194392	8.790000E+01	  0.117194392	3.471600E+01
487	  0.117394790	-8.875000E+00	  0.117394790	2.743200E+01	  0.117394790	8.870800E+01	  0.117394790	3.379900E+01
488	  0.117595196	-8.911000E+00	  0.117595196	2.645200E+01	  0.117595196	8.954000E+01	  0.117595196	3.280800E+01
489	  0.117795594	-8.955000E+00	  0.117795594	2.548900E+01	  0.117795594	9.028600E+01	  0.117795594	3.174900E+01
490	  0.117995992	-8.996000E+00	  0.117995992	2.450200E+01	  0.117995992	9.103900E+01	  0.117995992	3.066800E+01
491	  0.118196398	-9.040000E+00	  0.118196398	2.348200E+01	  0.118196398	9.177000E+01	  0.118196398	2.951100E+01
492	  0.118396796	-9.093000E+00	  0.118396796	2.244700E+01	  0.118396796	9.241200E+01	  0.118396796	2.825100E+01
493	  0.118597202	-9.144000E+00	  0.118597202	2.141600E+01	  0.118597202	9.302100E+01	  0.118597202	2.699200E+01
494	  0.118797600	-9.200000E+00	  0.118797600	2.032400E+01	  0.118797600	9.360300E+01	  0.118797600	2.562500E+01
