! Anritsu VNA Master:             	Model: MS2036C/10/77
! SN:             	1601066
! /bd0/18may10/256.ns.m6.txt
! Existing Calibration Information:
! TYPE:             	Current Settings	Active Cal Settings
! TIME:             	05/10/2018 11:13:00 AM	05/10/2018 11:07:23 AM
! INTERNAL TEMP:    	52.3 C	51.3 C
! # POINTS:         	494	494
! START FREQ:       	20.000 MHz	20.000 MHz
! STOP FREQ:        	118.797 594 MHz	118.797 594 MHz
! SOURCE POWER:     	High	High
! IFBW:             	50 Hz	50 Hz
! AVG FACTOR:       	  1 	  1 
! REF PLANE 1:      	0 mm	0 mm
! REF PLANE 2:      	0 mm	0 mm
! CAL TYPE:         	Full S22	Full S22
! CAL METHOD:       	SOLT	SOLT
! CAL LINE TYPE:    	Coax	Coax
! DUT PORT 1:       	K-Conn(M)	K-Conn(M)
! DUT PORT 2:       	K-Conn(M)	K-Conn(M)
! CAL STATUS:       	OK: Accuracy High	--
! PROP-V:       	0.700
! CABLE LOSS:       	0.000 dB/m
! REF IMPEDANCE:       	50.0
! Trace Specific Parameters:	TR1	TR2	TR3	TR4
! TRACE.#.Y (GRAPH TYPE)	LOG MAG	PHASE	REAL IMPEDANCE	IMAGINARY IMPEDANCE
! TRACE.#.X 	FREQ.GHZ	FREQ.GHZ	FREQ.GHZ	FREQ.GHZ
! S-PARAMETER	S22	S22	S22	S22
! SMOOTH/APERTURE %	0	0	0	0
! WINDOW	NSL	NSL	NSL	NSL
! GATING	OFF	OFF	OFF	OFF
! FGTD	OFF	OFF	OFF	OFF
Marker Information per Trace:	TR1	TR2	TR3	TR4
!MK1	--	"MK1 TR2:  20.000 MHz,PH:-126.85°"	--	--
!MK2	--	--	"MK2 TR3:  70.100 200 MHz,Z:(16.770 ohm, -1.522 ohm)"	--
!MK3	--	--	--	--
!MK4	--	--	--	--
!MK5	--	--	--	--
!MK6	--	--	--	--
!MK7	--	--	--	--
!MK8	--	--	--	--
PNT	TR1.FREQ.GHZ	TR1.LOG MAG.dB	TR2.FREQ.GHZ	TR2.PHASE.deg	TR3.FREQ.GHZ	TR3.REAL IMPEDANCE.ohm	TR4.FREQ.GHZ	TR4.IMAGINARY IMPEDANCE.ohm
1	  0.020000000	-5.920000E-01	  0.020000000	-1.268470E+02	  0.020000000	2.130000E+00	  0.020000000	-2.497600E+01
2	  0.020200402	-5.970000E-01	  0.020200402	-1.283020E+02	  0.020200402	2.122000E+00	  0.020200402	-2.418700E+01
3	  0.020400802	-6.030000E-01	  0.020400802	-1.297950E+02	  0.020400802	2.118000E+00	  0.020400802	-2.338900E+01
4	  0.020601204	-6.080000E-01	  0.020601204	-1.313010E+02	  0.020601204	2.109000E+00	  0.020601204	-2.259300E+01
5	  0.020801604	-6.110000E-01	  0.020801604	-1.328310E+02	  0.020801604	2.094000E+00	  0.020801604	-2.179600E+01
6	  0.021002004	-6.160000E-01	  0.021002004	-1.343840E+02	  0.021002004	2.085000E+00	  0.021002004	-2.099400E+01
7	  0.021202406	-6.210000E-01	  0.021202406	-1.359420E+02	  0.021202406	2.079000E+00	  0.021202406	-2.020000E+01
8	  0.021402806	-6.220000E-01	  0.021402806	-1.374700E+02	  0.021402806	2.061000E+00	  0.021402806	-1.943000E+01
9	  0.021603208	-6.280000E-01	  0.021603208	-1.390160E+02	  0.021603208	2.058000E+00	  0.021603208	-1.865700E+01
10	  0.021803608	-6.340000E-01	  0.021803608	-1.405540E+02	  0.021803608	2.059000E+00	  0.021803608	-1.789800E+01
11	  0.022004008	-6.410000E-01	  0.022004008	-1.421040E+02	  0.022004008	2.064000E+00	  0.022004008	-1.713900E+01
12	  0.022204408	-6.490000E-01	  0.022204408	-1.436710E+02	  0.022204408	2.070000E+00	  0.022204408	-1.637900E+01
13	  0.022404809	-6.560000E-01	  0.022404809	-1.452850E+02	  0.022404809	2.071000E+00	  0.022404809	-1.560300E+01
14	  0.022605211	-6.580000E-01	  0.022605211	-1.468920E+02	  0.022605211	2.060000E+00	  0.022605211	-1.483800E+01
15	  0.022805611	-6.670000E-01	  0.022805611	-1.484980E+02	  0.022805611	2.072000E+00	  0.022805611	-1.407900E+01
16	  0.023006011	-6.730000E-01	  0.023006011	-1.500890E+02	  0.023006011	2.075000E+00	  0.023006011	-1.333300E+01
17	  0.023206413	-6.790000E-01	  0.023206413	-1.517020E+02	  0.023206413	2.077000E+00	  0.023206413	-1.258300E+01
18	  0.023406813	-6.850000E-01	  0.023406813	-1.533060E+02	  0.023406813	2.083000E+00	  0.023406813	-1.184300E+01
19	  0.023607215	-6.940000E-01	  0.023607215	-1.549320E+02	  0.023607215	2.095000E+00	  0.023607215	-1.109700E+01
20	  0.023807615	-7.050000E-01	  0.023807615	-1.565680E+02	  0.023807615	2.115000E+00	  0.023807615	-1.035100E+01
21	  0.024008015	-7.160000E-01	  0.024008015	-1.582160E+02	  0.024008015	2.137000E+00	  0.024008015	-9.604000E+00
22	  0.024208417	-7.250000E-01	  0.024208417	-1.598920E+02	  0.024208417	2.151000E+00	  0.024208417	-8.848000E+00
23	  0.024408817	-7.320000E-01	  0.024408817	-1.615570E+02	  0.024408817	2.163000E+00	  0.024408817	-8.102000E+00
24	  0.024609219	-7.420000E-01	  0.024609219	-1.632340E+02	  0.024609219	2.183000E+00	  0.024609219	-7.354000E+00
25	  0.024809619	-7.550000E-01	  0.024809619	-1.649060E+02	  0.024809619	2.210000E+00	  0.024809619	-6.611000E+00
26	  0.025010020	-7.670000E-01	  0.025010020	-1.665950E+02	  0.025010020	2.237000E+00	  0.025010020	-5.864000E+00
27	  0.025210422	-7.790000E-01	  0.025210422	-1.682790E+02	  0.025210422	2.267000E+00	  0.025210422	-5.121000E+00
28	  0.025410822	-7.920000E-01	  0.025410822	-1.699830E+02	  0.025410822	2.297000E+00	  0.025410822	-4.372000E+00
29	  0.025611224	-8.060000E-01	  0.025611224	-1.716950E+02	  0.025611224	2.330000E+00	  0.025611224	-3.621000E+00
30	  0.025811624	-8.210000E-01	  0.025811624	-1.734300E+02	  0.025811624	2.369000E+00	  0.025811624	-2.863000E+00
31	  0.026012026	-8.350000E-01	  0.026012026	-1.751620E+02	  0.026012026	2.406000E+00	  0.026012026	-2.107000E+00
32	  0.026212426	-8.490000E-01	  0.026212426	-1.769160E+02	  0.026212426	2.444000E+00	  0.026212426	-1.342000E+00
33	  0.026412826	-8.650000E-01	  0.026412826	-1.786760E+02	  0.026412826	2.488000E+00	  0.026412826	-5.760000E-01
34	  0.026613226	-8.820000E-01	  0.026613226	1.795630E+02	  0.026613226	2.537000E+00	  0.026613226	1.890000E-01
35	  0.026813626	-8.990000E-01	  0.026813626	1.777750E+02	  0.026813626	2.587000E+00	  0.026813626	9.680000E-01
36	  0.027014028	-9.190000E-01	  0.027014028	1.759940E+02	  0.027014028	2.646000E+00	  0.027014028	1.743000E+00
37	  0.027214428	-9.370000E-01	  0.027214428	1.742030E+02	  0.027214428	2.701000E+00	  0.027214428	2.524000E+00
38	  0.027414829	-9.550000E-01	  0.027414829	1.724010E+02	  0.027414829	2.758000E+00	  0.027414829	3.310000E+00
39	  0.027615231	-9.760000E-01	  0.027615231	1.705830E+02	  0.027615231	2.825000E+00	  0.027615231	4.104000E+00
40	  0.027815631	-9.960000E-01	  0.027815631	1.687570E+02	  0.027815631	2.892000E+00	  0.027815631	4.905000E+00
41	  0.028016033	-1.019000E+00	  0.028016033	1.669150E+02	  0.028016033	2.968000E+00	  0.028016033	5.714000E+00
42	  0.028216433	-1.042000E+00	  0.028216433	1.650670E+02	  0.028216433	3.048000E+00	  0.028216433	6.528000E+00
43	  0.028416833	-1.064000E+00	  0.028416833	1.632070E+02	  0.028416833	3.126000E+00	  0.028416833	7.351000E+00
44	  0.028617235	-1.088000E+00	  0.028617235	1.613450E+02	  0.028617235	3.213000E+00	  0.028617235	8.179000E+00
45	  0.028817635	-1.112000E+00	  0.028817635	1.594750E+02	  0.028817635	3.301000E+00	  0.028817635	9.014000E+00
46	  0.029018037	-1.139000E+00	  0.029018037	1.576180E+02	  0.029018037	3.401000E+00	  0.029018037	9.847000E+00
47	  0.029218437	-1.166000E+00	  0.029218437	1.557350E+02	  0.029218437	3.505000E+00	  0.029218437	1.069700E+01
48	  0.029418837	-1.194000E+00	  0.029418837	1.538290E+02	  0.029418837	3.617000E+00	  0.029418837	1.156400E+01
49	  0.029619239	-1.223000E+00	  0.029619239	1.519340E+02	  0.029619239	3.735000E+00	  0.029619239	1.243100E+01
50	  0.029819639	-1.251000E+00	  0.029819639	1.500180E+02	  0.029819639	3.853000E+00	  0.029819639	1.331400E+01
51	  0.030020041	-1.281000E+00	  0.030020041	1.481000E+02	  0.030020041	3.982000E+00	  0.030020041	1.420600E+01
52	  0.030220442	-1.311000E+00	  0.030220442	1.461830E+02	  0.030220442	4.112000E+00	  0.030220442	1.510400E+01
53	  0.030420844	-1.341000E+00	  0.030420844	1.442730E+02	  0.030420844	4.251000E+00	  0.030420844	1.600800E+01
54	  0.030621244	-1.375000E+00	  0.030621244	1.423650E+02	  0.030621244	4.405000E+00	  0.030621244	1.691900E+01
55	  0.030821642	-1.408000E+00	  0.030821642	1.404370E+02	  0.030821642	4.564000E+00	  0.030821642	1.784900E+01
56	  0.031022044	-1.443000E+00	  0.031022044	1.384820E+02	  0.031022044	4.737000E+00	  0.031022044	1.880300E+01
57	  0.031222444	-1.473000E+00	  0.031222444	1.365460E+02	  0.031222444	4.898000E+00	  0.031222444	1.975900E+01
58	  0.031422846	-1.508000E+00	  0.031422846	1.345750E+02	  0.031422846	5.084000E+00	  0.031422846	2.074300E+01
59	  0.031623244	-1.545000E+00	  0.031623244	1.326010E+02	  0.031623244	5.284000E+00	  0.031623244	2.174100E+01
60	  0.031823646	-1.584000E+00	  0.031823646	1.306270E+02	  0.031823646	5.498000E+00	  0.031823646	2.275200E+01
61	  0.032024048	-1.622000E+00	  0.032024048	1.286430E+02	  0.032024048	5.721000E+00	  0.032024048	2.378300E+01
62	  0.032224450	-1.660000E+00	  0.032224450	1.266470E+02	  0.032224450	5.955000E+00	  0.032224450	2.483600E+01
63	  0.032424849	-1.701000E+00	  0.032424849	1.246680E+02	  0.032424849	6.205000E+00	  0.032424849	2.589400E+01
64	  0.032625251	-1.740000E+00	  0.032625251	1.226490E+02	  0.032625251	6.466000E+00	  0.032625251	2.699200E+01
65	  0.032825653	-1.782000E+00	  0.032825653	1.206170E+02	  0.032825653	6.750000E+00	  0.032825653	2.811500E+01
66	  0.033026051	-1.822000E+00	  0.033026051	1.185700E+02	  0.033026051	7.044000E+00	  0.033026051	2.926700E+01
67	  0.033226453	-1.862000E+00	  0.033226453	1.165300E+02	  0.033226453	7.348000E+00	  0.033226453	3.043700E+01
68	  0.033426855	-1.905000E+00	  0.033426855	1.145060E+02	  0.033426855	7.685000E+00	  0.033426855	3.161600E+01
69	  0.033627257	-1.951000E+00	  0.033627257	1.124650E+02	  0.033627257	8.047000E+00	  0.033627257	3.282800E+01
70	  0.033827655	-1.992000E+00	  0.033827655	1.104260E+02	  0.033827655	8.413000E+00	  0.033827655	3.406600E+01
71	  0.034028057	-2.038000E+00	  0.034028057	1.083820E+02	  0.034028057	8.816000E+00	  0.034028057	3.532900E+01
72	  0.034228459	-2.086000E+00	  0.034228459	1.063090E+02	  0.034228459	9.256000E+00	  0.034228459	3.663700E+01
73	  0.034428857	-2.131000E+00	  0.034428857	1.042270E+02	  0.034428857	9.712000E+00	  0.034428857	3.798100E+01
74	  0.034629259	-2.180000E+00	  0.034629259	1.021470E+02	  0.034629259	1.021100E+01	  0.034629259	3.935200E+01
75	  0.034829661	-2.227000E+00	  0.034829661	1.000620E+02	  0.034829661	1.073200E+01	  0.034829661	4.076100E+01
76	  0.035030060	-2.277000E+00	  0.035030060	9.797300E+01	  0.035030060	1.130400E+01	  0.035030060	4.220200E+01
77	  0.035230462	-2.330000E+00	  0.035230462	9.588300E+01	  0.035230462	1.192200E+01	  0.035230462	4.367700E+01
78	  0.035430863	-2.383000E+00	  0.035430863	9.380400E+01	  0.035430863	1.258200E+01	  0.035430863	4.517900E+01
79	  0.035631265	-2.436000E+00	  0.035631265	9.172000E+01	  0.035631265	1.328400E+01	  0.035631265	4.672400E+01
80	  0.035831664	-2.486000E+00	  0.035831664	8.963400E+01	  0.035831664	1.402200E+01	  0.035831664	4.831300E+01
81	  0.036032066	-2.543000E+00	  0.036032066	8.752400E+01	  0.036032066	1.485200E+01	  0.036032066	4.995300E+01
82	  0.036232468	-2.597000E+00	  0.036232468	8.545300E+01	  0.036232468	1.571500E+01	  0.036232468	5.160800E+01
83	  0.036432866	-2.651000E+00	  0.036432866	8.335300E+01	  0.036432866	1.664400E+01	  0.036432866	5.333200E+01
84	  0.036633268	-2.705000E+00	  0.036633268	8.127400E+01	  0.036633268	1.764300E+01	  0.036633268	5.508200E+01
85	  0.036833670	-2.764000E+00	  0.036833670	7.918300E+01	  0.036833670	1.874200E+01	  0.036833670	5.688100E+01
86	  0.037034072	-2.820000E+00	  0.037034072	7.708600E+01	  0.037034072	1.991600E+01	  0.037034072	5.873600E+01
87	  0.037234470	-2.877000E+00	  0.037234470	7.498500E+01	  0.037234470	2.118400E+01	  0.037234470	6.064500E+01
88	  0.037434869	-2.936000E+00	  0.037434869	7.288500E+01	  0.037434869	2.256700E+01	  0.037434869	6.259400E+01
89	  0.037635271	-3.002000E+00	  0.037635271	7.076600E+01	  0.037635271	2.411900E+01	  0.037635271	6.458800E+01
90	  0.037835669	-3.080000E+00	  0.037835669	6.869200E+01	  0.037835669	2.586300E+01	  0.037835669	6.652700E+01
91	  0.038036071	-3.147000E+00	  0.038036071	6.671300E+01	  0.038036071	2.759300E+01	  0.038036071	6.844200E+01
92	  0.038236473	-3.203000E+00	  0.038236473	6.471000E+01	  0.038236473	2.939500E+01	  0.038236473	7.046300E+01
93	  0.038436871	-3.257000E+00	  0.038436871	6.269200E+01	  0.038436871	3.134500E+01	  0.038436871	7.254800E+01
94	  0.038637273	-3.310000E+00	  0.038637273	6.063700E+01	  0.038637273	3.347500E+01	  0.038637273	7.472100E+01
95	  0.038837675	-3.362000E+00	  0.038837675	5.858300E+01	  0.038837675	3.578000E+01	  0.038837675	7.693400E+01
96	  0.039038073	-3.413000E+00	  0.039038073	5.656600E+01	  0.039038073	3.823100E+01	  0.039038073	7.914100E+01
97	  0.039238475	-3.469000E+00	  0.039238475	5.449100E+01	  0.039238475	4.101400E+01	  0.039238475	8.139700E+01
98	  0.039438877	-3.520000E+00	  0.039438877	5.246700E+01	  0.039438877	4.392800E+01	  0.039438877	8.363900E+01
99	  0.039639279	-3.573000E+00	  0.039639279	5.041600E+01	  0.039639279	4.715200E+01	  0.039639279	8.589700E+01
100	  0.039839678	-3.626000E+00	  0.039839678	4.836100E+01	  0.039839678	5.068100E+01	  0.039839678	8.812500E+01
101	  0.040040080	-3.677000E+00	  0.040040080	4.629200E+01	  0.040040080	5.451600E+01	  0.040040080	9.036400E+01
102	  0.040240481	-3.726000E+00	  0.040240481	4.424700E+01	  0.040240481	5.864400E+01	  0.040240481	9.250900E+01
103	  0.040440880	-3.775000E+00	  0.040440880	4.220000E+01	  0.040440880	6.313900E+01	  0.040440880	9.456100E+01
104	  0.040641282	-3.826000E+00	  0.040641282	4.017400E+01	  0.040641282	6.799300E+01	  0.040641282	9.642000E+01
105	  0.040841684	-3.875000E+00	  0.040841684	3.815600E+01	  0.040841684	7.322800E+01	  0.040841684	9.809800E+01
106	  0.041042086	-3.925000E+00	  0.041042086	3.613800E+01	  0.041042086	7.889000E+01	  0.041042086	9.952700E+01
107	  0.041242484	-3.976000E+00	  0.041242484	3.410100E+01	  0.041242484	8.506600E+01	  0.041242484	1.006190E+02
108	  0.041442886	-4.023000E+00	  0.041442886	3.206600E+01	  0.041442886	9.166900E+01	  0.041442886	1.014090E+02
109	  0.041643288	-4.070000E+00	  0.041643288	3.002000E+01	  0.041643288	9.878100E+01	  0.041643288	1.016930E+02
110	  0.041843686	-4.116000E+00	  0.041843686	2.798100E+01	  0.041843686	1.063180E+02	  0.041843686	1.014110E+02
111	  0.042044088	-4.161000E+00	  0.042044088	2.595500E+01	  0.042044088	1.142190E+02	  0.042044088	1.004580E+02
112	  0.042244490	-4.207000E+00	  0.042244490	2.392900E+01	  0.042244490	1.224670E+02	  0.042244490	9.863100E+01
113	  0.042444889	-4.255000E+00	  0.042444889	2.192300E+01	  0.042444889	1.308720E+02	  0.042444889	9.585300E+01
114	  0.042645290	-4.297000E+00	  0.042645290	1.991400E+01	  0.042645290	1.394590E+02	  0.042645290	9.220500E+01
115	  0.042845692	-4.342000E+00	  0.042845692	1.790500E+01	  0.042845692	1.479960E+02	  0.042845692	8.733600E+01
116	  0.043046094	-4.384000E+00	  0.043046094	1.591100E+01	  0.043046094	1.562860E+02	  0.043046094	8.138100E+01
117	  0.043246493	-4.428000E+00	  0.043246493	1.388200E+01	  0.043246493	1.642330E+02	  0.043246493	7.402900E+01
118	  0.043446895	-4.470000E+00	  0.043446895	1.189600E+01	  0.043446895	1.713810E+02	  0.043446895	6.570300E+01
119	  0.043647297	-4.508000E+00	  0.043647297	9.887000E+00	  0.043647297	1.777770E+02	  0.043647297	5.624700E+01
120	  0.043847695	-4.552000E+00	  0.043847695	7.904000E+00	  0.043847695	1.827980E+02	  0.043847695	4.584100E+01
121	  0.044048097	-4.592000E+00	  0.044048097	5.921000E+00	  0.044048097	1.865750E+02	  0.044048097	3.476300E+01
122	  0.044248499	-4.632000E+00	  0.044248499	3.963000E+00	  0.044248499	1.888260E+02	  0.044248499	2.335000E+01
123	  0.044448901	-4.671000E+00	  0.044448901	2.005000E+00	  0.044448901	1.896120E+02	  0.044448901	1.176200E+01
124	  0.044649299	-4.710000E+00	  0.044649299	4.400000E-02	  0.044649299	1.888990E+02	  0.044649299	2.580000E-01
125	  0.044849701	-4.750000E+00	  0.044849701	-1.907000E+00	  0.044849701	1.866880E+02	  0.044849701	-1.081300E+01
126	  0.045050103	-4.785000E+00	  0.045050103	-3.852000E+00	  0.045050103	1.833930E+02	  0.045050103	-2.127000E+01
127	  0.045250501	-4.824000E+00	  0.045250501	-5.781000E+00	  0.045250501	1.788990E+02	  0.045250501	-3.083800E+01
128	  0.045450903	-4.863000E+00	  0.045450903	-7.687000E+00	  0.045450903	1.735540E+02	  0.045450903	-3.937500E+01
129	  0.045651305	-4.901000E+00	  0.045651305	-9.623000E+00	  0.045651305	1.674690E+02	  0.045651305	-4.707100E+01
130	  0.045851704	-4.934000E+00	  0.045851704	-1.152500E+01	  0.045851704	1.611380E+02	  0.045851704	-5.373800E+01
131	  0.046052102	-4.970000E+00	  0.046052102	-1.341700E+01	  0.046052102	1.544340E+02	  0.046052102	-5.933000E+01
132	  0.046252504	-5.003000E+00	  0.046252504	-1.529300E+01	  0.046252504	1.477030E+02	  0.046252504	-6.402900E+01
133	  0.046452906	-5.041000E+00	  0.046452906	-1.716400E+01	  0.046452906	1.408800E+02	  0.046452906	-6.776600E+01
134	  0.046653304	-5.074000E+00	  0.046653304	-1.904800E+01	  0.046653304	1.341630E+02	  0.046653304	-7.084800E+01
135	  0.046853706	-5.109000E+00	  0.046853706	-2.090200E+01	  0.046853706	1.276760E+02	  0.046853706	-7.314100E+01
136	  0.047054108	-5.142000E+00	  0.047054108	-2.277400E+01	  0.047054108	1.213710E+02	  0.047054108	-7.491000E+01
137	  0.047254506	-5.177000E+00	  0.047254506	-2.462100E+01	  0.047254506	1.153730E+02	  0.047254506	-7.605500E+01
138	  0.047454908	-5.210000E+00	  0.047454908	-2.645700E+01	  0.047454908	1.096950E+02	  0.047454908	-7.677400E+01
139	  0.047655310	-5.243000E+00	  0.047655310	-2.823700E+01	  0.047655310	1.044600E+02	  0.047655310	-7.709300E+01
140	  0.047855709	-5.279000E+00	  0.047855709	-3.001800E+01	  0.047855709	9.949400E+01	  0.047855709	-7.706500E+01
141	  0.048056111	-5.311000E+00	  0.048056111	-3.179800E+01	  0.048056111	9.481000E+01	  0.048056111	-7.681200E+01
142	  0.048256513	-5.342000E+00	  0.048256513	-3.356900E+01	  0.048256513	9.041900E+01	  0.048256513	-7.637100E+01
143	  0.048456915	-5.370000E+00	  0.048456915	-3.533200E+01	  0.048456915	8.629600E+01	  0.048456915	-7.579000E+01
144	  0.048657313	-5.399000E+00	  0.048657313	-3.710100E+01	  0.048657313	8.240400E+01	  0.048657313	-7.503400E+01
145	  0.048857715	-5.429000E+00	  0.048857715	-3.885900E+01	  0.048857715	7.877000E+01	  0.048857715	-7.414300E+01
146	  0.049058117	-5.453000E+00	  0.049058117	-4.059900E+01	  0.049058117	7.537700E+01	  0.049058117	-7.322100E+01
147	  0.049258515	-5.480000E+00	  0.049258515	-4.233400E+01	  0.049258515	7.220200E+01	  0.049258515	-7.217200E+01
148	  0.049458917	-5.509000E+00	  0.049458917	-4.403600E+01	  0.049458917	6.927800E+01	  0.049458917	-7.106500E+01
149	  0.049659319	-5.534000E+00	  0.049659319	-4.574600E+01	  0.049659319	6.650600E+01	  0.049659319	-6.992500E+01
150	  0.049859721	-5.561000E+00	  0.049859721	-4.743800E+01	  0.049859721	6.392900E+01	  0.049859721	-6.874700E+01
151	  0.050060119	-5.582000E+00	  0.050060119	-4.912700E+01	  0.050060119	6.148800E+01	  0.050060119	-6.758800E+01
152	  0.050260521	-5.606000E+00	  0.050260521	-5.081500E+01	  0.050260521	5.919900E+01	  0.050260521	-6.637800E+01
153	  0.050460923	-5.628000E+00	  0.050460923	-5.249200E+01	  0.050460923	5.704900E+01	  0.050460923	-6.517400E+01
154	  0.050661322	-5.646000E+00	  0.050661322	-5.415300E+01	  0.050661322	5.502100E+01	  0.050661322	-6.400500E+01
155	  0.050861724	-5.663000E+00	  0.050861724	-5.579800E+01	  0.050861724	5.312500E+01	  0.050861724	-6.283200E+01
156	  0.051062126	-5.687000E+00	  0.051062126	-5.744100E+01	  0.051062126	5.136100E+01	  0.051062126	-6.161000E+01
157	  0.051262524	-5.705000E+00	  0.051262524	-5.905900E+01	  0.051262524	4.969600E+01	  0.051262524	-6.044400E+01
158	  0.051462926	-5.726000E+00	  0.051462926	-6.066300E+01	  0.051462926	4.814300E+01	  0.051462926	-5.927500E+01
159	  0.051663328	-5.741000E+00	  0.051663328	-6.226700E+01	  0.051663328	4.665200E+01	  0.051663328	-5.813800E+01
160	  0.051863730	-5.761000E+00	  0.051863730	-6.386700E+01	  0.051863730	4.525700E+01	  0.051863730	-5.698700E+01
161	  0.052064128	-5.770000E+00	  0.052064128	-6.544900E+01	  0.052064128	4.390600E+01	  0.052064128	-5.591200E+01
162	  0.052264530	-5.784000E+00	  0.052264530	-6.703100E+01	  0.052264530	4.264300E+01	  0.052264530	-5.481500E+01
163	  0.052464932	-5.796000E+00	  0.052464932	-6.857600E+01	  0.052464932	4.146500E+01	  0.052464932	-5.375700E+01
164	  0.052665330	-5.811000E+00	  0.052665330	-7.011100E+01	  0.052665330	4.036200E+01	  0.052665330	-5.270100E+01
165	  0.052865732	-5.824000E+00	  0.052865732	-7.162300E+01	  0.052865732	3.931800E+01	  0.052865732	-5.168100E+01
166	  0.053066134	-5.841000E+00	  0.053066134	-7.315100E+01	  0.053066134	3.832800E+01	  0.053066134	-5.064000E+01
167	  0.053266536	-5.855000E+00	  0.053266536	-7.465000E+01	  0.053266536	3.739100E+01	  0.053266536	-4.964400E+01
168	  0.053466935	-5.869000E+00	  0.053466935	-7.614900E+01	  0.053466935	3.649900E+01	  0.053466935	-4.865700E+01
169	  0.053667337	-5.880000E+00	  0.053667337	-7.765000E+01	  0.053667337	3.563300E+01	  0.053667337	-4.769000E+01
170	  0.053867739	-5.888000E+00	  0.053867739	-7.913300E+01	  0.053867739	3.480500E+01	  0.053867739	-4.675600E+01
171	  0.054068137	-5.902000E+00	  0.054068137	-8.060900E+01	  0.054068137	3.404000E+01	  0.054068137	-4.581400E+01
172	  0.054268539	-5.908000E+00	  0.054268539	-8.205600E+01	  0.054268539	3.329400E+01	  0.054268539	-4.492500E+01
173	  0.054468941	-5.922000E+00	  0.054468941	-8.350400E+01	  0.054468941	3.260700E+01	  0.054468941	-4.402200E+01
174	  0.054669335	-5.936000E+00	  0.054669335	-8.492600E+01	  0.054669335	3.196400E+01	  0.054669335	-4.314200E+01
175	  0.054869737	-5.948000E+00	  0.054869737	-8.635200E+01	  0.054869737	3.133400E+01	  0.054869737	-4.228100E+01
176	  0.055070139	-5.959000E+00	  0.055070139	-8.777200E+01	  0.055070139	3.073500E+01	  0.055070139	-4.143000E+01
177	  0.055270538	-5.970000E+00	  0.055270538	-8.916600E+01	  0.055270538	3.016500E+01	  0.055270538	-4.060900E+01
178	  0.055470940	-5.978000E+00	  0.055470940	-9.057500E+01	  0.055470940	2.960600E+01	  0.055470940	-3.979200E+01
179	  0.055671342	-5.985000E+00	  0.055671342	-9.198500E+01	  0.055671342	2.906400E+01	  0.055671342	-3.898800E+01
180	  0.055871744	-5.992000E+00	  0.055871744	-9.338100E+01	  0.055871744	2.854700E+01	  0.055871744	-3.820000E+01
181	  0.056072142	-6.001000E+00	  0.056072142	-9.478400E+01	  0.056072142	2.805500E+01	  0.056072142	-3.741300E+01
182	  0.056272544	-6.009000E+00	  0.056272544	-9.614300E+01	  0.056272544	2.759400E+01	  0.056272544	-3.666000E+01
183	  0.056472946	-6.018000E+00	  0.056472946	-9.750800E+01	  0.056472946	2.715300E+01	  0.056472946	-3.590800E+01
184	  0.056673344	-6.025000E+00	  0.056673344	-9.885900E+01	  0.056673344	2.672500E+01	  0.056673344	-3.517700E+01
185	  0.056873746	-6.031000E+00	  0.056873746	-1.001990E+02	  0.056873746	2.631500E+01	  0.056873746	-3.446000E+01
186	  0.057074148	-6.036000E+00	  0.057074148	-1.015760E+02	  0.057074148	2.590500E+01	  0.057074148	-3.373200E+01
187	  0.057274550	-6.039000E+00	  0.057274550	-1.029100E+02	  0.057274550	2.551500E+01	  0.057274550	-3.303900E+01
188	  0.057474948	-6.050000E+00	  0.057474948	-1.042540E+02	  0.057474948	2.516100E+01	  0.057474948	-3.233300E+01
189	  0.057675350	-6.051000E+00	  0.057675350	-1.055740E+02	  0.057675350	2.479900E+01	  0.057675350	-3.166200E+01
190	  0.057875752	-6.055000E+00	  0.057875752	-1.068960E+02	  0.057875752	2.445400E+01	  0.057875752	-3.099200E+01
191	  0.058076151	-6.059000E+00	  0.058076151	-1.082050E+02	  0.058076151	2.412700E+01	  0.058076151	-3.033400E+01
192	  0.058276553	-6.063000E+00	  0.058276553	-1.094990E+02	  0.058276553	2.381500E+01	  0.058276553	-2.968900E+01
193	  0.058476955	-6.068000E+00	  0.058476955	-1.107860E+02	  0.058476955	2.352100E+01	  0.058476955	-2.905100E+01
194	  0.058677353	-6.069000E+00	  0.058677353	-1.120880E+02	  0.058677353	2.321700E+01	  0.058677353	-2.841800E+01
195	  0.058877755	-6.072000E+00	  0.058877755	-1.133600E+02	  0.058877755	2.293900E+01	  0.058877755	-2.780100E+01
196	  0.059078157	-6.067000E+00	  0.059078157	-1.146300E+02	  0.059078157	2.264600E+01	  0.059078157	-2.720200E+01
197	  0.059278559	-6.076000E+00	  0.059278559	-1.158530E+02	  0.059278559	2.241400E+01	  0.059278559	-2.661000E+01
198	  0.059478957	-6.077000E+00	  0.059478957	-1.171120E+02	  0.059478957	2.216100E+01	  0.059478957	-2.601500E+01
199	  0.059679359	-6.079000E+00	  0.059679359	-1.183570E+02	  0.059679359	2.192100E+01	  0.059679359	-2.543200E+01
200	  0.059879761	-6.082000E+00	  0.059879761	-1.195820E+02	  0.059879761	2.169600E+01	  0.059879761	-2.485900E+01
201	  0.060080159	-6.080000E+00	  0.060080159	-1.208050E+02	  0.060080159	2.146300E+01	  0.060080159	-2.429900E+01
202	  0.060280561	-6.083000E+00	  0.060280561	-1.220150E+02	  0.060280561	2.125600E+01	  0.060280561	-2.374200E+01
203	  0.060480963	-6.086000E+00	  0.060480963	-1.232460E+02	  0.060480963	2.105000E+01	  0.060480963	-2.318000E+01
204	  0.060681365	-6.083000E+00	  0.060681365	-1.244510E+02	  0.060681365	2.084000E+01	  0.060681365	-2.263900E+01
205	  0.060881764	-6.081000E+00	  0.060881764	-1.256830E+02	  0.060881764	2.063400E+01	  0.060881764	-2.208800E+01
206	  0.061082166	-6.081000E+00	  0.061082166	-1.268680E+02	  0.061082166	2.044800E+01	  0.061082166	-2.156000E+01
207	  0.061282568	-6.082000E+00	  0.061282568	-1.280750E+02	  0.061282568	2.026900E+01	  0.061282568	-2.102400E+01
208	  0.061482966	-6.083000E+00	  0.061482966	-1.292410E+02	  0.061482966	2.010000E+01	  0.061482966	-2.051000E+01
209	  0.061683368	-6.086000E+00	  0.061683368	-1.304590E+02	  0.061683368	1.993700E+01	  0.061683368	-1.997400E+01
210	  0.061883770	-6.086000E+00	  0.061883770	-1.316250E+02	  0.061883770	1.977900E+01	  0.061883770	-1.946600E+01
211	  0.062084168	-6.087000E+00	  0.062084168	-1.327800E+02	  0.062084168	1.962900E+01	  0.062084168	-1.896500E+01
212	  0.062284570	-6.084000E+00	  0.062284570	-1.339440E+02	  0.062284570	1.947200E+01	  0.062284570	-1.846600E+01
213	  0.062484972	-6.080000E+00	  0.062484972	-1.350750E+02	  0.062484972	1.932000E+01	  0.062484972	-1.798500E+01
214	  0.062685370	-6.076000E+00	  0.062685370	-1.362390E+02	  0.062685370	1.917100E+01	  0.062685370	-1.749100E+01
215	  0.062885776	-6.078000E+00	  0.062885776	-1.373860E+02	  0.062885776	1.904500E+01	  0.062885776	-1.700200E+01
216	  0.063086174	-6.079000E+00	  0.063086174	-1.385270E+02	  0.063086174	1.892000E+01	  0.063086174	-1.652000E+01
217	  0.063286573	-6.080000E+00	  0.063286573	-1.396730E+02	  0.063286573	1.880000E+01	  0.063286573	-1.603700E+01
218	  0.063486971	-6.074000E+00	  0.063486971	-1.408160E+02	  0.063486971	1.866600E+01	  0.063486971	-1.556300E+01
219	  0.063687377	-6.073000E+00	  0.063687377	-1.418880E+02	  0.063687377	1.855500E+01	  0.063687377	-1.511700E+01
220	  0.063887775	-6.075000E+00	  0.063887775	-1.430310E+02	  0.063887775	1.845300E+01	  0.063887775	-1.464000E+01
221	  0.064088173	-6.072000E+00	  0.064088173	-1.441680E+02	  0.064088173	1.833900E+01	  0.064088173	-1.417200E+01
222	  0.064288579	-6.072000E+00	  0.064288579	-1.453060E+02	  0.064288579	1.823800E+01	  0.064288579	-1.370300E+01
223	  0.064488977	-6.072000E+00	  0.064488977	-1.464230E+02	  0.064488977	1.814200E+01	  0.064488977	-1.324500E+01
224	  0.064689375	-6.075000E+00	  0.064689375	-1.475250E+02	  0.064689375	1.806000E+01	  0.064689375	-1.279300E+01
225	  0.064889781	-6.071000E+00	  0.064889781	-1.486410E+02	  0.064889781	1.796100E+01	  0.064889781	-1.234100E+01
226	  0.065090179	-6.074000E+00	  0.065090179	-1.497320E+02	  0.065090179	1.788500E+01	  0.065090179	-1.189700E+01
227	  0.065290578	-6.072000E+00	  0.065290578	-1.508170E+02	  0.065290578	1.780000E+01	  0.065290578	-1.145900E+01
228	  0.065490983	-6.068000E+00	  0.065490983	-1.519230E+02	  0.065490983	1.771300E+01	  0.065490983	-1.101400E+01
229	  0.065691382	-6.070000E+00	  0.065691382	-1.530200E+02	  0.065691382	1.764600E+01	  0.065691382	-1.057200E+01
230	  0.065891780	-6.067000E+00	  0.065891780	-1.541370E+02	  0.065891780	1.756600E+01	  0.065891780	-1.012600E+01
231	  0.066092186	-6.064000E+00	  0.066092186	-1.552040E+02	  0.066092186	1.749500E+01	  0.066092186	-9.700000E+00
232	  0.066292584	-6.059000E+00	  0.066292584	-1.562690E+02	  0.066292584	1.741900E+01	  0.066292584	-9.277000E+00
233	  0.066492982	-6.063000E+00	  0.066492982	-1.573430E+02	  0.066492982	1.737000E+01	  0.066492982	-8.849000E+00
234	  0.066693388	-6.059000E+00	  0.066693388	-1.584240E+02	  0.066693388	1.730200E+01	  0.066693388	-8.421000E+00
235	  0.066893786	-6.056000E+00	  0.066893786	-1.594630E+02	  0.066893786	1.724600E+01	  0.066893786	-8.010000E+00
236	  0.067094192	-6.058000E+00	  0.067094192	-1.605380E+02	  0.067094192	1.720000E+01	  0.067094192	-7.585000E+00
237	  0.067294590	-6.062000E+00	  0.067294590	-1.616090E+02	  0.067294590	1.716200E+01	  0.067294590	-7.162000E+00
238	  0.067494988	-6.056000E+00	  0.067494988	-1.626420E+02	  0.067494988	1.710500E+01	  0.067494988	-6.756000E+00
239	  0.067695394	-6.058000E+00	  0.067695394	-1.636950E+02	  0.067695394	1.706800E+01	  0.067695394	-6.342000E+00
240	  0.067895792	-6.057000E+00	  0.067895792	-1.647680E+02	  0.067895792	1.702700E+01	  0.067895792	-5.922000E+00
241	  0.068096191	-6.059000E+00	  0.068096191	-1.658200E+02	  0.068096191	1.699500E+01	  0.068096191	-5.510000E+00
242	  0.068296596	-6.053000E+00	  0.068296596	-1.668580E+02	  0.068296596	1.694800E+01	  0.068296596	-5.105000E+00
243	  0.068496995	-6.059000E+00	  0.068496995	-1.678850E+02	  0.068496995	1.693200E+01	  0.068496995	-4.703000E+00
244	  0.068697393	-6.052000E+00	  0.068697393	-1.689220E+02	  0.068697393	1.688900E+01	  0.068697393	-4.300000E+00
245	  0.068897791	-6.051000E+00	  0.068897791	-1.699530E+02	  0.068897791	1.686100E+01	  0.068897791	-3.898000E+00
246	  0.069098189	-6.051000E+00	  0.069098189	-1.709790E+02	  0.069098189	1.683900E+01	  0.069098189	-3.499000E+00
247	  0.069298595	-6.050000E+00	  0.069298595	-1.719940E+02	  0.069298595	1.681500E+01	  0.069298595	-3.104000E+00
248	  0.069498993	-6.053000E+00	  0.069498993	-1.730570E+02	  0.069498993	1.680600E+01	  0.069498993	-2.691000E+00
249	  0.069699399	-6.053000E+00	  0.069699399	-1.740750E+02	  0.069699399	1.678900E+01	  0.069699399	-2.296000E+00
250	  0.069899797	-6.050000E+00	  0.069899797	-1.750890E+02	  0.069899797	1.677100E+01	  0.069899797	-1.903000E+00
251	  0.070100196	-6.054000E+00	  0.070100196	-1.760710E+02	  0.070100196	1.676900E+01	  0.070100196	-1.522000E+00
252	  0.070300601	-6.055000E+00	  0.070300601	-1.770930E+02	  0.070300601	1.676500E+01	  0.070300601	-1.125000E+00
253	  0.070501000	-6.056000E+00	  0.070501000	-1.780990E+02	  0.070501000	1.676200E+01	  0.070501000	-7.350000E-01
254	  0.070701398	-6.055000E+00	  0.070701398	-1.790980E+02	  0.070701398	1.675500E+01	  0.070701398	-3.490000E-01
255	  0.070901804	-6.056000E+00	  0.070901804	1.799080E+02	  0.070901804	1.675700E+01	  0.070901804	3.500000E-02
256	  0.071102202	-6.059000E+00	  0.071102202	1.789010E+02	  0.071102202	1.676700E+01	  0.071102202	4.250000E-01
257	  0.071302600	-6.062000E+00	  0.071302600	1.778960E+02	  0.071302600	1.677700E+01	  0.071302600	8.140000E-01
258	  0.071503006	-6.065000E+00	  0.071503006	1.769280E+02	  0.071503006	1.679100E+01	  0.071503006	1.189000E+00
259	  0.071703404	-6.068000E+00	  0.071703404	1.759310E+02	  0.071703404	1.680700E+01	  0.071703404	1.575000E+00
260	  0.071903802	-6.071000E+00	  0.071903802	1.749420E+02	  0.071903802	1.682600E+01	  0.071903802	1.958000E+00
261	  0.072104208	-6.072000E+00	  0.072104208	1.739640E+02	  0.072104208	1.684000E+01	  0.072104208	2.337000E+00
262	  0.072304606	-6.079000E+00	  0.072304606	1.729890E+02	  0.072304606	1.687300E+01	  0.072304606	2.715000E+00
263	  0.072505005	-6.083000E+00	  0.072505005	1.720080E+02	  0.072505005	1.690100E+01	  0.072505005	3.095000E+00
264	  0.072705410	-6.085000E+00	  0.072705410	1.710180E+02	  0.072705410	1.692400E+01	  0.072705410	3.479000E+00
265	  0.072905809	-6.090000E+00	  0.072905809	1.700580E+02	  0.072905809	1.695900E+01	  0.072905809	3.851000E+00
266	  0.073106214	-6.099000E+00	  0.073106214	1.690790E+02	  0.073106214	1.700500E+01	  0.073106214	4.230000E+00
267	  0.073306613	-6.102000E+00	  0.073306613	1.680960E+02	  0.073306613	1.703700E+01	  0.073306613	4.613000E+00
268	  0.073507011	-6.111000E+00	  0.073507011	1.671220E+02	  0.073507011	1.708900E+01	  0.073507011	4.990000E+00
269	  0.073707417	-6.117000E+00	  0.073707417	1.661610E+02	  0.073707417	1.713400E+01	  0.073707417	5.364000E+00
270	  0.073907815	-6.123000E+00	  0.073907815	1.652070E+02	  0.073907815	1.718100E+01	  0.073907815	5.735000E+00
271	  0.074108213	-6.131000E+00	  0.074108213	1.642680E+02	  0.074108213	1.723400E+01	  0.074108213	6.100000E+00
272	  0.074308619	-6.139000E+00	  0.074308619	1.633080E+02	  0.074308619	1.729100E+01	  0.074308619	6.474000E+00
273	  0.074509017	-6.147000E+00	  0.074509017	1.623310E+02	  0.074509017	1.735300E+01	  0.074509017	6.854000E+00
274	  0.074709415	-6.153000E+00	  0.074709415	1.614050E+02	  0.074709415	1.740700E+01	  0.074709415	7.216000E+00
275	  0.074909821	-6.161000E+00	  0.074909821	1.604320E+02	  0.074909821	1.747100E+01	  0.074909821	7.596000E+00
276	  0.075110219	-6.172000E+00	  0.075110219	1.594840E+02	  0.075110219	1.754500E+01	  0.075110219	7.965000E+00
277	  0.075310618	-6.178000E+00	  0.075310618	1.585440E+02	  0.075310618	1.760900E+01	  0.075310618	8.333000E+00
278	  0.075511023	-6.190000E+00	  0.075511023	1.576100E+02	  0.075511023	1.768900E+01	  0.075511023	8.698000E+00
279	  0.075711422	-6.195000E+00	  0.075711422	1.567090E+02	  0.075711422	1.775100E+01	  0.075711422	9.052000E+00
280	  0.075911827	-6.209000E+00	  0.075911827	1.557540E+02	  0.075911827	1.784100E+01	  0.075911827	9.425000E+00
281	  0.076112226	-6.213000E+00	  0.076112226	1.548150E+02	  0.076112226	1.791000E+01	  0.076112226	9.796000E+00
282	  0.076312624	-6.229000E+00	  0.076312624	1.539000E+02	  0.076312624	1.800800E+01	  0.076312624	1.015300E+01
283	  0.076513030	-6.241000E+00	  0.076513030	1.530110E+02	  0.076513030	1.809900E+01	  0.076513030	1.050200E+01
284	  0.076713428	-6.250000E+00	  0.076713428	1.520440E+02	  0.076713428	1.818600E+01	  0.076713428	1.088300E+01
285	  0.076913826	-6.263000E+00	  0.076913826	1.511470E+02	  0.076913826	1.828300E+01	  0.076913826	1.123600E+01
286	  0.077114232	-6.276000E+00	  0.077114232	1.502440E+02	  0.077114232	1.838400E+01	  0.077114232	1.159100E+01
287	  0.077314630	-6.287000E+00	  0.077314630	1.493770E+02	  0.077314630	1.847900E+01	  0.077314630	1.193300E+01
288	  0.077515028	-6.300000E+00	  0.077515028	1.484560E+02	  0.077515028	1.858700E+01	  0.077515028	1.229700E+01
289	  0.077715434	-6.316000E+00	  0.077715434	1.475830E+02	  0.077715434	1.869800E+01	  0.077715434	1.264000E+01
290	  0.077915832	-6.327000E+00	  0.077915832	1.466920E+02	  0.077915832	1.880400E+01	  0.077915832	1.299300E+01
291	  0.078116231	-6.342000E+00	  0.078116231	1.458050E+02	  0.078116231	1.892100E+01	  0.078116231	1.334400E+01
292	  0.078316636	-6.355000E+00	  0.078316636	1.449340E+02	  0.078316636	1.903200E+01	  0.078316636	1.368900E+01
293	  0.078517035	-6.368000E+00	  0.078517035	1.440390E+02	  0.078517035	1.914900E+01	  0.078517035	1.404500E+01
294	  0.078717433	-6.387000E+00	  0.078717433	1.431690E+02	  0.078717433	1.928400E+01	  0.078717433	1.438700E+01
295	  0.078917839	-6.400000E+00	  0.078917839	1.423090E+02	  0.078917839	1.940400E+01	  0.078917839	1.473000E+01
296	  0.079118237	-6.415000E+00	  0.079118237	1.414450E+02	  0.079118237	1.953300E+01	  0.079118237	1.507300E+01
297	  0.079318643	-6.433000E+00	  0.079318643	1.405990E+02	  0.079318643	1.966800E+01	  0.079318643	1.540700E+01
298	  0.079519041	-6.450000E+00	  0.079519041	1.397530E+02	  0.079519041	1.980700E+01	  0.079519041	1.574200E+01
299	  0.079719439	-6.469000E+00	  0.079719439	1.388990E+02	  0.079719439	1.995000E+01	  0.079719439	1.608100E+01
300	  0.079919845	-6.486000E+00	  0.079919845	1.380310E+02	  0.079919845	2.009600E+01	  0.079919845	1.642600E+01
301	  0.080120243	-6.502000E+00	  0.080120243	1.371810E+02	  0.080120243	2.023900E+01	  0.080120243	1.676400E+01
302	  0.080320641	-6.519000E+00	  0.080320641	1.363320E+02	  0.080320641	2.038900E+01	  0.080320641	1.710300E+01
303	  0.080521047	-6.541000E+00	  0.080521047	1.354990E+02	  0.080521047	2.055100E+01	  0.080521047	1.743100E+01
304	  0.080721445	-6.562000E+00	  0.080721445	1.346620E+02	  0.080721445	2.071300E+01	  0.080721445	1.776200E+01
305	  0.080921844	-6.578000E+00	  0.080921844	1.338500E+02	  0.080921844	2.086300E+01	  0.080921844	1.808700E+01
306	  0.081122249	-6.596000E+00	  0.081122249	1.330470E+02	  0.081122249	2.102000E+01	  0.081122249	1.840700E+01
307	  0.081322648	-6.619000E+00	  0.081322648	1.322150E+02	  0.081322648	2.119700E+01	  0.081322648	1.873400E+01
308	  0.081523046	-6.636000E+00	  0.081523046	1.313840E+02	  0.081523046	2.136200E+01	  0.081523046	1.906700E+01
309	  0.081723452	-6.654000E+00	  0.081723452	1.305400E+02	  0.081723452	2.153200E+01	  0.081723452	1.940500E+01
310	  0.081923850	-6.672000E+00	  0.081923850	1.297440E+02	  0.081923850	2.170200E+01	  0.081923850	1.972200E+01
311	  0.082124248	-6.692000E+00	  0.082124248	1.289370E+02	  0.082124248	2.188000E+01	  0.082124248	2.004300E+01
312	  0.082324654	-6.711000E+00	  0.082324654	1.281350E+02	  0.082324654	2.205700E+01	  0.082324654	2.036300E+01
313	  0.082525052	-6.730000E+00	  0.082525052	1.273690E+02	  0.082525052	2.223200E+01	  0.082525052	2.066900E+01
314	  0.082725458	-6.750000E+00	  0.082725458	1.265450E+02	  0.082725458	2.242000E+01	  0.082725458	2.099800E+01
315	  0.082925856	-6.774000E+00	  0.082925856	1.257820E+02	  0.082925856	2.261500E+01	  0.082925856	2.129600E+01
316	  0.083126254	-6.793000E+00	  0.083126254	1.249800E+02	  0.083126254	2.280600E+01	  0.083126254	2.161700E+01
317	  0.083326660	-6.813000E+00	  0.083326660	1.241930E+02	  0.083326660	2.299700E+01	  0.083326660	2.193100E+01
318	  0.083527058	-6.838000E+00	  0.083527058	1.234040E+02	  0.083527058	2.321000E+01	  0.083527058	2.223900E+01
319	  0.083727457	-6.856000E+00	  0.083727457	1.226400E+02	  0.083727457	2.339900E+01	  0.083727457	2.254500E+01
320	  0.083927862	-6.880000E+00	  0.083927862	1.218410E+02	  0.083927862	2.361600E+01	  0.083927862	2.286000E+01
321	  0.084128261	-6.900000E+00	  0.084128261	1.211240E+02	  0.084128261	2.381000E+01	  0.084128261	2.314300E+01
322	  0.084328659	-6.926000E+00	  0.084328659	1.203370E+02	  0.084328659	2.403600E+01	  0.084328659	2.344900E+01
323	  0.084529065	-6.947000E+00	  0.084529065	1.195940E+02	  0.084529065	2.424400E+01	  0.084529065	2.374300E+01
324	  0.084729463	-6.969000E+00	  0.084729463	1.188120E+02	  0.084729463	2.446600E+01	  0.084729463	2.405000E+01
325	  0.084929854	-6.995000E+00	  0.084929854	1.180490E+02	  0.084929854	2.469900E+01	  0.084929854	2.434600E+01
326	  0.085130259	-7.016000E+00	  0.085130259	1.172520E+02	  0.085130259	2.492700E+01	  0.085130259	2.466200E+01
327	  0.085330658	-7.037000E+00	  0.085330658	1.165390E+02	  0.085330658	2.514400E+01	  0.085330658	2.494100E+01
328	  0.085531056	-7.063000E+00	  0.085531056	1.157590E+02	  0.085531056	2.538900E+01	  0.085531056	2.524300E+01
329	  0.085731462	-7.088000E+00	  0.085731462	1.150170E+02	  0.085731462	2.562900E+01	  0.085731462	2.552900E+01
330	  0.085931860	-7.111000E+00	  0.085931860	1.142940E+02	  0.085931860	2.586200E+01	  0.085931860	2.580900E+01
331	  0.086132258	-7.136000E+00	  0.086132258	1.135360E+02	  0.086132258	2.611200E+01	  0.086132258	2.610000E+01
332	  0.086332664	-7.164000E+00	  0.086332664	1.128080E+02	  0.086332664	2.636900E+01	  0.086332664	2.637300E+01
333	  0.086533062	-7.190000E+00	  0.086533062	1.120510E+02	  0.086533062	2.662900E+01	  0.086533062	2.666100E+01
334	  0.086733460	-7.212000E+00	  0.086733460	1.113310E+02	  0.086733460	2.687100E+01	  0.086733460	2.694100E+01
335	  0.086933866	-7.241000E+00	  0.086933866	1.105830E+02	  0.086933866	2.714600E+01	  0.086933866	2.721900E+01
336	  0.087134264	-7.268000E+00	  0.087134264	1.098470E+02	  0.087134264	2.741700E+01	  0.087134264	2.749300E+01
337	  0.087334670	-7.295000E+00	  0.087334670	1.091010E+02	  0.087334670	2.769300E+01	  0.087334670	2.777200E+01
338	  0.087535068	-7.321000E+00	  0.087535068	1.083830E+02	  0.087535068	2.796100E+01	  0.087535068	2.804000E+01
339	  0.087735467	-7.356000E+00	  0.087735467	1.076800E+02	  0.087735467	2.825600E+01	  0.087735467	2.828300E+01
340	  0.087935872	-7.387000E+00	  0.087935872	1.069480E+02	  0.087935872	2.855300E+01	  0.087935872	2.854400E+01
341	  0.088136271	-7.416000E+00	  0.088136271	1.062380E+02	  0.088136271	2.884000E+01	  0.088136271	2.879900E+01
342	  0.088336669	-7.447000E+00	  0.088336669	1.055370E+02	  0.088336669	2.913500E+01	  0.088336669	2.904400E+01
343	  0.088537075	-7.475000E+00	  0.088537075	1.048340E+02	  0.088537075	2.942500E+01	  0.088537075	2.929500E+01
344	  0.088737473	-7.511000E+00	  0.088737473	1.041750E+02	  0.088737473	2.972700E+01	  0.088737473	2.951000E+01
345	  0.088937871	-7.540000E+00	  0.088937871	1.034770E+02	  0.088937871	3.002500E+01	  0.088937871	2.975500E+01
346	  0.089138277	-7.567000E+00	  0.089138277	1.028240E+02	  0.089138277	3.031000E+01	  0.089138277	2.998000E+01
347	  0.089338675	-7.607000E+00	  0.089338675	1.022020E+02	  0.089338675	3.062100E+01	  0.089338675	3.016500E+01
348	  0.089539073	-7.639000E+00	  0.089539073	1.015420E+02	  0.089539073	3.092700E+01	  0.089539073	3.038100E+01
349	  0.089739479	-7.672000E+00	  0.089739479	1.009200E+02	  0.089739479	3.122500E+01	  0.089739479	3.057700E+01
350	  0.089939877	-7.699000E+00	  0.089939877	1.003130E+02	  0.089939877	3.150600E+01	  0.089939877	3.077700E+01
351	  0.090140276	-7.734000E+00	  0.090140276	9.972300E+01	  0.090140276	3.180500E+01	  0.090140276	3.095100E+01
352	  0.090340681	-7.765000E+00	  0.090340681	9.910300E+01	  0.090340681	3.210900E+01	  0.090340681	3.114400E+01
353	  0.090541080	-7.791000E+00	  0.090541080	9.850600E+01	  0.090541080	3.239200E+01	  0.090541080	3.133700E+01
354	  0.090741485	-7.826000E+00	  0.090741485	9.793800E+01	  0.090741485	3.269300E+01	  0.090741485	3.149500E+01
355	  0.090941884	-7.851000E+00	  0.090941884	9.733300E+01	  0.090941884	3.298000E+01	  0.090941884	3.169200E+01
356	  0.091142282	-7.889000E+00	  0.091142282	9.679100E+01	  0.091142282	3.328600E+01	  0.091142282	3.182700E+01
357	  0.091342688	-7.914000E+00	  0.091342688	9.620300E+01	  0.091342688	3.357300E+01	  0.091342688	3.201200E+01
358	  0.091543086	-7.945000E+00	  0.091543086	9.563200E+01	  0.091543086	3.387500E+01	  0.091543086	3.217300E+01
359	  0.091743484	-7.972000E+00	  0.091743484	9.504300E+01	  0.091743484	3.417500E+01	  0.091743484	3.235000E+01
360	  0.091943890	-7.997000E+00	  0.091943890	9.447400E+01	  0.091943890	3.446200E+01	  0.091943890	3.252300E+01
361	  0.092144288	-8.023000E+00	  0.092144288	9.388300E+01	  0.092144288	3.476800E+01	  0.092144288	3.269700E+01
362	  0.092344686	-8.045000E+00	  0.092344686	9.331300E+01	  0.092344686	3.505600E+01	  0.092344686	3.287400E+01
363	  0.092545092	-8.076000E+00	  0.092545092	9.278100E+01	  0.092545092	3.535500E+01	  0.092545092	3.300900E+01
364	  0.092745490	-8.099000E+00	  0.092745490	9.220200E+01	  0.092745490	3.565400E+01	  0.092745490	3.318300E+01
365	  0.092945889	-8.131000E+00	  0.092945889	9.161300E+01	  0.092945889	3.598400E+01	  0.092945889	3.333400E+01
366	  0.093146294	-8.149000E+00	  0.093146294	9.107500E+01	  0.093146294	3.625800E+01	  0.093146294	3.350200E+01
367	  0.093346693	-8.180000E+00	  0.093346693	9.049300E+01	  0.093346693	3.659000E+01	  0.093346693	3.364700E+01
368	  0.093547091	-8.205000E+00	  0.093547091	8.990100E+01	  0.093547091	3.691100E+01	  0.093547091	3.381300E+01
369	  0.093747497	-8.230000E+00	  0.093747497	8.932100E+01	  0.093747497	3.723100E+01	  0.093747497	3.397100E+01
370	  0.093947895	-8.253000E+00	  0.093947895	8.872200E+01	  0.093947895	3.755600E+01	  0.093947895	3.414200E+01
371	  0.094148301	-8.281000E+00	  0.094148301	8.819100E+01	  0.094148301	3.786700E+01	  0.094148301	3.426700E+01
372	  0.094348699	-8.308000E+00	  0.094348699	8.762400E+01	  0.094348699	3.819700E+01	  0.094348699	3.440400E+01
373	  0.094549097	-8.342000E+00	  0.094549097	8.705500E+01	  0.094549097	3.854500E+01	  0.094549097	3.452200E+01
374	  0.094749503	-8.367000E+00	  0.094749503	8.648500E+01	  0.094749503	3.887600E+01	  0.094749503	3.466200E+01
375	  0.094949901	-8.394000E+00	  0.094949901	8.594900E+01	  0.094949901	3.919600E+01	  0.094949901	3.478400E+01
376	  0.095150299	-8.423000E+00	  0.095150299	8.538600E+01	  0.095150299	3.953900E+01	  0.095150299	3.490400E+01
377	  0.095350705	-8.451000E+00	  0.095350705	8.484000E+01	  0.095350705	3.987200E+01	  0.095350705	3.501900E+01
378	  0.095551103	-8.480000E+00	  0.095551103	8.428500E+01	  0.095551103	4.021600E+01	  0.095551103	3.513000E+01
379	  0.095751502	-8.512000E+00	  0.095751502	8.378000E+01	  0.095751502	4.054300E+01	  0.095751502	3.521200E+01
380	  0.095951907	-8.543000E+00	  0.095951907	8.326500E+01	  0.095951907	4.087700E+01	  0.095951907	3.529500E+01
381	  0.096152306	-8.570000E+00	  0.096152306	8.277900E+01	  0.096152306	4.118500E+01	  0.096152306	3.538300E+01
382	  0.096352704	-8.599000E+00	  0.096352704	8.227600E+01	  0.096352704	4.151300E+01	  0.096352704	3.546300E+01
383	  0.096553110	-8.630000E+00	  0.096553110	8.178700E+01	  0.096553110	4.183500E+01	  0.096553110	3.553200E+01
384	  0.096753508	-8.654000E+00	  0.096753508	8.129600E+01	  0.096753508	4.214800E+01	  0.096753508	3.562000E+01
385	  0.096953906	-8.685000E+00	  0.096953906	8.083700E+01	  0.096953906	4.246000E+01	  0.096953906	3.567100E+01
386	  0.097154312	-8.714000E+00	  0.097154312	8.039300E+01	  0.097154312	4.276200E+01	  0.097154312	3.572000E+01
387	  0.097354710	-8.739000E+00	  0.097354710	7.993300E+01	  0.097354710	4.306400E+01	  0.097354710	3.578700E+01
388	  0.097555116	-8.771000E+00	  0.097555116	7.948600E+01	  0.097555116	4.337500E+01	  0.097555116	3.582300E+01
389	  0.097755514	-8.796000E+00	  0.097755514	7.906400E+01	  0.097755514	4.366000E+01	  0.097755514	3.587300E+01
390	  0.097955912	-8.824000E+00	  0.097955912	7.864000E+01	  0.097955912	4.395300E+01	  0.097955912	3.590900E+01
391	  0.098156318	-8.851000E+00	  0.098156318	7.820500E+01	  0.098156318	4.425200E+01	  0.098156318	3.595100E+01
392	  0.098356716	-8.874000E+00	  0.098356716	7.781700E+01	  0.098356716	4.451500E+01	  0.098356716	3.599100E+01
393	  0.098557115	-8.899000E+00	  0.098557115	7.744300E+01	  0.098557115	4.477700E+01	  0.098557115	3.601500E+01
394	  0.098757520	-8.925000E+00	  0.098757520	7.700200E+01	  0.098757520	4.508000E+01	  0.098757520	3.605500E+01
395	  0.098957919	-8.945000E+00	  0.098957919	7.662100E+01	  0.098957919	4.533700E+01	  0.098957919	3.609700E+01
396	  0.099158317	-8.966000E+00	  0.099158317	7.619900E+01	  0.099158317	4.562100E+01	  0.099158317	3.614700E+01
397	  0.099358723	-8.983000E+00	  0.099358723	7.584200E+01	  0.099358723	4.586000E+01	  0.099358723	3.618900E+01
398	  0.099559121	-9.002000E+00	  0.099559121	7.544800E+01	  0.099559121	4.612700E+01	  0.099559121	3.623200E+01
399	  0.099759519	-9.021000E+00	  0.099759519	7.509400E+01	  0.099759519	4.636900E+01	  0.099759519	3.626400E+01
400	  0.099959925	-9.036000E+00	  0.099959925	7.471800E+01	  0.099959925	4.662000E+01	  0.099959925	3.631300E+01
401	  0.100160323	-9.051000E+00	  0.100160323	7.434300E+01	  0.100160323	4.687000E+01	  0.100160323	3.636200E+01
402	  0.100360721	-9.064000E+00	  0.100360721	7.396400E+01	  0.100360721	4.712100E+01	  0.100360721	3.641800E+01
403	  0.100561127	-9.080000E+00	  0.100561127	7.360300E+01	  0.100561127	4.736800E+01	  0.100561127	3.645300E+01
404	  0.100761525	-9.087000E+00	  0.100761525	7.323200E+01	  0.100761525	4.760500E+01	  0.100761525	3.652800E+01
405	  0.100961931	-9.097000E+00	  0.100961931	7.290600E+01	  0.100961931	4.782200E+01	  0.100961931	3.657500E+01
406	  0.101162329	-9.096000E+00	  0.101162329	7.253600E+01	  0.101162329	4.804600E+01	  0.101162329	3.668000E+01
407	  0.101362728	-9.107000E+00	  0.101362728	7.214300E+01	  0.101362728	4.830700E+01	  0.101362728	3.674200E+01
408	  0.101563133	-9.107000E+00	  0.101563133	7.182800E+01	  0.101563133	4.850400E+01	  0.101563133	3.682300E+01
409	  0.101763532	-9.121000E+00	  0.101763532	7.144100E+01	  0.101763532	4.877100E+01	  0.101763532	3.686500E+01
410	  0.101963930	-9.129000E+00	  0.101963930	7.107400E+01	  0.101963930	4.901500E+01	  0.101963930	3.692700E+01
411	  0.102164328	-9.121000E+00	  0.102164328	7.071600E+01	  0.102164328	4.922800E+01	  0.102164328	3.705200E+01
412	  0.102364726	-9.123000E+00	  0.102364726	7.036200E+01	  0.102364726	4.945900E+01	  0.102364726	3.713000E+01
413	  0.102565125	-9.121000E+00	  0.102565125	6.992700E+01	  0.102565125	4.973400E+01	  0.102565125	3.725100E+01
414	  0.102765530	-9.107000E+00	  0.102765530	6.956000E+01	  0.102765530	4.995100E+01	  0.102765530	3.739900E+01
415	  0.102965929	-9.114000E+00	  0.102965929	6.920300E+01	  0.102965929	5.019500E+01	  0.102965929	3.745500E+01
416	  0.103166327	-9.101000E+00	  0.103166327	6.884000E+01	  0.103166327	5.041500E+01	  0.103166327	3.759800E+01
417	  0.103366733	-9.098000E+00	  0.103366733	6.848100E+01	  0.103366733	5.064700E+01	  0.103366733	3.769900E+01
418	  0.103567131	-9.087000E+00	  0.103567131	6.808400E+01	  0.103567131	5.089600E+01	  0.103567131	3.784200E+01
419	  0.103767529	-9.078000E+00	  0.103767529	6.768200E+01	  0.103767529	5.115400E+01	  0.103767529	3.797300E+01
420	  0.103967935	-9.063000E+00	  0.103967935	6.725700E+01	  0.103967935	5.142000E+01	  0.103967935	3.814100E+01
421	  0.104168333	-9.045000E+00	  0.104168333	6.690300E+01	  0.104168333	5.163700E+01	  0.104168333	3.830000E+01
422	  0.104368731	-9.034000E+00	  0.104368731	6.648000E+01	  0.104368731	5.191300E+01	  0.104368731	3.844900E+01
423	  0.104569137	-9.022000E+00	  0.104569137	6.608500E+01	  0.104569137	5.217200E+01	  0.104569137	3.859000E+01
424	  0.104769535	-8.999000E+00	  0.104769535	6.563100E+01	  0.104769535	5.246100E+01	  0.104769535	3.879500E+01
425	  0.104969934	-8.986000E+00	  0.104969934	6.516000E+01	  0.104969934	5.277800E+01	  0.104969934	3.896200E+01
426	  0.105170339	-8.967000E+00	  0.105170339	6.473000E+01	  0.105170339	5.306100E+01	  0.105170339	3.914300E+01
427	  0.105370738	-8.940000E+00	  0.105370738	6.428900E+01	  0.105370738	5.334500E+01	  0.105370738	3.936700E+01
428	  0.105571143	-8.922000E+00	  0.105571143	6.385300E+01	  0.105571143	5.364200E+01	  0.105571143	3.954200E+01
429	  0.105771542	-8.910000E+00	  0.105771542	6.332500E+01	  0.105771542	5.401800E+01	  0.105771542	3.971300E+01
430	  0.105971940	-8.875000E+00	  0.105971940	6.283300E+01	  0.105971940	5.434300E+01	  0.105971940	3.998300E+01
431	  0.106172346	-8.855000E+00	  0.106172346	6.234800E+01	  0.106172346	5.468700E+01	  0.106172346	4.017900E+01
432	  0.106372744	-8.838000E+00	  0.106372744	6.181000E+01	  0.106372744	5.508000E+01	  0.106372744	4.037400E+01
433	  0.106573142	-8.814000E+00	  0.106573142	6.126400E+01	  0.106573142	5.547700E+01	  0.106573142	4.059800E+01
434	  0.106773548	-8.787000E+00	  0.106773548	6.068000E+01	  0.106773548	5.590600E+01	  0.106773548	4.084700E+01
435	  0.106973946	-8.764000E+00	  0.106973946	6.014400E+01	  0.106973946	5.630800E+01	  0.106973946	4.106800E+01
436	  0.107174344	-8.735000E+00	  0.107174344	5.956000E+01	  0.107174344	5.674900E+01	  0.107174344	4.132500E+01
437	  0.107374750	-8.721000E+00	  0.107374750	5.896600E+01	  0.107374750	5.722400E+01	  0.107374750	4.149700E+01
438	  0.107575148	-8.692000E+00	  0.107575148	5.836100E+01	  0.107575148	5.769800E+01	  0.107575148	4.175600E+01
439	  0.107775547	-8.668000E+00	  0.107775547	5.774600E+01	  0.107775547	5.819500E+01	  0.107775547	4.198500E+01
440	  0.107975952	-8.637000E+00	  0.107975952	5.714000E+01	  0.107975952	5.868500E+01	  0.107975952	4.225400E+01
441	  0.108176351	-8.623000E+00	  0.108176351	5.649000E+01	  0.108176351	5.923700E+01	  0.108176351	4.242800E+01
442	  0.108376749	-8.601000E+00	  0.108376749	5.589200E+01	  0.108376749	5.974700E+01	  0.108376749	4.263500E+01
443	  0.108577155	-8.586000E+00	  0.108577155	5.522900E+01	  0.108577155	6.032700E+01	  0.108577155	4.280900E+01
444	  0.108777553	-8.572000E+00	  0.108777553	5.450100E+01	  0.108777553	6.097700E+01	  0.108777553	4.297600E+01
445	  0.108977959	-8.549000E+00	  0.108977959	5.380500E+01	  0.108977959	6.160300E+01	  0.108977959	4.318800E+01
446	  0.109178357	-8.538000E+00	  0.109178357	5.312200E+01	  0.109178357	6.223500E+01	  0.109178357	4.332200E+01
447	  0.109378755	-8.517000E+00	  0.109378755	5.244000E+01	  0.109378755	6.287000E+01	  0.109378755	4.350700E+01
448	  0.109579161	-8.503000E+00	  0.109579161	5.173400E+01	  0.109579161	6.354200E+01	  0.109579161	4.364700E+01
449	  0.109779559	-8.499000E+00	  0.109779559	5.102900E+01	  0.109779559	6.422700E+01	  0.109779559	4.371500E+01
450	  0.109979957	-8.483000E+00	  0.109979957	5.034000E+01	  0.109979957	6.490300E+01	  0.109979957	4.384300E+01
451	  0.110180363	-8.473000E+00	  0.110180363	4.964100E+01	  0.110180363	6.560000E+01	  0.110180363	4.393300E+01
452	  0.110380761	-8.467000E+00	  0.110380761	4.894500E+01	  0.110380761	6.630300E+01	  0.110380761	4.398500E+01
453	  0.110581160	-8.458000E+00	  0.110581160	4.822600E+01	  0.110581160	6.704000E+01	  0.110581160	4.404500E+01
454	  0.110781565	-8.453000E+00	  0.110781565	4.755200E+01	  0.110781565	6.774000E+01	  0.110781565	4.406300E+01
455	  0.110981964	-8.445000E+00	  0.110981964	4.682000E+01	  0.110981964	6.850800E+01	  0.110981964	4.409200E+01
456	  0.111182362	-8.437000E+00	  0.111182362	4.612700E+01	  0.111182362	6.924600E+01	  0.111182362	4.411700E+01
457	  0.111382768	-8.429000E+00	  0.111382768	4.537500E+01	  0.111382768	7.005700E+01	  0.111382768	4.412100E+01
458	  0.111583166	-8.423000E+00	  0.111583166	4.468100E+01	  0.111583166	7.081300E+01	  0.111583166	4.409800E+01
459	  0.111783572	-8.416000E+00	  0.111783572	4.396500E+01	  0.111783572	7.160300E+01	  0.111783572	4.407400E+01
460	  0.111983970	-8.411000E+00	  0.111983970	4.317000E+01	  0.111983970	7.248700E+01	  0.111983970	4.400600E+01
461	  0.112184368	-8.401000E+00	  0.112184368	4.239900E+01	  0.112184368	7.336000E+01	  0.112184368	4.395900E+01
462	  0.112384774	-8.397000E+00	  0.112384774	4.163700E+01	  0.112384774	7.422600E+01	  0.112384774	4.385300E+01
463	  0.112585172	-8.393000E+00	  0.112585172	4.082000E+01	  0.112585172	7.516500E+01	  0.112585172	4.371900E+01
464	  0.112785570	-8.391000E+00	  0.112785570	4.007100E+01	  0.112785570	7.603000E+01	  0.112785570	4.356100E+01
465	  0.112985976	-8.378000E+00	  0.112985976	3.923600E+01	  0.112985976	7.702200E+01	  0.112985976	4.344600E+01
466	  0.113186374	-8.379000E+00	  0.113186374	3.840000E+01	  0.113186374	7.800100E+01	  0.113186374	4.320500E+01
467	  0.113386773	-8.375000E+00	  0.113386773	3.753400E+01	  0.113386773	7.903200E+01	  0.113386773	4.295800E+01
468	  0.113587178	-8.376000E+00	  0.113587178	3.670100E+01	  0.113587178	8.002000E+01	  0.113587178	4.266400E+01
469	  0.113787577	-8.376000E+00	  0.113787577	3.582600E+01	  0.113787577	8.106500E+01	  0.113787577	4.232800E+01
470	  0.113987975	-8.383000E+00	  0.113987975	3.491500E+01	  0.113987975	8.213900E+01	  0.113987975	4.189600E+01
471	  0.114188381	-8.381000E+00	  0.114188381	3.400600E+01	  0.114188381	8.323900E+01	  0.114188381	4.150000E+01
472	  0.114388779	-8.390000E+00	  0.114388779	3.309400E+01	  0.114388779	8.430900E+01	  0.114388779	4.097400E+01
473	  0.114589177	-8.391000E+00	  0.114589177	3.215000E+01	  0.114589177	8.544500E+01	  0.114589177	4.046600E+01
474	  0.114789583	-8.399000E+00	  0.114789583	3.120400E+01	  0.114789583	8.655400E+01	  0.114789583	3.985900E+01
475	  0.114989981	-8.403000E+00	  0.114989981	3.028700E+01	  0.114989981	8.764300E+01	  0.114989981	3.926900E+01
476	  0.115190387	-8.414000E+00	  0.115190387	2.926000E+01	  0.115190387	8.882200E+01	  0.115190387	3.850100E+01
477	  0.115390785	-8.424000E+00	  0.115390785	2.828600E+01	  0.115390785	8.993800E+01	  0.115390785	3.774200E+01
478	  0.115591183	-8.441000E+00	  0.115591183	2.729800E+01	  0.115591183	9.101900E+01	  0.115591183	3.686900E+01
479	  0.115791589	-8.456000E+00	  0.115791589	2.628900E+01	  0.115791589	9.211300E+01	  0.115791589	3.594900E+01
480	  0.115991987	-8.477000E+00	  0.115991987	2.529700E+01	  0.115991987	9.313300E+01	  0.115991987	3.495500E+01
481	  0.116192386	-8.502000E+00	  0.116192386	2.423900E+01	  0.116192386	9.417400E+01	  0.116192386	3.382700E+01
482	  0.116392791	-8.519000E+00	  0.116392791	2.322800E+01	  0.116392791	9.518400E+01	  0.116392791	3.276200E+01
483	  0.116593190	-8.550000E+00	  0.116593190	2.218000E+01	  0.116593190	9.610700E+01	  0.116593190	3.151400E+01
484	  0.116793588	-8.576000E+00	  0.116793588	2.111200E+01	  0.116793588	9.704200E+01	  0.116793588	3.023900E+01
485	  0.116993994	-8.607000E+00	  0.116993994	2.006600E+01	  0.116993994	9.788000E+01	  0.116993994	2.891900E+01
486	  0.117194392	-8.646000E+00	  0.117194392	1.898100E+01	  0.117194392	9.864400E+01	  0.117194392	2.746700E+01
487	  0.117394790	-8.679000E+00	  0.117394790	1.789700E+01	  0.117394790	9.939300E+01	  0.117394790	2.601500E+01
488	  0.117595196	-8.713000E+00	  0.117595196	1.682100E+01	  0.117595196	1.000780E+02	  0.117595196	2.454200E+01
489	  0.117795594	-8.749000E+00	  0.117795594	1.570500E+01	  0.117795594	1.007170E+02	  0.117795594	2.297800E+01
490	  0.117995992	-8.793000E+00	  0.117995992	1.457700E+01	  0.117995992	1.012250E+02	  0.117995992	2.132900E+01
491	  0.118196398	-8.841000E+00	  0.118196398	1.344700E+01	  0.118196398	1.016390E+02	  0.118196398	1.964700E+01
492	  0.118396796	-8.885000E+00	  0.118396796	1.224000E+01	  0.118396796	1.020610E+02	  0.118396796	1.786800E+01
493	  0.118597202	-8.941000E+00	  0.118597202	1.107300E+01	  0.118597202	1.022810E+02	  0.118597202	1.608700E+01
494	  0.118797600	-8.993000E+00	  0.118797600	9.902000E+00	  0.118797600	1.024540E+02	  0.118797600	1.431700E+01
