! Anritsu VNA Master:             	Model: MS2036C/10/77
! SN:             	1601066
! /bd0/18may09/b256.ew.m3.txt
! Existing Calibration Information:
! TYPE:             	Current Settings	Active Cal Settings
! TIME:             	05/09/2018 07:24:32 PM	05/09/2018 07:16:32 PM
! INTERNAL TEMP:    	50.5 C	48.5 C
! # POINTS:         	494	494
! START FREQ:       	20.000 MHz	20.000 MHz
! STOP FREQ:        	118.797 594 MHz	118.797 594 MHz
! SOURCE POWER:     	High	High
! IFBW:             	50 Hz	50 Hz
! AVG FACTOR:       	  1 	  1 
! REF PLANE 1:      	0 mm	0 mm
! REF PLANE 2:      	0 mm	0 mm
! CAL TYPE:         	Full S22	Full S22
! CAL METHOD:       	SOLT	SOLT
! CAL LINE TYPE:    	Coax	Coax
! DUT PORT 1:       	K-Conn(M)	K-Conn(M)
! DUT PORT 2:       	K-Conn(M)	K-Conn(M)
! CAL STATUS:       	OK: Accuracy High	--
! PROP-V:       	0.700
! CABLE LOSS:       	0.000 dB/m
! REF IMPEDANCE:       	50.0
! Trace Specific Parameters:	TR1	TR2	TR3	TR4
! TRACE.#.Y (GRAPH TYPE)	LOG MAG	PHASE	REAL IMPEDANCE	IMAGINARY IMPEDANCE
! TRACE.#.X 	FREQ.GHZ	FREQ.GHZ	FREQ.GHZ	FREQ.GHZ
! S-PARAMETER	S22	S22	S22	S22
! SMOOTH/APERTURE %	0	0	0	0
! WINDOW	NSL	NSL	NSL	NSL
! GATING	OFF	OFF	OFF	OFF
! FGTD	OFF	OFF	OFF	OFF
Marker Information per Trace:	TR1	TR2	TR3	TR4
!MK1	--	"MK1 TR2:  20.000 MHz,PH:-127.13°"	--	--
!MK2	--	--	"MK2 TR3:  70.100 200 MHz,Z:(16.525 ohm, -1.131 ohm)"	--
!MK3	--	--	--	--
!MK4	--	--	--	--
!MK5	--	--	--	--
!MK6	--	--	--	--
!MK7	--	--	--	--
!MK8	--	--	--	--
PNT	TR1.FREQ.GHZ	TR1.LOG MAG.dB	TR2.FREQ.GHZ	TR2.PHASE.deg	TR3.FREQ.GHZ	TR3.REAL IMPEDANCE.ohm	TR4.FREQ.GHZ	TR4.IMAGINARY IMPEDANCE.ohm
1	  0.020000000	-6.370000E-01	  0.020000000	-1.271270E+02	  0.020000000	2.285000E+00	  0.020000000	-2.481800E+01
2	  0.020200402	-6.430000E-01	  0.020200402	-1.285950E+02	  0.020200402	2.278000E+00	  0.020200402	-2.402500E+01
3	  0.020400802	-6.430000E-01	  0.020400802	-1.300780E+02	  0.020400802	2.252000E+00	  0.020400802	-2.323400E+01
4	  0.020601204	-6.480000E-01	  0.020601204	-1.315780E+02	  0.020601204	2.243000E+00	  0.020601204	-2.244400E+01
5	  0.020801604	-6.530000E-01	  0.020801604	-1.331200E+02	  0.020801604	2.232000E+00	  0.020801604	-2.164100E+01
6	  0.021002004	-6.550000E-01	  0.021002004	-1.346730E+02	  0.021002004	2.215000E+00	  0.021002004	-2.084200E+01
7	  0.021202406	-6.600000E-01	  0.021202406	-1.362180E+02	  0.021202406	2.207000E+00	  0.021202406	-2.005600E+01
8	  0.021402806	-6.630000E-01	  0.021402806	-1.377530E+02	  0.021402806	2.194000E+00	  0.021402806	-1.928400E+01
9	  0.021603208	-6.680000E-01	  0.021603208	-1.392940E+02	  0.021603208	2.186000E+00	  0.021603208	-1.851600E+01
10	  0.021803608	-6.730000E-01	  0.021803608	-1.408290E+02	  0.021803608	2.181000E+00	  0.021803608	-1.775900E+01
11	  0.022004008	-6.780000E-01	  0.022004008	-1.423890E+02	  0.022004008	2.179000E+00	  0.022004008	-1.699700E+01
12	  0.022204408	-6.860000E-01	  0.022204408	-1.439560E+02	  0.022204408	2.183000E+00	  0.022204408	-1.623800E+01
13	  0.022404809	-6.930000E-01	  0.022404809	-1.455590E+02	  0.022404809	2.185000E+00	  0.022404809	-1.546900E+01
14	  0.022605211	-6.970000E-01	  0.022605211	-1.471630E+02	  0.022605211	2.181000E+00	  0.022605211	-1.470700E+01
15	  0.022805611	-7.020000E-01	  0.022805611	-1.487570E+02	  0.022805611	2.177000E+00	  0.022805611	-1.395500E+01
16	  0.023006011	-7.100000E-01	  0.023006011	-1.503510E+02	  0.023006011	2.186000E+00	  0.023006011	-1.320900E+01
17	  0.023206413	-7.140000E-01	  0.023206413	-1.519440E+02	  0.023206413	2.182000E+00	  0.023206413	-1.246900E+01
18	  0.023406813	-7.190000E-01	  0.023406813	-1.535410E+02	  0.023406813	2.183000E+00	  0.023406813	-1.173300E+01
19	  0.023607215	-7.270000E-01	  0.023607215	-1.551390E+02	  0.023607215	2.193000E+00	  0.023607215	-1.100000E+01
20	  0.023807615	-7.380000E-01	  0.023807615	-1.567640E+02	  0.023807615	2.214000E+00	  0.023807615	-1.026000E+01
21	  0.024008015	-7.460000E-01	  0.024008015	-1.584000E+02	  0.024008015	2.226000E+00	  0.024008015	-9.519000E+00
22	  0.024208417	-7.560000E-01	  0.024208417	-1.600520E+02	  0.024208417	2.242000E+00	  0.024208417	-8.775000E+00
23	  0.024408817	-7.620000E-01	  0.024408817	-1.617110E+02	  0.024408817	2.249000E+00	  0.024408817	-8.032000E+00
24	  0.024609219	-7.710000E-01	  0.024609219	-1.633750E+02	  0.024609219	2.264000E+00	  0.024609219	-7.290000E+00
25	  0.024809619	-7.810000E-01	  0.024809619	-1.650370E+02	  0.024809619	2.285000E+00	  0.024809619	-6.552000E+00
26	  0.025010020	-7.910000E-01	  0.025010020	-1.667100E+02	  0.025010020	2.308000E+00	  0.025010020	-5.812000E+00
27	  0.025210422	-8.020000E-01	  0.025210422	-1.683800E+02	  0.025210422	2.332000E+00	  0.025210422	-5.076000E+00
28	  0.025410822	-8.160000E-01	  0.025410822	-1.700720E+02	  0.025410822	2.365000E+00	  0.025410822	-4.332000E+00
29	  0.025611224	-8.290000E-01	  0.025611224	-1.717780E+02	  0.025611224	2.397000E+00	  0.025611224	-3.585000E+00
30	  0.025811624	-8.410000E-01	  0.025811624	-1.734950E+02	  0.025811624	2.428000E+00	  0.025811624	-2.834000E+00
31	  0.026012026	-8.540000E-01	  0.026012026	-1.752300E+02	  0.026012026	2.462000E+00	  0.026012026	-2.077000E+00
32	  0.026212426	-8.670000E-01	  0.026212426	-1.769660E+02	  0.026212426	2.496000E+00	  0.026212426	-1.320000E+00
33	  0.026412826	-8.850000E-01	  0.026412826	-1.787320E+02	  0.026412826	2.545000E+00	  0.026412826	-5.510000E-01
34	  0.026613226	-9.000000E-01	  0.026613226	1.795070E+02	  0.026613226	2.590000E+00	  0.026613226	2.140000E-01
35	  0.026813626	-9.180000E-01	  0.026813626	1.777330E+02	  0.026813626	2.641000E+00	  0.026813626	9.860000E-01
36	  0.027014028	-9.360000E-01	  0.027014028	1.759540E+02	  0.027014028	2.697000E+00	  0.027014028	1.760000E+00
37	  0.027214428	-9.550000E-01	  0.027214428	1.741620E+02	  0.027214428	2.753000E+00	  0.027214428	2.541000E+00
38	  0.027414829	-9.740000E-01	  0.027414829	1.723660E+02	  0.027414829	2.812000E+00	  0.027414829	3.325000E+00
39	  0.027615231	-9.940000E-01	  0.027615231	1.705530E+02	  0.027615231	2.878000E+00	  0.027615231	4.117000E+00
40	  0.027815631	-1.014000E+00	  0.027815631	1.687380E+02	  0.027815631	2.944000E+00	  0.027815631	4.912000E+00
41	  0.028016033	-1.036000E+00	  0.028016033	1.669010E+02	  0.028016033	3.019000E+00	  0.028016033	5.719000E+00
42	  0.028216433	-1.058000E+00	  0.028216433	1.650520E+02	  0.028216433	3.096000E+00	  0.028216433	6.534000E+00
43	  0.028416833	-1.082000E+00	  0.028416833	1.631970E+02	  0.028416833	3.180000E+00	  0.028416833	7.355000E+00
44	  0.028617235	-1.104000E+00	  0.028617235	1.613390E+02	  0.028617235	3.260000E+00	  0.028617235	8.181000E+00
45	  0.028817635	-1.128000E+00	  0.028817635	1.594790E+02	  0.028817635	3.348000E+00	  0.028817635	9.011000E+00
46	  0.029018037	-1.153000E+00	  0.029018037	1.576280E+02	  0.029018037	3.444000E+00	  0.029018037	9.842000E+00
47	  0.029218437	-1.179000E+00	  0.029218437	1.557520E+02	  0.029218437	3.545000E+00	  0.029218437	1.068800E+01
48	  0.029418837	-1.207000E+00	  0.029418837	1.538660E+02	  0.029418837	3.656000E+00	  0.029418837	1.154500E+01
49	  0.029619239	-1.233000E+00	  0.029619239	1.519790E+02	  0.029619239	3.763000E+00	  0.029619239	1.240900E+01
50	  0.029819639	-1.261000E+00	  0.029819639	1.500840E+02	  0.029819639	3.880000E+00	  0.029819639	1.328200E+01
51	  0.030020041	-1.287000E+00	  0.030020041	1.481810E+02	  0.030020041	3.998000E+00	  0.030020041	1.416700E+01
52	  0.030220442	-1.314000E+00	  0.030220442	1.462740E+02	  0.030220442	4.120000E+00	  0.030220442	1.506100E+01
53	  0.030420844	-1.342000E+00	  0.030420844	1.443950E+02	  0.030420844	4.251000E+00	  0.030420844	1.594900E+01
54	  0.030621244	-1.372000E+00	  0.030621244	1.424830E+02	  0.030621244	4.392000E+00	  0.030621244	1.686300E+01
55	  0.030821642	-1.404000E+00	  0.030821642	1.405630E+02	  0.030821642	4.548000E+00	  0.030821642	1.778900E+01
56	  0.031022044	-1.436000E+00	  0.031022044	1.386400E+02	  0.031022044	4.708000E+00	  0.031022044	1.872600E+01
57	  0.031222444	-1.466000E+00	  0.031222444	1.366870E+02	  0.031222444	4.870000E+00	  0.031222444	1.969000E+01
58	  0.031422846	-1.500000E+00	  0.031422846	1.347130E+02	  0.031422846	5.051000E+00	  0.031422846	2.067500E+01
59	  0.031623244	-1.533000E+00	  0.031623244	1.327470E+02	  0.031623244	5.235000E+00	  0.031623244	2.167000E+01
60	  0.031823646	-1.568000E+00	  0.031823646	1.307750E+02	  0.031823646	5.436000E+00	  0.031823646	2.268000E+01
61	  0.032024048	-1.605000E+00	  0.032024048	1.287820E+02	  0.032024048	5.655000E+00	  0.032024048	2.371500E+01
62	  0.032224450	-1.642000E+00	  0.032224450	1.268000E+02	  0.032224450	5.883000E+00	  0.032224450	2.476000E+01
63	  0.032424849	-1.681000E+00	  0.032424849	1.248160E+02	  0.032424849	6.125000E+00	  0.032424849	2.582100E+01
64	  0.032625251	-1.720000E+00	  0.032625251	1.228060E+02	  0.032625251	6.384000E+00	  0.032625251	2.691300E+01
65	  0.032825653	-1.760000E+00	  0.032825653	1.207610E+02	  0.032825653	6.660000E+00	  0.032825653	2.804300E+01
66	  0.033026051	-1.800000E+00	  0.033026051	1.187140E+02	  0.033026051	6.949000E+00	  0.033026051	2.919500E+01
67	  0.033226453	-1.840000E+00	  0.033226453	1.166840E+02	  0.033226453	7.254000E+00	  0.033226453	3.035700E+01
68	  0.033426855	-1.883000E+00	  0.033426855	1.146470E+02	  0.033426855	7.584000E+00	  0.033426855	3.154500E+01
69	  0.033627257	-1.926000E+00	  0.033627257	1.126120E+02	  0.033627257	7.935000E+00	  0.033627257	3.275300E+01
70	  0.033827655	-1.972000E+00	  0.033827655	1.105590E+02	  0.033827655	8.315000E+00	  0.033827655	3.399600E+01
71	  0.034028057	-2.017000E+00	  0.034028057	1.085250E+02	  0.034028057	8.714000E+00	  0.034028057	3.525200E+01
72	  0.034228459	-2.060000E+00	  0.034228459	1.064410E+02	  0.034228459	9.131000E+00	  0.034228459	3.657000E+01
73	  0.034428857	-2.108000E+00	  0.034428857	1.043740E+02	  0.034428857	9.593000E+00	  0.034428857	3.790200E+01
74	  0.034629259	-2.156000E+00	  0.034629259	1.022840E+02	  0.034629259	1.008200E+01	  0.034629259	3.928100E+01
75	  0.034829661	-2.202000E+00	  0.034829661	1.002020E+02	  0.034829661	1.059400E+01	  0.034829661	4.068700E+01
76	  0.035030060	-2.250000E+00	  0.035030060	9.810100E+01	  0.035030060	1.115200E+01	  0.035030060	4.213900E+01
77	  0.035230462	-2.301000E+00	  0.035230462	9.601900E+01	  0.035230462	1.175600E+01	  0.035230462	4.361000E+01
78	  0.035430863	-2.350000E+00	  0.035430863	9.392500E+01	  0.035430863	1.239300E+01	  0.035430863	4.513000E+01
79	  0.035631265	-2.399000E+00	  0.035631265	9.183500E+01	  0.035631265	1.306900E+01	  0.035631265	4.668600E+01
80	  0.035831664	-2.452000E+00	  0.035831664	8.974000E+01	  0.035831664	1.381400E+01	  0.035831664	4.828000E+01
81	  0.036032066	-2.503000E+00	  0.036032066	8.764600E+01	  0.036032066	1.460200E+01	  0.036032066	4.991900E+01
82	  0.036232468	-2.553000E+00	  0.036232468	8.556000E+01	  0.036232468	1.543500E+01	  0.036232468	5.159700E+01
83	  0.036432866	-2.606000E+00	  0.036432866	8.345000E+01	  0.036432866	1.635200E+01	  0.036432866	5.333800E+01
84	  0.036633268	-2.659000E+00	  0.036633268	8.135300E+01	  0.036633268	1.733700E+01	  0.036633268	5.511300E+01
85	  0.036833670	-2.712000E+00	  0.036833670	7.924300E+01	  0.036833670	1.840000E+01	  0.036833670	5.694900E+01
86	  0.037034072	-2.765000E+00	  0.037034072	7.716000E+01	  0.037034072	1.953400E+01	  0.037034072	5.881100E+01
87	  0.037234470	-2.818000E+00	  0.037234470	7.505500E+01	  0.037234470	2.076100E+01	  0.037234470	6.074800E+01
88	  0.037434869	-2.872000E+00	  0.037434869	7.295500E+01	  0.037434869	2.209300E+01	  0.037434869	6.272900E+01
89	  0.037635271	-2.928000E+00	  0.037635271	7.087000E+01	  0.037635271	2.354000E+01	  0.037635271	6.474200E+01
90	  0.037835669	-2.983000E+00	  0.037835669	6.873900E+01	  0.037835669	2.512900E+01	  0.037835669	6.685600E+01
91	  0.038036071	-3.038000E+00	  0.038036071	6.661200E+01	  0.038036071	2.684500E+01	  0.038036071	6.902400E+01
92	  0.038236473	-3.096000E+00	  0.038236473	6.448900E+01	  0.038236473	2.873500E+01	  0.038236473	7.122600E+01
93	  0.038436871	-3.154000E+00	  0.038436871	6.236500E+01	  0.038436871	3.079000E+01	  0.038436871	7.347700E+01
94	  0.038637273	-3.210000E+00	  0.038637273	6.023900E+01	  0.038637273	3.301000E+01	  0.038637273	7.578700E+01
95	  0.038837675	-3.265000E+00	  0.038837675	5.814300E+01	  0.038837675	3.539000E+01	  0.038837675	7.811000E+01
96	  0.039038073	-3.319000E+00	  0.039038073	5.605300E+01	  0.039038073	3.797600E+01	  0.039038073	8.046100E+01
97	  0.039238475	-3.375000E+00	  0.039238475	5.396600E+01	  0.039238475	4.080600E+01	  0.039238475	8.282200E+01
98	  0.039438877	-3.433000E+00	  0.039438877	5.187400E+01	  0.039438877	4.392600E+01	  0.039438877	8.517900E+01
99	  0.039639279	-3.486000E+00	  0.039639279	4.977900E+01	  0.039639279	4.728800E+01	  0.039639279	8.758000E+01
100	  0.039839678	-3.543000E+00	  0.039839678	4.767600E+01	  0.039839678	5.100900E+01	  0.039839678	8.993400E+01
101	  0.040040080	-3.601000E+00	  0.040040080	4.559300E+01	  0.040040080	5.505600E+01	  0.040040080	9.218700E+01
102	  0.040240481	-3.655000E+00	  0.040240481	4.348100E+01	  0.040240481	5.949000E+01	  0.040240481	9.444400E+01
103	  0.040440880	-3.710000E+00	  0.040440880	4.140000E+01	  0.040440880	6.426700E+01	  0.040440880	9.653700E+01
104	  0.040641282	-3.765000E+00	  0.040641282	3.933900E+01	  0.040641282	6.943000E+01	  0.040641282	9.842700E+01
105	  0.040841684	-3.819000E+00	  0.040841684	3.727200E+01	  0.040841684	7.504700E+01	  0.040841684	1.001120E+02
106	  0.041042086	-3.873000E+00	  0.041042086	3.520300E+01	  0.041042086	8.114800E+01	  0.041042086	1.014910E+02
107	  0.041242484	-3.935000E+00	  0.041242484	3.313500E+01	  0.041242484	8.776900E+01	  0.041242484	1.023490E+02
108	  0.041442886	-3.989000E+00	  0.041442886	3.106900E+01	  0.041442886	9.482100E+01	  0.041442886	1.028730E+02
109	  0.041643288	-4.042000E+00	  0.041643288	2.899800E+01	  0.041643288	1.023570E+02	  0.041643288	1.028660E+02
110	  0.041843686	-4.095000E+00	  0.041843686	2.692700E+01	  0.041843686	1.103450E+02	  0.041843686	1.021550E+02
111	  0.042044088	-4.148000E+00	  0.042044088	2.486800E+01	  0.042044088	1.186760E+02	  0.042044088	1.006300E+02
112	  0.042244490	-4.203000E+00	  0.042244490	2.283500E+01	  0.042244490	1.271760E+02	  0.042244490	9.811600E+01
113	  0.042444889	-4.256000E+00	  0.042444889	2.079600E+01	  0.042444889	1.358650E+02	  0.042444889	9.460900E+01
114	  0.042645290	-4.309000E+00	  0.042645290	1.876800E+01	  0.042645290	1.445060E+02	  0.042645290	8.996800E+01
115	  0.042845692	-4.362000E+00	  0.042845692	1.675000E+01	  0.042845692	1.529070E+02	  0.042845692	8.417000E+01
116	  0.043046094	-4.412000E+00	  0.043046094	1.474200E+01	  0.043046094	1.608940E+02	  0.043046094	7.723400E+01
117	  0.043246493	-4.463000E+00	  0.043246493	1.272800E+01	  0.043246493	1.682220E+02	  0.043246493	6.904400E+01
118	  0.043446895	-4.514000E+00	  0.043446895	1.071700E+01	  0.043446895	1.746670E+02	  0.043446895	5.977300E+01
119	  0.043647297	-4.560000E+00	  0.043647297	8.722000E+00	  0.043647297	1.800350E+02	  0.043647297	4.967800E+01
120	  0.043847695	-4.607000E+00	  0.043847695	6.738000E+00	  0.043847695	1.840980E+02	  0.043847695	3.887500E+01
121	  0.044048097	-4.655000E+00	  0.044048097	4.776000E+00	  0.044048097	1.865980E+02	  0.044048097	2.764600E+01
122	  0.044248499	-4.700000E+00	  0.044248499	2.810000E+00	  0.044248499	1.877710E+02	  0.044248499	1.620800E+01
123	  0.044448901	-4.743000E+00	  0.044448901	8.620000E-01	  0.044448901	1.875180E+02	  0.044448901	4.920000E+00
124	  0.044649299	-4.785000E+00	  0.044649299	-1.107000E+00	  0.044649299	1.858580E+02	  0.044649299	-6.200000E+00
125	  0.044849701	-4.829000E+00	  0.044849701	-3.044000E+00	  0.044849701	1.828400E+02	  0.044849701	-1.659700E+01
126	  0.045050103	-4.870000E+00	  0.045050103	-5.001000E+00	  0.045050103	1.787500E+02	  0.045050103	-2.638500E+01
127	  0.045250501	-4.910000E+00	  0.045250501	-6.918000E+00	  0.045250501	1.738480E+02	  0.045250501	-3.513700E+01
128	  0.045450903	-4.950000E+00	  0.045450903	-8.848000E+00	  0.045450903	1.681960E+02	  0.045450903	-4.303100E+01
129	  0.045651305	-4.990000E+00	  0.045651305	-1.076300E+01	  0.045651305	1.619960E+02	  0.045651305	-4.986200E+01
130	  0.045851704	-5.029000E+00	  0.045851704	-1.264900E+01	  0.045851704	1.555990E+02	  0.045851704	-5.568800E+01
131	  0.046052102	-5.067000E+00	  0.046052102	-1.453400E+01	  0.046052102	1.489980E+02	  0.046052102	-6.059400E+01
132	  0.046252504	-5.106000E+00	  0.046252504	-1.638600E+01	  0.046252504	1.424370E+02	  0.046252504	-6.456900E+01
133	  0.046452906	-5.142000E+00	  0.046452906	-1.822400E+01	  0.046452906	1.360000E+02	  0.046452906	-6.781000E+01
134	  0.046653304	-5.178000E+00	  0.046653304	-2.005900E+01	  0.046653304	1.296910E+02	  0.046653304	-7.037300E+01
135	  0.046853706	-5.211000E+00	  0.046853706	-2.184800E+01	  0.046853706	1.237200E+02	  0.046853706	-7.231900E+01
136	  0.047054108	-5.236000E+00	  0.047054108	-2.366600E+01	  0.047054108	1.179130E+02	  0.047054108	-7.394200E+01
137	  0.047254506	-5.265000E+00	  0.047254506	-2.547100E+01	  0.047254506	1.123420E+02	  0.047254506	-7.502100E+01
138	  0.047454908	-5.286000E+00	  0.047454908	-2.729600E+01	  0.047454908	1.069760E+02	  0.047454908	-7.583700E+01
139	  0.047655310	-5.310000E+00	  0.047655310	-2.910800E+01	  0.047655310	1.018800E+02	  0.047655310	-7.621900E+01
140	  0.047855709	-5.336000E+00	  0.047855709	-3.091600E+01	  0.047855709	9.704800E+01	  0.047855709	-7.627400E+01
141	  0.048056111	-5.361000E+00	  0.048056111	-3.273600E+01	  0.048056111	9.244300E+01	  0.048056111	-7.606100E+01
142	  0.048256513	-5.386000E+00	  0.048256513	-3.452300E+01	  0.048256513	8.817200E+01	  0.048256513	-7.563300E+01
143	  0.048456915	-5.412000E+00	  0.048456915	-3.632400E+01	  0.048456915	8.411700E+01	  0.048456915	-7.501600E+01
144	  0.048657313	-5.437000E+00	  0.048657313	-3.812600E+01	  0.048657313	8.029500E+01	  0.048657313	-7.424600E+01
145	  0.048857715	-5.460000E+00	  0.048857715	-3.991700E+01	  0.048857715	7.672100E+01	  0.048857715	-7.338400E+01
146	  0.049058117	-5.484000E+00	  0.049058117	-4.169700E+01	  0.049058117	7.338300E+01	  0.049058117	-7.240000E+01
147	  0.049258515	-5.506000E+00	  0.049258515	-4.345700E+01	  0.049258515	7.027300E+01	  0.049258515	-7.136500E+01
148	  0.049458917	-5.529000E+00	  0.049458917	-4.520500E+01	  0.049458917	6.737300E+01	  0.049458917	-7.026500E+01
149	  0.049659319	-5.551000E+00	  0.049659319	-4.694500E+01	  0.049659319	6.465600E+01	  0.049659319	-6.911700E+01
150	  0.049859721	-5.579000E+00	  0.049859721	-4.865900E+01	  0.049859721	6.216000E+01	  0.049859721	-6.788300E+01
151	  0.050060119	-5.601000E+00	  0.050060119	-5.037400E+01	  0.050060119	5.978900E+01	  0.050060119	-6.668400E+01
152	  0.050260521	-5.620000E+00	  0.050260521	-5.209200E+01	  0.050260521	5.753800E+01	  0.050260521	-6.549100E+01
153	  0.050460923	-5.639000E+00	  0.050460923	-5.378800E+01	  0.050460923	5.544300E+01	  0.050460923	-6.429100E+01
154	  0.050661322	-5.655000E+00	  0.050661322	-5.548100E+01	  0.050661322	5.346000E+01	  0.050661322	-6.310100E+01
155	  0.050861724	-5.674000E+00	  0.050861724	-5.715900E+01	  0.050861724	5.161800E+01	  0.050861724	-6.188800E+01
156	  0.051062126	-5.692000E+00	  0.051062126	-5.882600E+01	  0.051062126	4.988700E+01	  0.051062126	-6.068500E+01
157	  0.051262524	-5.713000E+00	  0.051262524	-6.045500E+01	  0.051262524	4.829800E+01	  0.051262524	-5.949200E+01
158	  0.051462926	-5.729000E+00	  0.051462926	-6.209400E+01	  0.051462926	4.676400E+01	  0.051462926	-5.832600E+01
159	  0.051663328	-5.745000E+00	  0.051663328	-6.371300E+01	  0.051663328	4.532700E+01	  0.051663328	-5.718100E+01
160	  0.051863730	-5.764000E+00	  0.051863730	-6.533600E+01	  0.051863730	4.398000E+01	  0.051863730	-5.601700E+01
161	  0.052064128	-5.775000E+00	  0.052064128	-6.693300E+01	  0.052064128	4.268800E+01	  0.052064128	-5.492300E+01
162	  0.052264530	-5.786000E+00	  0.052264530	-6.853100E+01	  0.052264530	4.145400E+01	  0.052264530	-5.384100E+01
163	  0.052464932	-5.801000E+00	  0.052464932	-7.011300E+01	  0.052464932	4.031700E+01	  0.052464932	-5.275100E+01
164	  0.052665330	-5.813000E+00	  0.052665330	-7.168300E+01	  0.052665330	3.922700E+01	  0.052665330	-5.169600E+01
165	  0.052865732	-5.828000E+00	  0.052865732	-7.323700E+01	  0.052865732	3.821800E+01	  0.052865732	-5.064300E+01
166	  0.053066134	-5.842000E+00	  0.053066134	-7.476300E+01	  0.053066134	3.726500E+01	  0.053066134	-4.962900E+01
167	  0.053266536	-5.854000E+00	  0.053266536	-7.628200E+01	  0.053266536	3.635600E+01	  0.053266536	-4.863400E+01
168	  0.053466935	-5.873000E+00	  0.053466935	-7.781500E+01	  0.053466935	3.550700E+01	  0.053466935	-4.761700E+01
169	  0.053667337	-5.881000E+00	  0.053667337	-7.933900E+01	  0.053667337	3.466000E+01	  0.053667337	-4.665600E+01
170	  0.053867739	-5.892000E+00	  0.053867739	-8.085600E+01	  0.053867739	3.386800E+01	  0.053867739	-4.570000E+01
171	  0.054068137	-5.904000E+00	  0.054068137	-8.233400E+01	  0.054068137	3.313100E+01	  0.054068137	-4.477600E+01
172	  0.054268539	-5.917000E+00	  0.054268539	-8.380700E+01	  0.054268539	3.243600E+01	  0.054268539	-4.386100E+01
173	  0.054468941	-5.929000E+00	  0.054468941	-8.528200E+01	  0.054468941	3.176600E+01	  0.054468941	-4.295800E+01
174	  0.054669335	-5.941000E+00	  0.054669335	-8.676400E+01	  0.054669335	3.112000E+01	  0.054669335	-4.206300E+01
175	  0.054869737	-5.955000E+00	  0.054869737	-8.820000E+01	  0.054869737	3.052800E+01	  0.054869737	-4.119900E+01
176	  0.055070139	-5.968000E+00	  0.055070139	-8.965800E+01	  0.055070139	2.994900E+01	  0.055070139	-4.033600E+01
177	  0.055270538	-5.977000E+00	  0.055270538	-9.109400E+01	  0.055270538	2.939000E+01	  0.055270538	-3.950600E+01
178	  0.055470940	-5.988000E+00	  0.055470940	-9.252500E+01	  0.055470940	2.886200E+01	  0.055470940	-3.868200E+01
179	  0.055671342	-5.996000E+00	  0.055671342	-9.396100E+01	  0.055671342	2.834000E+01	  0.055671342	-3.787400E+01
180	  0.055871744	-6.000000E+00	  0.055871744	-9.537600E+01	  0.055871744	2.783600E+01	  0.055871744	-3.709500E+01
181	  0.056072142	-6.010000E+00	  0.056072142	-9.681200E+01	  0.056072142	2.736300E+01	  0.056072142	-3.629800E+01
182	  0.056272544	-6.016000E+00	  0.056272544	-9.821300E+01	  0.056272544	2.690900E+01	  0.056272544	-3.553700E+01
183	  0.056472946	-6.022000E+00	  0.056472946	-9.959000E+01	  0.056472946	2.647600E+01	  0.056472946	-3.479900E+01
184	  0.056673344	-6.031000E+00	  0.056673344	-1.009540E+02	  0.056673344	2.607900E+01	  0.056673344	-3.406500E+01
185	  0.056873746	-6.037000E+00	  0.056873746	-1.023140E+02	  0.056873746	2.568400E+01	  0.056873746	-3.335000E+01
186	  0.057074148	-6.045000E+00	  0.057074148	-1.036740E+02	  0.057074148	2.531300E+01	  0.057074148	-3.263600E+01
187	  0.057274550	-6.047000E+00	  0.057274550	-1.050610E+02	  0.057274550	2.492700E+01	  0.057274550	-3.192800E+01
188	  0.057474948	-6.053000E+00	  0.057474948	-1.064120E+02	  0.057474948	2.457700E+01	  0.057474948	-3.123700E+01
189	  0.057675350	-6.055000E+00	  0.057675350	-1.077450E+02	  0.057675350	2.423300E+01	  0.057675350	-3.056800E+01
190	  0.057875752	-6.060000E+00	  0.057875752	-1.090690E+02	  0.057875752	2.391400E+01	  0.057875752	-2.990400E+01
191	  0.058076151	-6.064000E+00	  0.058076151	-1.103920E+02	  0.058076151	2.360200E+01	  0.058076151	-2.924900E+01
192	  0.058276553	-6.069000E+00	  0.058276553	-1.116910E+02	  0.058276553	2.330800E+01	  0.058276553	-2.861100E+01
193	  0.058476955	-6.070000E+00	  0.058476955	-1.129630E+02	  0.058476955	2.302100E+01	  0.058476955	-2.799500E+01
194	  0.058677353	-6.072000E+00	  0.058677353	-1.142580E+02	  0.058677353	2.274100E+01	  0.058677353	-2.737300E+01
195	  0.058877755	-6.077000E+00	  0.058877755	-1.155370E+02	  0.058877755	2.248500E+01	  0.058877755	-2.675700E+01
196	  0.059078157	-6.077000E+00	  0.059078157	-1.167940E+02	  0.059078157	2.222500E+01	  0.059078157	-2.616500E+01
197	  0.059278559	-6.079000E+00	  0.059278559	-1.180420E+02	  0.059278559	2.198300E+01	  0.059278559	-2.557800E+01
198	  0.059478957	-6.079000E+00	  0.059478957	-1.193000E+02	  0.059478957	2.174100E+01	  0.059478957	-2.499400E+01
199	  0.059679359	-6.084000E+00	  0.059679359	-1.205360E+02	  0.059679359	2.152500E+01	  0.059679359	-2.441800E+01
200	  0.059879761	-6.088000E+00	  0.059879761	-1.217470E+02	  0.059879761	2.131700E+01	  0.059879761	-2.385800E+01
201	  0.060080159	-6.088000E+00	  0.060080159	-1.229470E+02	  0.060080159	2.110600E+01	  0.060080159	-2.331300E+01
202	  0.060280561	-6.094000E+00	  0.060280561	-1.241840E+02	  0.060280561	2.091600E+01	  0.060280561	-2.274800E+01
203	  0.060480963	-6.097000E+00	  0.060480963	-1.253650E+02	  0.060480963	2.073400E+01	  0.060480963	-2.221300E+01
204	  0.060681365	-6.103000E+00	  0.060681365	-1.265580E+02	  0.060681365	2.056100E+01	  0.060681365	-2.167500E+01
205	  0.060881764	-6.101000E+00	  0.060881764	-1.277670E+02	  0.060881764	2.037000E+01	  0.060881764	-2.114200E+01
206	  0.061082166	-6.105000E+00	  0.061082166	-1.289610E+02	  0.061082166	2.020400E+01	  0.061082166	-2.061200E+01
207	  0.061282568	-6.106000E+00	  0.061282568	-1.301640E+02	  0.061282568	2.003500E+01	  0.061282568	-2.008400E+01
208	  0.061482966	-6.109000E+00	  0.061482966	-1.313300E+02	  0.061482966	1.988300E+01	  0.061482966	-1.957400E+01
209	  0.061683368	-6.110000E+00	  0.061683368	-1.325220E+02	  0.061683368	1.972900E+01	  0.061683368	-1.905600E+01
210	  0.061883770	-6.112000E+00	  0.061883770	-1.337010E+02	  0.061883770	1.958300E+01	  0.061883770	-1.854700E+01
211	  0.062084168	-6.117000E+00	  0.062084168	-1.348730E+02	  0.062084168	1.944900E+01	  0.062084168	-1.804100E+01
212	  0.062284570	-6.117000E+00	  0.062284570	-1.360320E+02	  0.062284570	1.931000E+01	  0.062284570	-1.754700E+01
213	  0.062484972	-6.115000E+00	  0.062484972	-1.371720E+02	  0.062484972	1.917100E+01	  0.062484972	-1.706600E+01
214	  0.062685370	-6.115000E+00	  0.062685370	-1.383650E+02	  0.062685370	1.903800E+01	  0.062685370	-1.656200E+01
215	  0.062885776	-6.117000E+00	  0.062885776	-1.395070E+02	  0.062885776	1.892000E+01	  0.062885776	-1.608100E+01
216	  0.063086174	-6.117000E+00	  0.063086174	-1.406400E+02	  0.063086174	1.880300E+01	  0.063086174	-1.560700E+01
217	  0.063286573	-6.119000E+00	  0.063286573	-1.417680E+02	  0.063286573	1.869500E+01	  0.063286573	-1.513700E+01
218	  0.063486971	-6.119000E+00	  0.063486971	-1.429040E+02	  0.063486971	1.858500E+01	  0.063486971	-1.466500E+01
219	  0.063687377	-6.118000E+00	  0.063687377	-1.440180E+02	  0.063687377	1.847600E+01	  0.063687377	-1.420700E+01
220	  0.063887775	-6.117000E+00	  0.063887775	-1.451070E+02	  0.063887775	1.837600E+01	  0.063887775	-1.375900E+01
221	  0.064088173	-6.117000E+00	  0.064088173	-1.462370E+02	  0.064088173	1.827900E+01	  0.064088173	-1.329600E+01
222	  0.064288579	-6.114000E+00	  0.064288579	-1.473120E+02	  0.064288579	1.818000E+01	  0.064288579	-1.285900E+01
223	  0.064488977	-6.116000E+00	  0.064488977	-1.483990E+02	  0.064488977	1.810000E+01	  0.064488977	-1.241600E+01
224	  0.064689375	-6.114000E+00	  0.064689375	-1.494620E+02	  0.064689375	1.801300E+01	  0.064689375	-1.198600E+01
225	  0.064889781	-6.113000E+00	  0.064889781	-1.505520E+02	  0.064889781	1.792800E+01	  0.064889781	-1.154600E+01
226	  0.065090179	-6.112000E+00	  0.065090179	-1.515800E+02	  0.065090179	1.785300E+01	  0.065090179	-1.113200E+01
227	  0.065290578	-6.103000E+00	  0.065290578	-1.525870E+02	  0.065290578	1.776200E+01	  0.065290578	-1.073200E+01
228	  0.065490983	-6.102000E+00	  0.065490983	-1.536340E+02	  0.065490983	1.769200E+01	  0.065490983	-1.031200E+01
229	  0.065691382	-6.095000E+00	  0.065691382	-1.546590E+02	  0.065691382	1.760900E+01	  0.065691382	-9.906000E+00
230	  0.065891780	-6.088000E+00	  0.065891780	-1.556960E+02	  0.065891780	1.752900E+01	  0.065891780	-9.494000E+00
231	  0.066092186	-6.083000E+00	  0.066092186	-1.567110E+02	  0.066092186	1.745700E+01	  0.066092186	-9.093000E+00
232	  0.066292584	-6.075000E+00	  0.066292584	-1.577240E+02	  0.066292584	1.738100E+01	  0.066292584	-8.693000E+00
233	  0.066492982	-6.066000E+00	  0.066492982	-1.587400E+02	  0.066492982	1.730600E+01	  0.066492982	-8.293000E+00
234	  0.066693388	-6.058000E+00	  0.066693388	-1.597440E+02	  0.066693388	1.723500E+01	  0.066693388	-7.899000E+00
235	  0.066893786	-6.052000E+00	  0.066893786	-1.607780E+02	  0.066893786	1.717200E+01	  0.066893786	-7.492000E+00
236	  0.067094192	-6.041000E+00	  0.067094192	-1.617590E+02	  0.067094192	1.710200E+01	  0.067094192	-7.108000E+00
237	  0.067294590	-6.035000E+00	  0.067294590	-1.627890E+02	  0.067294590	1.704300E+01	  0.067294590	-6.704000E+00
238	  0.067494988	-6.026000E+00	  0.067494988	-1.638120E+02	  0.067494988	1.698000E+01	  0.067494988	-6.304000E+00
239	  0.067695394	-6.019000E+00	  0.067695394	-1.648270E+02	  0.067695394	1.692600E+01	  0.067695394	-5.907000E+00
240	  0.067895792	-6.013000E+00	  0.067895792	-1.658650E+02	  0.067895792	1.687500E+01	  0.067895792	-5.502000E+00
241	  0.068096191	-6.009000E+00	  0.068096191	-1.668650E+02	  0.068096191	1.683300E+01	  0.068096191	-5.111000E+00
242	  0.068296596	-6.001000E+00	  0.068296596	-1.679060E+02	  0.068296596	1.678300E+01	  0.068296596	-4.705000E+00
243	  0.068496995	-5.999000E+00	  0.068496995	-1.689210E+02	  0.068496995	1.675200E+01	  0.068496995	-4.309000E+00
244	  0.068697393	-5.991000E+00	  0.068697393	-1.699330E+02	  0.068697393	1.670500E+01	  0.068697393	-3.915000E+00
245	  0.068897791	-5.985000E+00	  0.068897791	-1.709630E+02	  0.068897791	1.666900E+01	  0.068897791	-3.514000E+00
246	  0.069098189	-5.978000E+00	  0.069098189	-1.719910E+02	  0.069098189	1.663100E+01	  0.069098189	-3.114000E+00
247	  0.069298595	-5.972000E+00	  0.069298595	-1.730220E+02	  0.069298595	1.659800E+01	  0.069298595	-2.713000E+00
248	  0.069498993	-5.970000E+00	  0.069498993	-1.740460E+02	  0.069498993	1.657800E+01	  0.069498993	-2.314000E+00
249	  0.069699399	-5.969000E+00	  0.069699399	-1.750790E+02	  0.069699399	1.656300E+01	  0.069699399	-1.913000E+00
250	  0.069899797	-5.963000E+00	  0.069899797	-1.761020E+02	  0.069899797	1.653800E+01	  0.069899797	-1.515000E+00
251	  0.070100196	-5.961000E+00	  0.070100196	-1.770900E+02	  0.070100196	1.652500E+01	  0.070100196	-1.131000E+00
252	  0.070300601	-5.958000E+00	  0.070300601	-1.781060E+02	  0.070300601	1.651200E+01	  0.070300601	-7.360000E-01
253	  0.070501000	-5.954000E+00	  0.070501000	-1.791190E+02	  0.070501000	1.649700E+01	  0.070501000	-3.420000E-01
254	  0.070701398	-5.953000E+00	  0.070701398	1.798880E+02	  0.070701398	1.649400E+01	  0.070701398	4.300000E-02
255	  0.070901804	-5.950000E+00	  0.070901804	1.788830E+02	  0.070901804	1.648700E+01	  0.070901804	4.340000E-01
256	  0.071102202	-5.950000E+00	  0.071102202	1.778780E+02	  0.071102202	1.649200E+01	  0.071102202	8.250000E-01
257	  0.071302600	-5.946000E+00	  0.071302600	1.768580E+02	  0.071302600	1.648700E+01	  0.071302600	1.221000E+00
258	  0.071503006	-5.948000E+00	  0.071503006	1.758780E+02	  0.071503006	1.650100E+01	  0.071503006	1.603000E+00
259	  0.071703404	-5.947000E+00	  0.071703404	1.748970E+02	  0.071703404	1.650900E+01	  0.071703404	1.985000E+00
260	  0.071903802	-5.949000E+00	  0.071903802	1.739070E+02	  0.071903802	1.652600E+01	  0.071903802	2.370000E+00
261	  0.072104208	-5.950000E+00	  0.072104208	1.729520E+02	  0.072104208	1.654300E+01	  0.072104208	2.742000E+00
262	  0.072304606	-5.951000E+00	  0.072304606	1.719740E+02	  0.072304606	1.656000E+01	  0.072304606	3.124000E+00
263	  0.072505005	-5.952000E+00	  0.072505005	1.710250E+02	  0.072505005	1.658300E+01	  0.072505005	3.494000E+00
264	  0.072705410	-5.956000E+00	  0.072705410	1.700460E+02	  0.072705410	1.661300E+01	  0.072705410	3.876000E+00
265	  0.072905809	-5.955000E+00	  0.072905809	1.690630E+02	  0.072905809	1.663500E+01	  0.072905809	4.260000E+00
266	  0.073106214	-5.960000E+00	  0.073106214	1.681090E+02	  0.073106214	1.667200E+01	  0.073106214	4.633000E+00
267	  0.073306613	-5.965000E+00	  0.073306613	1.671590E+02	  0.073306613	1.671200E+01	  0.073306613	5.004000E+00
268	  0.073507011	-5.968000E+00	  0.073507011	1.662000E+02	  0.073507011	1.674700E+01	  0.073507011	5.380000E+00
269	  0.073707417	-5.976000E+00	  0.073707417	1.652650E+02	  0.073707417	1.680000E+01	  0.073707417	5.745000E+00
270	  0.073907815	-5.977000E+00	  0.073907815	1.643180E+02	  0.073907815	1.683400E+01	  0.073907815	6.117000E+00
271	  0.074108213	-5.982000E+00	  0.074108213	1.633780E+02	  0.074108213	1.688300E+01	  0.074108213	6.486000E+00
272	  0.074308619	-5.988000E+00	  0.074308619	1.624560E+02	  0.074308619	1.693500E+01	  0.074308619	6.848000E+00
273	  0.074509017	-5.997000E+00	  0.074509017	1.614880E+02	  0.074509017	1.699800E+01	  0.074509017	7.227000E+00
274	  0.074709415	-6.002000E+00	  0.074709415	1.605650E+02	  0.074709415	1.705100E+01	  0.074709415	7.591000E+00
275	  0.074909821	-6.009000E+00	  0.074909821	1.596210E+02	  0.074909821	1.711300E+01	  0.074909821	7.963000E+00
276	  0.075110219	-6.013000E+00	  0.075110219	1.586860E+02	  0.075110219	1.717000E+01	  0.075110219	8.332000E+00
277	  0.075310618	-6.021000E+00	  0.075310618	1.577740E+02	  0.075310618	1.723800E+01	  0.075310618	8.692000E+00
278	  0.075511023	-6.026000E+00	  0.075511023	1.568540E+02	  0.075511023	1.729900E+01	  0.075511023	9.056000E+00
279	  0.075711422	-6.034000E+00	  0.075711422	1.559420E+02	  0.075711422	1.737300E+01	  0.075711422	9.417000E+00
280	  0.075911827	-6.040000E+00	  0.075911827	1.550310E+02	  0.075911827	1.744200E+01	  0.075911827	9.779000E+00
281	  0.076112226	-6.045000E+00	  0.076112226	1.541370E+02	  0.076112226	1.750900E+01	  0.076112226	1.013400E+01
282	  0.076312624	-6.056000E+00	  0.076312624	1.532060E+02	  0.076312624	1.759600E+01	  0.076312624	1.050300E+01
283	  0.076513030	-6.065000E+00	  0.076513030	1.522950E+02	  0.076513030	1.768200E+01	  0.076513030	1.086600E+01
284	  0.076713428	-6.075000E+00	  0.076713428	1.513930E+02	  0.076713428	1.776900E+01	  0.076713428	1.122500E+01
285	  0.076913826	-6.083000E+00	  0.076913826	1.504700E+02	  0.076913826	1.785600E+01	  0.076913826	1.159300E+01
286	  0.077114232	-6.095000E+00	  0.077114232	1.495740E+02	  0.077114232	1.795400E+01	  0.077114232	1.195000E+01
287	  0.077314630	-6.102000E+00	  0.077314630	1.486820E+02	  0.077314630	1.804100E+01	  0.077314630	1.230800E+01
288	  0.077515028	-6.111000E+00	  0.077515028	1.477910E+02	  0.077515028	1.813400E+01	  0.077515028	1.266600E+01
289	  0.077715434	-6.124000E+00	  0.077715434	1.469250E+02	  0.077715434	1.824000E+01	  0.077715434	1.301100E+01
290	  0.077915832	-6.136000E+00	  0.077915832	1.460340E+02	  0.077915832	1.834800E+01	  0.077915832	1.336800E+01
291	  0.078116231	-6.150000E+00	  0.078116231	1.451460E+02	  0.078116231	1.846400E+01	  0.078116231	1.372400E+01
292	  0.078316636	-6.162000E+00	  0.078316636	1.442590E+02	  0.078316636	1.857400E+01	  0.078316636	1.408100E+01
293	  0.078517035	-6.178000E+00	  0.078517035	1.433760E+02	  0.078517035	1.869900E+01	  0.078517035	1.443400E+01
294	  0.078717433	-6.190000E+00	  0.078717433	1.424740E+02	  0.078717433	1.881900E+01	  0.078717433	1.479800E+01
295	  0.078917839	-6.205000E+00	  0.078917839	1.415970E+02	  0.078917839	1.894500E+01	  0.078917839	1.515100E+01
296	  0.079118237	-6.219000E+00	  0.079118237	1.407400E+02	  0.079118237	1.907100E+01	  0.079118237	1.549700E+01
297	  0.079318643	-6.235000E+00	  0.079318643	1.398900E+02	  0.079318643	1.920300E+01	  0.079318643	1.583900E+01
298	  0.079519041	-6.252000E+00	  0.079519041	1.390150E+02	  0.079519041	1.934500E+01	  0.079519041	1.619100E+01
299	  0.079719439	-6.262000E+00	  0.079719439	1.381600E+02	  0.079719439	1.946800E+01	  0.079719439	1.654000E+01
300	  0.079919845	-6.284000E+00	  0.079919845	1.372830E+02	  0.079919845	1.962900E+01	  0.079919845	1.689000E+01
301	  0.080120243	-6.297000E+00	  0.080120243	1.363920E+02	  0.080120243	1.976900E+01	  0.080120243	1.725400E+01
302	  0.080320641	-6.315000E+00	  0.080320641	1.355430E+02	  0.080320641	1.992000E+01	  0.080320641	1.759700E+01
303	  0.080521047	-6.326000E+00	  0.080521047	1.346690E+02	  0.080521047	2.006100E+01	  0.080521047	1.795600E+01
304	  0.080721445	-6.346000E+00	  0.080721445	1.338050E+02	  0.080721445	2.022500E+01	  0.080721445	1.830600E+01
305	  0.080921844	-6.364000E+00	  0.080921844	1.329580E+02	  0.080921844	2.038700E+01	  0.080921844	1.864900E+01
306	  0.081122249	-6.376000E+00	  0.081122249	1.321400E+02	  0.081122249	2.053200E+01	  0.081122249	1.898500E+01
307	  0.081322648	-6.399000E+00	  0.081322648	1.312980E+02	  0.081322648	2.071100E+01	  0.081322648	1.932400E+01
308	  0.081523046	-6.415000E+00	  0.081523046	1.304540E+02	  0.081523046	2.087600E+01	  0.081523046	1.966900E+01
309	  0.081723452	-6.432000E+00	  0.081723452	1.295960E+02	  0.081723452	2.105000E+01	  0.081723452	2.002000E+01
310	  0.081923850	-6.445000E+00	  0.081923850	1.287750E+02	  0.081923850	2.120700E+01	  0.081923850	2.036100E+01
311	  0.082124248	-6.463000E+00	  0.082124248	1.279510E+02	  0.082124248	2.138500E+01	  0.082124248	2.069700E+01
312	  0.082324654	-6.479000E+00	  0.082324654	1.271090E+02	  0.082324654	2.156400E+01	  0.082324654	2.104400E+01
313	  0.082525052	-6.502000E+00	  0.082525052	1.263230E+02	  0.082525052	2.175300E+01	  0.082525052	2.136100E+01
314	  0.082725458	-6.519000E+00	  0.082725458	1.254980E+02	  0.082725458	2.193700E+01	  0.082725458	2.170000E+01
315	  0.082925856	-6.541000E+00	  0.082925856	1.247230E+02	  0.082925856	2.213300E+01	  0.082925856	2.201200E+01
316	  0.083126254	-6.560000E+00	  0.083126254	1.238990E+02	  0.083126254	2.233000E+01	  0.083126254	2.235000E+01
317	  0.083326660	-6.583000E+00	  0.083326660	1.230860E+02	  0.083326660	2.253900E+01	  0.083326660	2.267800E+01
318	  0.083527058	-6.602000E+00	  0.083527058	1.222930E+02	  0.083527058	2.273600E+01	  0.083527058	2.300300E+01
319	  0.083727457	-6.628000E+00	  0.083727457	1.215120E+02	  0.083727457	2.295600E+01	  0.083727457	2.331400E+01
320	  0.083927862	-6.649000E+00	  0.083927862	1.207430E+02	  0.083927862	2.316300E+01	  0.083927862	2.362600E+01
321	  0.084128261	-6.674000E+00	  0.084128261	1.199720E+02	  0.084128261	2.338300E+01	  0.084128261	2.393400E+01
322	  0.084328659	-6.703000E+00	  0.084328659	1.192310E+02	  0.084328659	2.361400E+01	  0.084328659	2.422300E+01
323	  0.084529065	-6.725000E+00	  0.084529065	1.184550E+02	  0.084529065	2.383400E+01	  0.084529065	2.453700E+01
324	  0.084729463	-6.756000E+00	  0.084729463	1.176870E+02	  0.084729463	2.408500E+01	  0.084729463	2.483400E+01
325	  0.084929854	-6.785000E+00	  0.084929854	1.169430E+02	  0.084929854	2.432600E+01	  0.084929854	2.512300E+01
326	  0.085130259	-6.811000E+00	  0.085130259	1.161750E+02	  0.085130259	2.456700E+01	  0.085130259	2.542700E+01
327	  0.085330658	-6.839000E+00	  0.085330658	1.154350E+02	  0.085330658	2.481300E+01	  0.085330658	2.571500E+01
328	  0.085531056	-6.871000E+00	  0.085531056	1.146770E+02	  0.085531056	2.507700E+01	  0.085531056	2.600400E+01
329	  0.085731462	-6.903000E+00	  0.085731462	1.139290E+02	  0.085731462	2.534300E+01	  0.085731462	2.628900E+01
330	  0.085931860	-6.932000E+00	  0.085931860	1.132130E+02	  0.085931860	2.559500E+01	  0.085931860	2.656300E+01
331	  0.086132258	-6.965000E+00	  0.086132258	1.125190E+02	  0.086132258	2.585900E+01	  0.086132258	2.681900E+01
332	  0.086332664	-6.999000E+00	  0.086332664	1.118180E+02	  0.086332664	2.613200E+01	  0.086332664	2.707600E+01
333	  0.086533062	-7.026000E+00	  0.086533062	1.111000E+02	  0.086533062	2.638900E+01	  0.086533062	2.735100E+01
334	  0.086733460	-7.059000E+00	  0.086733460	1.104190E+02	  0.086733460	2.665900E+01	  0.086733460	2.759900E+01
335	  0.086933866	-7.088000E+00	  0.086933866	1.097250E+02	  0.086933866	2.692500E+01	  0.086933866	2.785900E+01
336	  0.087134264	-7.114000E+00	  0.087134264	1.090610E+02	  0.087134264	2.717600E+01	  0.087134264	2.810900E+01
337	  0.087334670	-7.144000E+00	  0.087334670	1.083910E+02	  0.087334670	2.744400E+01	  0.087334670	2.835500E+01
338	  0.087535068	-7.169000E+00	  0.087535068	1.077670E+02	  0.087535068	2.769000E+01	  0.087535068	2.858600E+01
339	  0.087735467	-7.195000E+00	  0.087735467	1.071130E+02	  0.087735467	2.794900E+01	  0.087735467	2.882900E+01
340	  0.087935872	-7.220000E+00	  0.087935872	1.064780E+02	  0.087935872	2.820100E+01	  0.087935872	2.906600E+01
341	  0.088136271	-7.235000E+00	  0.088136271	1.058010E+02	  0.088136271	2.844000E+01	  0.088136271	2.933900E+01
342	  0.088336669	-7.252000E+00	  0.088336669	1.051580E+02	  0.088336669	2.868100E+01	  0.088336669	2.959100E+01
343	  0.088537075	-7.262000E+00	  0.088537075	1.045070E+02	  0.088537075	2.890500E+01	  0.088537075	2.986200E+01
344	  0.088737473	-7.270000E+00	  0.088737473	1.038510E+02	  0.088737473	2.912700E+01	  0.088737473	3.013900E+01
345	  0.088937871	-7.284000E+00	  0.088937871	1.031430E+02	  0.088937871	2.938600E+01	  0.088937871	3.042800E+01
346	  0.089138277	-7.298000E+00	  0.089138277	1.024710E+02	  0.089138277	2.963900E+01	  0.089138277	3.070000E+01
347	  0.089338675	-7.310000E+00	  0.089338675	1.017870E+02	  0.089338675	2.989400E+01	  0.089338675	3.098100E+01
348	  0.089539073	-7.324000E+00	  0.089539073	1.010830E+02	  0.089539073	3.016400E+01	  0.089539073	3.126600E+01
349	  0.089739479	-7.340000E+00	  0.089739479	1.004060E+02	  0.089739479	3.043600E+01	  0.089739479	3.153400E+01
350	  0.089939877	-7.354000E+00	  0.089939877	9.971200E+01	  0.089939877	3.071500E+01	  0.089939877	3.181200E+01
351	  0.090140276	-7.375000E+00	  0.090140276	9.903900E+01	  0.090140276	3.100500E+01	  0.090140276	3.206800E+01
352	  0.090340681	-7.397000E+00	  0.090340681	9.834300E+01	  0.090340681	3.131500E+01	  0.090340681	3.233000E+01
353	  0.090541080	-7.420000E+00	  0.090541080	9.765900E+01	  0.090541080	3.162600E+01	  0.090541080	3.258100E+01
354	  0.090741485	-7.443000E+00	  0.090741485	9.699700E+01	  0.090741485	3.193500E+01	  0.090741485	3.282100E+01
355	  0.090941884	-7.471000E+00	  0.090941884	9.635600E+01	  0.090941884	3.225300E+01	  0.090941884	3.304000E+01
356	  0.091142282	-7.501000E+00	  0.091142282	9.571100E+01	  0.091142282	3.258300E+01	  0.091142282	3.325100E+01
357	  0.091342688	-7.533000E+00	  0.091342688	9.504800E+01	  0.091342688	3.293000E+01	  0.091342688	3.346600E+01
358	  0.091543086	-7.558000E+00	  0.091543086	9.442300E+01	  0.091543086	3.324600E+01	  0.091543086	3.367600E+01
359	  0.091743484	-7.588000E+00	  0.091743484	9.377900E+01	  0.091743484	3.358800E+01	  0.091743484	3.388100E+01
360	  0.091943890	-7.619000E+00	  0.091943890	9.311100E+01	  0.091943890	3.394500E+01	  0.091943890	3.409300E+01
361	  0.092144288	-7.651000E+00	  0.092144288	9.246800E+01	  0.092144288	3.429900E+01	  0.092144288	3.428900E+01
362	  0.092344686	-7.684000E+00	  0.092344686	9.184500E+01	  0.092344686	3.465200E+01	  0.092344686	3.446900E+01
363	  0.092545092	-7.716000E+00	  0.092545092	9.124300E+01	  0.092545092	3.499600E+01	  0.092545092	3.464100E+01
364	  0.092745490	-7.750000E+00	  0.092745490	9.060400E+01	  0.092745490	3.536300E+01	  0.092745490	3.482300E+01
365	  0.092945889	-7.790000E+00	  0.092945889	9.003700E+01	  0.092945889	3.572200E+01	  0.092945889	3.495100E+01
366	  0.093146294	-7.823000E+00	  0.093146294	8.941400E+01	  0.093146294	3.608900E+01	  0.093146294	3.512000E+01
367	  0.093346693	-7.858000E+00	  0.093346693	8.880500E+01	  0.093346693	3.645800E+01	  0.093346693	3.527500E+01
368	  0.093547091	-7.893000E+00	  0.093547091	8.820500E+01	  0.093547091	3.682600E+01	  0.093547091	3.542300E+01
369	  0.093747497	-7.931000E+00	  0.093747497	8.758300E+01	  0.093747497	3.721700E+01	  0.093747497	3.556500E+01
370	  0.093947895	-7.962000E+00	  0.093947895	8.698200E+01	  0.093947895	3.758000E+01	  0.093947895	3.572100E+01
371	  0.094148301	-7.997000E+00	  0.094148301	8.638900E+01	  0.094148301	3.795700E+01	  0.094148301	3.585400E+01
372	  0.094348699	-8.037000E+00	  0.094348699	8.580200E+01	  0.094348699	3.834300E+01	  0.094348699	3.596800E+01
373	  0.094549097	-8.074000E+00	  0.094549097	8.521600E+01	  0.094549097	3.872600E+01	  0.094549097	3.608600E+01
374	  0.094749503	-8.108000E+00	  0.094749503	8.465100E+01	  0.094749503	3.909300E+01	  0.094749503	3.620200E+01
375	  0.094949901	-8.139000E+00	  0.094949901	8.407900E+01	  0.094949901	3.945900E+01	  0.094949901	3.632600E+01
376	  0.095150299	-8.172000E+00	  0.095150299	8.353500E+01	  0.095150299	3.981800E+01	  0.095150299	3.643200E+01
377	  0.095350705	-8.204000E+00	  0.095350705	8.296300E+01	  0.095350705	4.019100E+01	  0.095350705	3.654700E+01
378	  0.095551103	-8.237000E+00	  0.095551103	8.237000E+01	  0.095551103	4.058100E+01	  0.095551103	3.666400E+01
379	  0.095751502	-8.267000E+00	  0.095751502	8.185300E+01	  0.095751502	4.092800E+01	  0.095751502	3.675600E+01
380	  0.095951907	-8.297000E+00	  0.095951907	8.130600E+01	  0.095951907	4.129000E+01	  0.095951907	3.686000E+01
381	  0.096152306	-8.334000E+00	  0.096152306	8.078400E+01	  0.096152306	4.166000E+01	  0.096152306	3.692500E+01
382	  0.096352704	-8.367000E+00	  0.096352704	8.029500E+01	  0.096352704	4.200500E+01	  0.096352704	3.698600E+01
383	  0.096553110	-8.392000E+00	  0.096553110	7.978900E+01	  0.096553110	4.234200E+01	  0.096553110	3.708000E+01
384	  0.096753508	-8.425000E+00	  0.096753508	7.931000E+01	  0.096753508	4.268500E+01	  0.096753508	3.713400E+01
385	  0.096953906	-8.453000E+00	  0.096953906	7.882400E+01	  0.096953906	4.302000E+01	  0.096953906	3.720500E+01
386	  0.097154312	-8.483000E+00	  0.097154312	7.832800E+01	  0.097154312	4.336700E+01	  0.097154312	3.727000E+01
387	  0.097354710	-8.518000E+00	  0.097354710	7.792300E+01	  0.097354710	4.367900E+01	  0.097354710	3.727900E+01
388	  0.097555116	-8.544000E+00	  0.097555116	7.746900E+01	  0.097555116	4.399600E+01	  0.097555116	3.733900E+01
389	  0.097755514	-8.577000E+00	  0.097755514	7.703600E+01	  0.097755514	4.431800E+01	  0.097755514	3.736000E+01
390	  0.097955912	-8.610000E+00	  0.097955912	7.659200E+01	  0.097955912	4.464900E+01	  0.097955912	3.738400E+01
391	  0.098156318	-8.638000E+00	  0.098156318	7.619800E+01	  0.098156318	4.494200E+01	  0.098156318	3.740300E+01
392	  0.098356716	-8.666000E+00	  0.098356716	7.579300E+01	  0.098356716	4.524100E+01	  0.098356716	3.742600E+01
393	  0.098557115	-8.695000E+00	  0.098557115	7.537100E+01	  0.098557115	4.555100E+01	  0.098557115	3.745000E+01
394	  0.098757520	-8.728000E+00	  0.098757520	7.496200E+01	  0.098757520	4.586400E+01	  0.098757520	3.745100E+01
395	  0.098957919	-8.760000E+00	  0.098957919	7.456200E+01	  0.098957919	4.617100E+01	  0.098957919	3.744700E+01
396	  0.099158317	-8.785000E+00	  0.099158317	7.419000E+01	  0.099158317	4.644600E+01	  0.099158317	3.746200E+01
397	  0.099358723	-8.818000E+00	  0.099358723	7.380500E+01	  0.099358723	4.674700E+01	  0.099358723	3.744600E+01
398	  0.099559121	-8.851000E+00	  0.099559121	7.343600E+01	  0.099559121	4.703800E+01	  0.099559121	3.742100E+01
399	  0.099759519	-8.875000E+00	  0.099759519	7.305900E+01	  0.099759519	4.731600E+01	  0.099759519	3.743500E+01
400	  0.099959925	-8.908000E+00	  0.099959925	7.269600E+01	  0.099959925	4.760400E+01	  0.099959925	3.740400E+01
401	  0.100160323	-8.934000E+00	  0.100160323	7.227900E+01	  0.100160323	4.791300E+01	  0.100160323	3.741400E+01
402	  0.100360721	-8.956000E+00	  0.100360721	7.188900E+01	  0.100360721	4.819800E+01	  0.100360721	3.743100E+01
403	  0.100561127	-8.990000E+00	  0.100561127	7.154900E+01	  0.100561127	4.847400E+01	  0.100561127	3.738100E+01
404	  0.100761525	-9.006000E+00	  0.100761525	7.115000E+01	  0.100761525	4.875500E+01	  0.100761525	3.742200E+01
405	  0.100961931	-9.032000E+00	  0.100961931	7.077600E+01	  0.100961931	4.903900E+01	  0.100961931	3.741100E+01
406	  0.101162329	-9.056000E+00	  0.101162329	7.041500E+01	  0.101162329	4.931300E+01	  0.101162329	3.740100E+01
407	  0.101362728	-9.075000E+00	  0.101362728	7.006200E+01	  0.101362728	4.957200E+01	  0.101362728	3.741100E+01
408	  0.101563133	-9.086000E+00	  0.101563133	6.974100E+01	  0.101563133	4.979800E+01	  0.101563133	3.744600E+01
409	  0.101763532	-9.112000E+00	  0.101763532	6.937300E+01	  0.101763532	5.008000E+01	  0.101763532	3.742400E+01
410	  0.101963930	-9.126000E+00	  0.101963930	6.896300E+01	  0.101963930	5.037100E+01	  0.101963930	3.746200E+01
411	  0.102164328	-9.137000E+00	  0.102164328	6.858100E+01	  0.102164328	5.064200E+01	  0.102164328	3.750200E+01
412	  0.102364726	-9.148000E+00	  0.102364726	6.824100E+01	  0.102364726	5.088400E+01	  0.102364726	3.753600E+01
413	  0.102565125	-9.156000E+00	  0.102565125	6.786600E+01	  0.102565125	5.114700E+01	  0.102565125	3.758600E+01
414	  0.102765530	-9.158000E+00	  0.102765530	6.753800E+01	  0.102765530	5.137100E+01	  0.102765530	3.765000E+01
415	  0.102965929	-9.164000E+00	  0.102965929	6.716100E+01	  0.102965929	5.163600E+01	  0.102965929	3.770500E+01
416	  0.103166327	-9.168000E+00	  0.103166327	6.681200E+01	  0.103166327	5.187800E+01	  0.103166327	3.776500E+01
417	  0.103366733	-9.169000E+00	  0.103366733	6.645100E+01	  0.103366733	5.212700E+01	  0.103366733	3.783900E+01
418	  0.103567131	-9.162000E+00	  0.103567131	6.608100E+01	  0.103567131	5.237300E+01	  0.103567131	3.794800E+01
419	  0.103767529	-9.171000E+00	  0.103767529	6.568800E+01	  0.103767529	5.265900E+01	  0.103767529	3.798800E+01
420	  0.103967935	-9.157000E+00	  0.103967935	6.536500E+01	  0.103967935	5.286700E+01	  0.103967935	3.811500E+01
421	  0.104168333	-9.152000E+00	  0.104168333	6.502400E+01	  0.104168333	5.310200E+01	  0.104168333	3.820600E+01
422	  0.104368731	-9.143000E+00	  0.104368731	6.466000E+01	  0.104368731	5.334900E+01	  0.104368731	3.832100E+01
423	  0.104569137	-9.136000E+00	  0.104569137	6.434200E+01	  0.104569137	5.356700E+01	  0.104569137	3.841700E+01
424	  0.104769535	-9.127000E+00	  0.104769535	6.398000E+01	  0.104769535	5.381700E+01	  0.104769535	3.852800E+01
425	  0.104969934	-9.115000E+00	  0.104969934	6.353500E+01	  0.104969934	5.412600E+01	  0.104969934	3.866800E+01
426	  0.105170339	-9.098000E+00	  0.105170339	6.317500E+01	  0.105170339	5.436900E+01	  0.105170339	3.881900E+01
427	  0.105370738	-9.087000E+00	  0.105370738	6.281800E+01	  0.105370738	5.461900E+01	  0.105370738	3.893900E+01
428	  0.105571143	-9.075000E+00	  0.105571143	6.246000E+01	  0.105571143	5.487300E+01	  0.105571143	3.905900E+01
429	  0.105771542	-9.058000E+00	  0.105771542	6.198900E+01	  0.105771542	5.520700E+01	  0.105771542	3.922700E+01
430	  0.105971940	-9.049000E+00	  0.105971940	6.161500E+01	  0.105971940	5.548100E+01	  0.105971940	3.933600E+01
431	  0.106172346	-9.028000E+00	  0.106172346	6.120700E+01	  0.106172346	5.577000E+01	  0.106172346	3.951200E+01
432	  0.106372744	-9.010000E+00	  0.106372744	6.075900E+01	  0.106372744	5.609700E+01	  0.106372744	3.967700E+01
433	  0.106573142	-8.996000E+00	  0.106573142	6.034500E+01	  0.106573142	5.640500E+01	  0.106573142	3.981300E+01
434	  0.106773548	-8.977000E+00	  0.106773548	5.991000E+01	  0.106773548	5.672900E+01	  0.106773548	3.997900E+01
435	  0.106973946	-8.953000E+00	  0.106973946	5.943500E+01	  0.106973946	5.708300E+01	  0.106973946	4.017800E+01
436	  0.107174344	-8.936000E+00	  0.107174344	5.897200E+01	  0.107174344	5.743900E+01	  0.107174344	4.033700E+01
437	  0.107374750	-8.920000E+00	  0.107374750	5.845200E+01	  0.107374750	5.784600E+01	  0.107374750	4.049800E+01
438	  0.107575148	-8.899000E+00	  0.107575148	5.797700E+01	  0.107575148	5.821800E+01	  0.107575148	4.067600E+01
439	  0.107775547	-8.870000E+00	  0.107775547	5.743300E+01	  0.107775547	5.864600E+01	  0.107775547	4.090500E+01
440	  0.107975952	-8.853000E+00	  0.107975952	5.694500E+01	  0.107975952	5.904200E+01	  0.107975952	4.106300E+01
441	  0.108176351	-8.831000E+00	  0.108176351	5.638000E+01	  0.108176351	5.950600E+01	  0.108176351	4.124900E+01
442	  0.108376749	-8.810000E+00	  0.108376749	5.584000E+01	  0.108376749	5.995600E+01	  0.108376749	4.143100E+01
443	  0.108577155	-8.785000E+00	  0.108577155	5.528700E+01	  0.108577155	6.042200E+01	  0.108577155	4.163200E+01
444	  0.108777553	-8.774000E+00	  0.108777553	5.465800E+01	  0.108777553	6.097000E+01	  0.108777553	4.175900E+01
445	  0.108977959	-8.742000E+00	  0.108977959	5.406100E+01	  0.108977959	6.148600E+01	  0.108977959	4.200000E+01
446	  0.109178357	-8.726000E+00	  0.109178357	5.342000E+01	  0.109178357	6.206000E+01	  0.109178357	4.214400E+01
447	  0.109378755	-8.709000E+00	  0.109378755	5.277900E+01	  0.109378755	6.264000E+01	  0.109378755	4.229400E+01
448	  0.109579161	-8.690000E+00	  0.109579161	5.211000E+01	  0.109579161	6.325600E+01	  0.109579161	4.245000E+01
449	  0.109779559	-8.663000E+00	  0.109779559	5.148400E+01	  0.109779559	6.383800E+01	  0.109779559	4.264500E+01
450	  0.109979957	-8.645000E+00	  0.109979957	5.081200E+01	  0.109979957	6.447700E+01	  0.109979957	4.278500E+01
451	  0.110180363	-8.632000E+00	  0.110180363	5.013300E+01	  0.110180363	6.513300E+01	  0.110180363	4.288200E+01
452	  0.110380761	-8.617000E+00	  0.110380761	4.941800E+01	  0.110380761	6.583300E+01	  0.110380761	4.298700E+01
453	  0.110581160	-8.602000E+00	  0.110581160	4.876200E+01	  0.110581160	6.648600E+01	  0.110581160	4.308500E+01
454	  0.110781565	-8.590000E+00	  0.110781565	4.806700E+01	  0.110781565	6.718600E+01	  0.110781565	4.315300E+01
455	  0.110981964	-8.574000E+00	  0.110981964	4.733100E+01	  0.110981964	6.794000E+01	  0.110981964	4.323100E+01
456	  0.111182362	-8.567000E+00	  0.111182362	4.661100E+01	  0.111182362	6.868500E+01	  0.111182362	4.324100E+01
457	  0.111382768	-8.551000E+00	  0.111382768	4.588700E+01	  0.111382768	6.944800E+01	  0.111382768	4.330100E+01
458	  0.111583166	-8.544000E+00	  0.111583166	4.518200E+01	  0.111583166	7.019500E+01	  0.111583166	4.329200E+01
459	  0.111783572	-8.537000E+00	  0.111783572	4.441600E+01	  0.111783572	7.101700E+01	  0.111783572	4.325400E+01
460	  0.111983970	-8.531000E+00	  0.111983970	4.364400E+01	  0.111983970	7.185500E+01	  0.111983970	4.320100E+01
461	  0.112184368	-8.523000E+00	  0.112184368	4.291800E+01	  0.112184368	7.265300E+01	  0.112184368	4.315000E+01
462	  0.112384774	-8.518000E+00	  0.112384774	4.212700E+01	  0.112384774	7.352900E+01	  0.112384774	4.305100E+01
463	  0.112585172	-8.515000E+00	  0.112585172	4.135500E+01	  0.112585172	7.439000E+01	  0.112585172	4.292300E+01
464	  0.112785570	-8.510000E+00	  0.112785570	4.055800E+01	  0.112785570	7.528900E+01	  0.112785570	4.278200E+01
465	  0.112985976	-8.504000E+00	  0.112985976	3.974900E+01	  0.112985976	7.621100E+01	  0.112985976	4.262400E+01
466	  0.113186374	-8.509000E+00	  0.113186374	3.893400E+01	  0.113186374	7.713100E+01	  0.113186374	4.236900E+01
467	  0.113386773	-8.506000E+00	  0.113386773	3.811500E+01	  0.113386773	7.807300E+01	  0.113386773	4.213800E+01
468	  0.113587178	-8.507000E+00	  0.113587178	3.727600E+01	  0.113587178	7.903700E+01	  0.113587178	4.185100E+01
469	  0.113787577	-8.507000E+00	  0.113787577	3.643900E+01	  0.113787577	8.000700E+01	  0.113787577	4.154900E+01
470	  0.113987975	-8.512000E+00	  0.113987975	3.556700E+01	  0.113987975	8.100800E+01	  0.113987975	4.116600E+01
471	  0.114188381	-8.518000E+00	  0.114188381	3.471100E+01	  0.114188381	8.198800E+01	  0.114188381	4.075000E+01
472	  0.114388779	-8.528000E+00	  0.114388779	3.380400E+01	  0.114388779	8.301400E+01	  0.114388779	4.025100E+01
473	  0.114589177	-8.528000E+00	  0.114589177	3.291400E+01	  0.114589177	8.405200E+01	  0.114589177	3.980300E+01
474	  0.114789583	-8.541000E+00	  0.114789583	3.198200E+01	  0.114789583	8.509600E+01	  0.114789583	3.920500E+01
475	  0.114989981	-8.543000E+00	  0.114989981	3.105900E+01	  0.114989981	8.616300E+01	  0.114989981	3.865500E+01
476	  0.115190387	-8.560000E+00	  0.115190387	3.015200E+01	  0.115190387	8.714400E+01	  0.115190387	3.796400E+01
477	  0.115390785	-8.582000E+00	  0.115390785	2.916700E+01	  0.115390785	8.817800E+01	  0.115390785	3.714600E+01
478	  0.115591183	-8.593000E+00	  0.115591183	2.821900E+01	  0.115591183	8.920700E+01	  0.115591183	3.639800E+01
479	  0.115791589	-8.616000E+00	  0.115791589	2.730900E+01	  0.115791589	9.012000E+01	  0.115791589	3.555400E+01
480	  0.115991987	-8.636000E+00	  0.115991987	2.631800E+01	  0.115991987	9.111800E+01	  0.115991987	3.463500E+01
481	  0.116192386	-8.666000E+00	  0.116192386	2.535500E+01	  0.116192386	9.200300E+01	  0.116192386	3.362300E+01
482	  0.116392791	-8.692000E+00	  0.116392791	2.434400E+01	  0.116392791	9.293800E+01	  0.116392791	3.257000E+01
483	  0.116593190	-8.718000E+00	  0.116593190	2.335100E+01	  0.116593190	9.382000E+01	  0.116593190	3.149000E+01
484	  0.116793588	-8.753000E+00	  0.116793588	2.236200E+01	  0.116793588	9.460500E+01	  0.116793588	3.031800E+01
485	  0.116993994	-8.787000E+00	  0.116993994	2.135200E+01	  0.116993994	9.538100E+01	  0.116993994	2.910400E+01
486	  0.117194392	-8.822000E+00	  0.117194392	2.037800E+01	  0.117194392	9.607100E+01	  0.117194392	2.788800E+01
487	  0.117394790	-8.858000E+00	  0.117394790	1.931600E+01	  0.117394790	9.679500E+01	  0.117394790	2.654800E+01
488	  0.117595196	-8.896000E+00	  0.117595196	1.831600E+01	  0.117595196	9.739300E+01	  0.117595196	2.523200E+01
489	  0.117795594	-8.941000E+00	  0.117795594	1.732900E+01	  0.117795594	9.788700E+01	  0.117795594	2.387600E+01
490	  0.117995992	-8.981000E+00	  0.117995992	1.622100E+01	  0.117995992	9.846400E+01	  0.117995992	2.239100E+01
491	  0.118196398	-9.025000E+00	  0.118196398	1.516600E+01	  0.118196398	9.890400E+01	  0.118196398	2.092600E+01
492	  0.118396796	-9.075000E+00	  0.118396796	1.403900E+01	  0.118396796	9.929700E+01	  0.118396796	1.933900E+01
493	  0.118597202	-9.123000E+00	  0.118597202	1.292900E+01	  0.118597202	9.961600E+01	  0.118597202	1.776600E+01
494	  0.118797600	-9.179000E+00	  0.118797600	1.178600E+01	  0.118797600	9.983100E+01	  0.118797600	1.612100E+01
