! Anritsu VNA Master:             	Model: MS2036C/10/77
! SN:             	1601066
! /bd0/18may09/b256.ew.m1.txt
! Existing Calibration Information:
! TYPE:             	Current Settings	Active Cal Settings
! TIME:             	05/09/2018 07:21:09 PM	05/09/2018 07:16:32 PM
! INTERNAL TEMP:    	49.8 C	48.5 C
! # POINTS:         	494	494
! START FREQ:       	20.000 MHz	20.000 MHz
! STOP FREQ:        	118.797 594 MHz	118.797 594 MHz
! SOURCE POWER:     	High	High
! IFBW:             	50 Hz	50 Hz
! AVG FACTOR:       	  1 	  1 
! REF PLANE 1:      	0 mm	0 mm
! REF PLANE 2:      	0 mm	0 mm
! CAL TYPE:         	Full S22	Full S22
! CAL METHOD:       	SOLT	SOLT
! CAL LINE TYPE:    	Coax	Coax
! DUT PORT 1:       	K-Conn(M)	K-Conn(M)
! DUT PORT 2:       	K-Conn(M)	K-Conn(M)
! CAL STATUS:       	OK: Accuracy High	--
! PROP-V:       	0.700
! CABLE LOSS:       	0.000 dB/m
! REF IMPEDANCE:       	50.0
! Trace Specific Parameters:	TR1	TR2	TR3	TR4
! TRACE.#.Y (GRAPH TYPE)	LOG MAG	PHASE	REAL IMPEDANCE	IMAGINARY IMPEDANCE
! TRACE.#.X 	FREQ.GHZ	FREQ.GHZ	FREQ.GHZ	FREQ.GHZ
! S-PARAMETER	S22	S22	S22	S22
! SMOOTH/APERTURE %	0	0	0	0
! WINDOW	NSL	NSL	NSL	NSL
! GATING	OFF	OFF	OFF	OFF
! FGTD	OFF	OFF	OFF	OFF
Marker Information per Trace:	TR1	TR2	TR3	TR4
!MK1	--	"MK1 TR2:  20.000 MHz,PH:-127.10°"	--	--
!MK2	--	--	"MK2 TR3:  70.100 200 MHz,Z:(16.528 ohm, -1.135 ohm)"	--
!MK3	--	--	--	--
!MK4	--	--	--	--
!MK5	--	--	--	--
!MK6	--	--	--	--
!MK7	--	--	--	--
!MK8	--	--	--	--
PNT	TR1.FREQ.GHZ	TR1.LOG MAG.dB	TR2.FREQ.GHZ	TR2.PHASE.deg	TR3.FREQ.GHZ	TR3.REAL IMPEDANCE.ohm	TR4.FREQ.GHZ	TR4.IMAGINARY IMPEDANCE.ohm
1	  0.020000000	-6.370000E-01	  0.020000000	-1.270960E+02	  0.020000000	2.286000E+00	  0.020000000	-2.483400E+01
2	  0.020200402	-6.410000E-01	  0.020200402	-1.285770E+02	  0.020200402	2.273000E+00	  0.020200402	-2.403500E+01
3	  0.020400802	-6.420000E-01	  0.020400802	-1.300520E+02	  0.020400802	2.250000E+00	  0.020400802	-2.324800E+01
4	  0.020601204	-6.470000E-01	  0.020601204	-1.315530E+02	  0.020601204	2.239000E+00	  0.020601204	-2.245700E+01
5	  0.020801604	-6.510000E-01	  0.020801604	-1.331010E+02	  0.020801604	2.225000E+00	  0.020801604	-2.165100E+01
6	  0.021002004	-6.540000E-01	  0.021002004	-1.346410E+02	  0.021002004	2.211000E+00	  0.021002004	-2.085900E+01
7	  0.021202406	-6.580000E-01	  0.021202406	-1.361880E+02	  0.021202406	2.201000E+00	  0.021202406	-2.007100E+01
8	  0.021402806	-6.610000E-01	  0.021402806	-1.377260E+02	  0.021402806	2.186000E+00	  0.021402806	-1.929800E+01
9	  0.021603208	-6.640000E-01	  0.021603208	-1.392590E+02	  0.021603208	2.176000E+00	  0.021603208	-1.853400E+01
10	  0.021803608	-6.690000E-01	  0.021803608	-1.407960E+02	  0.021803608	2.171000E+00	  0.021803608	-1.777600E+01
11	  0.022004008	-6.750000E-01	  0.022004008	-1.423540E+02	  0.022004008	2.169000E+00	  0.022004008	-1.701500E+01
12	  0.022204408	-6.830000E-01	  0.022204408	-1.439330E+02	  0.022204408	2.175000E+00	  0.022204408	-1.625000E+01
13	  0.022404809	-6.890000E-01	  0.022404809	-1.455230E+02	  0.022404809	2.175000E+00	  0.022404809	-1.548700E+01
14	  0.022605211	-6.940000E-01	  0.022605211	-1.471310E+02	  0.022605211	2.169000E+00	  0.022605211	-1.472200E+01
15	  0.022805611	-6.980000E-01	  0.022805611	-1.487250E+02	  0.022805611	2.165000E+00	  0.022805611	-1.397100E+01
16	  0.023006011	-7.080000E-01	  0.023006011	-1.503240E+02	  0.023006011	2.179000E+00	  0.023006011	-1.322200E+01
17	  0.023206413	-7.110000E-01	  0.023206413	-1.519190E+02	  0.023206413	2.174000E+00	  0.023206413	-1.248100E+01
18	  0.023406813	-7.150000E-01	  0.023406813	-1.535290E+02	  0.023406813	2.173000E+00	  0.023406813	-1.173800E+01
19	  0.023607215	-7.250000E-01	  0.023607215	-1.551230E+02	  0.023607215	2.186000E+00	  0.023607215	-1.100800E+01
20	  0.023807615	-7.350000E-01	  0.023807615	-1.567470E+02	  0.023807615	2.204000E+00	  0.023807615	-1.026800E+01
21	  0.024008015	-7.430000E-01	  0.024008015	-1.583920E+02	  0.024008015	2.217000E+00	  0.024008015	-9.523000E+00
22	  0.024208417	-7.530000E-01	  0.024208417	-1.600490E+02	  0.024208417	2.234000E+00	  0.024208417	-8.776000E+00
23	  0.024408817	-7.600000E-01	  0.024408817	-1.617040E+02	  0.024408817	2.244000E+00	  0.024408817	-8.035000E+00
24	  0.024609219	-7.680000E-01	  0.024609219	-1.633750E+02	  0.024609219	2.257000E+00	  0.024609219	-7.290000E+00
25	  0.024809619	-7.780000E-01	  0.024809619	-1.650370E+02	  0.024809619	2.277000E+00	  0.024809619	-6.552000E+00
26	  0.025010020	-7.880000E-01	  0.025010020	-1.667120E+02	  0.025010020	2.299000E+00	  0.025010020	-5.811000E+00
27	  0.025210422	-8.000000E-01	  0.025210422	-1.683870E+02	  0.025210422	2.324000E+00	  0.025210422	-5.073000E+00
28	  0.025410822	-8.130000E-01	  0.025410822	-1.700860E+02	  0.025410822	2.358000E+00	  0.025410822	-4.326000E+00
29	  0.025611224	-8.260000E-01	  0.025611224	-1.717900E+02	  0.025611224	2.389000E+00	  0.025611224	-3.580000E+00
30	  0.025811624	-8.380000E-01	  0.025811624	-1.735090E+02	  0.025811624	2.420000E+00	  0.025811624	-2.828000E+00
31	  0.026012026	-8.510000E-01	  0.026012026	-1.752430E+02	  0.026012026	2.451000E+00	  0.026012026	-2.071000E+00
32	  0.026212426	-8.650000E-01	  0.026212426	-1.769770E+02	  0.026212426	2.490000E+00	  0.026212426	-1.316000E+00
33	  0.026412826	-8.810000E-01	  0.026412826	-1.787450E+02	  0.026412826	2.536000E+00	  0.026412826	-5.460000E-01
34	  0.026613226	-8.960000E-01	  0.026613226	1.795010E+02	  0.026613226	2.578000E+00	  0.026613226	2.160000E-01
35	  0.026813626	-9.130000E-01	  0.026813626	1.777240E+02	  0.026813626	2.627000E+00	  0.026813626	9.900000E-01
36	  0.027014028	-9.320000E-01	  0.027014028	1.759420E+02	  0.027014028	2.683000E+00	  0.027014028	1.765000E+00
37	  0.027214428	-9.500000E-01	  0.027214428	1.741570E+02	  0.027214428	2.739000E+00	  0.027214428	2.543000E+00
38	  0.027414829	-9.680000E-01	  0.027414829	1.723640E+02	  0.027414829	2.797000E+00	  0.027414829	3.326000E+00
39	  0.027615231	-9.880000E-01	  0.027615231	1.705520E+02	  0.027615231	2.861000E+00	  0.027615231	4.118000E+00
40	  0.027815631	-1.009000E+00	  0.027815631	1.687360E+02	  0.027815631	2.930000E+00	  0.027815631	4.913000E+00
41	  0.028016033	-1.030000E+00	  0.028016033	1.669030E+02	  0.028016033	3.001000E+00	  0.028016033	5.718000E+00
42	  0.028216433	-1.052000E+00	  0.028216433	1.650570E+02	  0.028216433	3.077000E+00	  0.028216433	6.532000E+00
43	  0.028416833	-1.076000E+00	  0.028416833	1.632090E+02	  0.028416833	3.160000E+00	  0.028416833	7.350000E+00
44	  0.028617235	-1.098000E+00	  0.028617235	1.613600E+02	  0.028617235	3.242000E+00	  0.028617235	8.172000E+00
45	  0.028817635	-1.123000E+00	  0.028817635	1.595000E+02	  0.028817635	3.333000E+00	  0.028817635	9.002000E+00
46	  0.029018037	-1.148000E+00	  0.029018037	1.576520E+02	  0.029018037	3.427000E+00	  0.029018037	9.831000E+00
47	  0.029218437	-1.174000E+00	  0.029218437	1.557820E+02	  0.029218437	3.530000E+00	  0.029218437	1.067500E+01
48	  0.029418837	-1.202000E+00	  0.029418837	1.538980E+02	  0.029418837	3.639000E+00	  0.029418837	1.153100E+01
49	  0.029619239	-1.228000E+00	  0.029619239	1.520060E+02	  0.029619239	3.748000E+00	  0.029619239	1.239700E+01
50	  0.029819639	-1.257000E+00	  0.029819639	1.501150E+02	  0.029819639	3.869000E+00	  0.029819639	1.326800E+01
51	  0.030020041	-1.284000E+00	  0.030020041	1.482110E+02	  0.030020041	3.987000E+00	  0.030020041	1.415300E+01
52	  0.030220442	-1.311000E+00	  0.030220442	1.463050E+02	  0.030220442	4.112000E+00	  0.030220442	1.504700E+01
53	  0.030420844	-1.339000E+00	  0.030420844	1.444110E+02	  0.030420844	4.241000E+00	  0.030420844	1.594200E+01
54	  0.030621244	-1.369000E+00	  0.030621244	1.425040E+02	  0.030621244	4.384000E+00	  0.030621244	1.685300E+01
55	  0.030821642	-1.402000E+00	  0.030821642	1.405930E+02	  0.030821642	4.540000E+00	  0.030821642	1.777400E+01
56	  0.031022044	-1.434000E+00	  0.031022044	1.386580E+02	  0.031022044	4.700000E+00	  0.031022044	1.871700E+01
57	  0.031222444	-1.463000E+00	  0.031222444	1.367240E+02	  0.031222444	4.859000E+00	  0.031222444	1.967200E+01
58	  0.031422846	-1.497000E+00	  0.031422846	1.347540E+02	  0.031422846	5.040000E+00	  0.031422846	2.065500E+01
59	  0.031623244	-1.530000E+00	  0.031623244	1.327780E+02	  0.031623244	5.226000E+00	  0.031623244	2.165500E+01
60	  0.031823646	-1.565000E+00	  0.031823646	1.307980E+02	  0.031823646	5.425000E+00	  0.031823646	2.266900E+01
61	  0.032024048	-1.602000E+00	  0.032024048	1.288160E+02	  0.032024048	5.644000E+00	  0.032024048	2.369800E+01
62	  0.032224450	-1.640000E+00	  0.032224450	1.268250E+02	  0.032224450	5.873000E+00	  0.032224450	2.474700E+01
63	  0.032424849	-1.677000E+00	  0.032424849	1.248380E+02	  0.032424849	6.111000E+00	  0.032424849	2.581000E+01
64	  0.032625251	-1.715000E+00	  0.032625251	1.228430E+02	  0.032625251	6.362000E+00	  0.032625251	2.689500E+01
65	  0.032825653	-1.756000E+00	  0.032825653	1.207860E+02	  0.032825653	6.643000E+00	  0.032825653	2.803100E+01
66	  0.033026051	-1.794000E+00	  0.033026051	1.187550E+02	  0.033026051	6.925000E+00	  0.033026051	2.917400E+01
67	  0.033226453	-1.834000E+00	  0.033226453	1.167130E+02	  0.033226453	7.229000E+00	  0.033226453	3.034300E+01
68	  0.033426855	-1.876000E+00	  0.033426855	1.146880E+02	  0.033426855	7.555000E+00	  0.033426855	3.152400E+01
69	  0.033627257	-1.919000E+00	  0.033627257	1.126430E+02	  0.033627257	7.904000E+00	  0.033627257	3.273800E+01
70	  0.033827655	-1.963000E+00	  0.033827655	1.106000E+02	  0.033827655	8.277000E+00	  0.033827655	3.397600E+01
71	  0.034028057	-2.010000E+00	  0.034028057	1.085670E+02	  0.034028057	8.678000E+00	  0.034028057	3.523000E+01
72	  0.034228459	-2.055000E+00	  0.034228459	1.064880E+02	  0.034228459	9.101000E+00	  0.034228459	3.654300E+01
73	  0.034428857	-2.100000E+00	  0.034428857	1.044150E+02	  0.034428857	9.552000E+00	  0.034428857	3.788100E+01
74	  0.034629259	-2.149000E+00	  0.034629259	1.023280E+02	  0.034629259	1.004600E+01	  0.034629259	3.925600E+01
75	  0.034829661	-2.194000E+00	  0.034829661	1.002500E+02	  0.034829661	1.055100E+01	  0.034829661	4.066100E+01
76	  0.035030060	-2.243000E+00	  0.035030060	9.816200E+01	  0.035030060	1.111000E+01	  0.035030060	4.210300E+01
77	  0.035230462	-2.294000E+00	  0.035230462	9.607400E+01	  0.035230462	1.171200E+01	  0.035230462	4.357800E+01
78	  0.035430863	-2.344000E+00	  0.035430863	9.398600E+01	  0.035430863	1.234900E+01	  0.035430863	4.509100E+01
79	  0.035631265	-2.392000E+00	  0.035631265	9.189900E+01	  0.035631265	1.301600E+01	  0.035631265	4.664600E+01
80	  0.035831664	-2.446000E+00	  0.035831664	8.980300E+01	  0.035831664	1.376800E+01	  0.035831664	4.823900E+01
81	  0.036032066	-2.498000E+00	  0.036032066	8.772200E+01	  0.036032066	1.455500E+01	  0.036032066	4.986400E+01
82	  0.036232468	-2.548000E+00	  0.036232468	8.562800E+01	  0.036232468	1.538500E+01	  0.036232468	5.154900E+01
83	  0.036432866	-2.600000E+00	  0.036432866	8.352500E+01	  0.036432866	1.629300E+01	  0.036432866	5.328400E+01
84	  0.036633268	-2.655000E+00	  0.036633268	8.143100E+01	  0.036633268	1.728400E+01	  0.036633268	5.505100E+01
85	  0.036833670	-2.708000E+00	  0.036833670	7.932400E+01	  0.036833670	1.834500E+01	  0.036833670	5.688300E+01
86	  0.037034072	-2.761000E+00	  0.037034072	7.722200E+01	  0.037034072	1.947800E+01	  0.037034072	5.876400E+01
87	  0.037234470	-2.815000E+00	  0.037234470	7.512700E+01	  0.037234470	2.071200E+01	  0.037234470	6.068300E+01
88	  0.037434869	-2.869000E+00	  0.037434869	7.302900E+01	  0.037434869	2.203800E+01	  0.037434869	6.266200E+01
89	  0.037635271	-2.924000E+00	  0.037635271	7.094100E+01	  0.037635271	2.347600E+01	  0.037635271	6.467800E+01
90	  0.037835669	-2.979000E+00	  0.037835669	6.881400E+01	  0.037835669	2.505800E+01	  0.037835669	6.678800E+01
91	  0.038036071	-3.035000E+00	  0.038036071	6.667300E+01	  0.038036071	2.678600E+01	  0.038036071	6.896600E+01
92	  0.038236473	-3.093000E+00	  0.038236473	6.456700E+01	  0.038236473	2.865200E+01	  0.038236473	7.115000E+01
93	  0.038436871	-3.151000E+00	  0.038436871	6.243500E+01	  0.038436871	3.071200E+01	  0.038436871	7.340600E+01
94	  0.038637273	-3.210000E+00	  0.038637273	6.032500E+01	  0.038637273	3.293700E+01	  0.038637273	7.567900E+01
95	  0.038837675	-3.262000E+00	  0.038837675	5.822500E+01	  0.038837675	3.529200E+01	  0.038837675	7.801800E+01
96	  0.039038073	-3.316000E+00	  0.039038073	5.611200E+01	  0.039038073	3.789100E+01	  0.039038073	8.040200E+01
97	  0.039238475	-3.373000E+00	  0.039238475	5.402300E+01	  0.039238475	4.072300E+01	  0.039238475	8.275900E+01
98	  0.039438877	-3.430000E+00	  0.039438877	5.192500E+01	  0.039438877	4.382800E+01	  0.039438877	8.513800E+01
99	  0.039639279	-3.484000E+00	  0.039639279	4.983300E+01	  0.039639279	4.719000E+01	  0.039639279	8.752700E+01
100	  0.039839678	-3.540000E+00	  0.039839678	4.772000E+01	  0.039839678	5.090800E+01	  0.039839678	8.990500E+01
101	  0.040040080	-3.598000E+00	  0.040040080	4.563600E+01	  0.040040080	5.494700E+01	  0.040040080	9.216800E+01
102	  0.040240481	-3.650000E+00	  0.040240481	4.351900E+01	  0.040240481	5.936800E+01	  0.040240481	9.445800E+01
103	  0.040440880	-3.707000E+00	  0.040440880	4.143700E+01	  0.040440880	6.416400E+01	  0.040440880	9.652400E+01
104	  0.040641282	-3.762000E+00	  0.040641282	3.936200E+01	  0.040641282	6.935700E+01	  0.040641282	9.843400E+01
105	  0.040841684	-3.814000E+00	  0.040841684	3.729900E+01	  0.040841684	7.494200E+01	  0.040841684	1.001570E+02
106	  0.041042086	-3.869000E+00	  0.041042086	3.523600E+01	  0.041042086	8.102100E+01	  0.041042086	1.015390E+02
107	  0.041242484	-3.928000E+00	  0.041242484	3.316600E+01	  0.041242484	8.763400E+01	  0.041242484	1.024590E+02
108	  0.041442886	-3.984000E+00	  0.041442886	3.108400E+01	  0.041442886	9.474600E+01	  0.041442886	1.029770E+02
109	  0.041643288	-4.038000E+00	  0.041643288	2.901400E+01	  0.041643288	1.022860E+02	  0.041643288	1.029610E+02
110	  0.041843686	-4.092000E+00	  0.041843686	2.695500E+01	  0.041843686	1.102330E+02	  0.041843686	1.022400E+02
111	  0.042044088	-4.143000E+00	  0.042044088	2.489700E+01	  0.042044088	1.185620E+02	  0.042044088	1.007650E+02
112	  0.042244490	-4.197000E+00	  0.042244490	2.285100E+01	  0.042244490	1.271290E+02	  0.042244490	9.828000E+01
113	  0.042444889	-4.252000E+00	  0.042444889	2.082800E+01	  0.042444889	1.357520E+02	  0.042444889	9.475200E+01
114	  0.042645290	-4.306000E+00	  0.042645290	1.879200E+01	  0.042645290	1.444360E+02	  0.042645290	9.011500E+01
115	  0.042845692	-4.357000E+00	  0.042845692	1.677400E+01	  0.042845692	1.528720E+02	  0.042845692	8.436100E+01
116	  0.043046094	-4.409000E+00	  0.043046094	1.476300E+01	  0.043046094	1.608630E+02	  0.043046094	7.739200E+01
117	  0.043246493	-4.461000E+00	  0.043246493	1.274100E+01	  0.043246493	1.682250E+02	  0.043246493	6.915300E+01
118	  0.043446895	-4.511000E+00	  0.043446895	1.073200E+01	  0.043446895	1.746810E+02	  0.043446895	5.989700E+01
119	  0.043647297	-4.557000E+00	  0.043647297	8.737000E+00	  0.043647297	1.800930E+02	  0.043647297	4.982100E+01
120	  0.043847695	-4.604000E+00	  0.043847695	6.755000E+00	  0.043847695	1.841610E+02	  0.043847695	3.901800E+01
121	  0.044048097	-4.654000E+00	  0.044048097	4.782000E+00	  0.044048097	1.866480E+02	  0.044048097	2.769500E+01
122	  0.044248499	-4.695000E+00	  0.044248499	2.801000E+00	  0.044248499	1.879490E+02	  0.044248499	1.619100E+01
123	  0.044448901	-4.741000E+00	  0.044448901	8.540000E-01	  0.044448901	1.875910E+02	  0.044448901	4.881000E+00
124	  0.044649299	-4.782000E+00	  0.044649299	-1.107000E+00	  0.044649299	1.859440E+02	  0.044649299	-6.205000E+00
125	  0.044849701	-4.826000E+00	  0.044849701	-3.053000E+00	  0.044849701	1.829290E+02	  0.044849701	-1.666400E+01
126	  0.045050103	-4.867000E+00	  0.045050103	-5.001000E+00	  0.045050103	1.788630E+02	  0.045050103	-2.641800E+01
127	  0.045250501	-4.908000E+00	  0.045250501	-6.929000E+00	  0.045250501	1.738820E+02	  0.045250501	-3.521300E+01
128	  0.045450903	-4.950000E+00	  0.045450903	-8.854000E+00	  0.045450903	1.681590E+02	  0.045450903	-4.304000E+01
129	  0.045651305	-4.992000E+00	  0.045651305	-1.075600E+01	  0.045651305	1.619720E+02	  0.045651305	-4.980100E+01
130	  0.045851704	-5.029000E+00	  0.045851704	-1.265500E+01	  0.045851704	1.555740E+02	  0.045851704	-5.569700E+01
131	  0.046052102	-5.069000E+00	  0.046052102	-1.455700E+01	  0.046052102	1.488920E+02	  0.046052102	-6.062200E+01
132	  0.046252504	-5.107000E+00	  0.046252504	-1.641500E+01	  0.046252504	1.423290E+02	  0.046252504	-6.462000E+01
133	  0.046452906	-5.143000E+00	  0.046452906	-1.824600E+01	  0.046452906	1.359170E+02	  0.046452906	-6.782900E+01
134	  0.046653304	-5.177000E+00	  0.046653304	-2.007200E+01	  0.046653304	1.296560E+02	  0.046653304	-7.040700E+01
135	  0.046853706	-5.213000E+00	  0.046853706	-2.187500E+01	  0.046853706	1.236220E+02	  0.046853706	-7.232000E+01
136	  0.047054108	-5.237000E+00	  0.047054108	-2.368900E+01	  0.047054108	1.178390E+02	  0.047054108	-7.395300E+01
137	  0.047254506	-5.263000E+00	  0.047254506	-2.550000E+01	  0.047254506	1.122640E+02	  0.047254506	-7.507900E+01
138	  0.047454908	-5.285000E+00	  0.047454908	-2.733900E+01	  0.047454908	1.068610E+02	  0.047454908	-7.588700E+01
139	  0.047655310	-5.309000E+00	  0.047655310	-2.914300E+01	  0.047655310	1.017880E+02	  0.047655310	-7.624700E+01
140	  0.047855709	-5.335000E+00	  0.047855709	-3.094100E+01	  0.047855709	9.698400E+01	  0.047855709	-7.629600E+01
141	  0.048056111	-5.361000E+00	  0.048056111	-3.275800E+01	  0.048056111	9.239000E+01	  0.048056111	-7.606100E+01
142	  0.048256513	-5.387000E+00	  0.048256513	-3.455100E+01	  0.048256513	8.810900E+01	  0.048256513	-7.562400E+01
143	  0.048456915	-5.410000E+00	  0.048456915	-3.636200E+01	  0.048456915	8.403100E+01	  0.048456915	-7.503300E+01
144	  0.048657313	-5.435000E+00	  0.048657313	-3.815300E+01	  0.048657313	8.023600E+01	  0.048657313	-7.426400E+01
145	  0.048857715	-5.459000E+00	  0.048857715	-3.993600E+01	  0.048857715	7.668000E+01	  0.048857715	-7.338700E+01
146	  0.049058117	-5.481000E+00	  0.049058117	-4.172300E+01	  0.049058117	7.332700E+01	  0.049058117	-7.242200E+01
147	  0.049258515	-5.505000E+00	  0.049258515	-4.349000E+01	  0.049258515	7.021300E+01	  0.049258515	-7.135900E+01
148	  0.049458917	-5.527000E+00	  0.049458917	-4.523300E+01	  0.049458917	6.732100E+01	  0.049458917	-7.026600E+01
149	  0.049659319	-5.551000E+00	  0.049659319	-4.696300E+01	  0.049659319	6.462700E+01	  0.049659319	-6.910800E+01
150	  0.049859721	-5.574000E+00	  0.049859721	-4.868000E+01	  0.049859721	6.211000E+01	  0.049859721	-6.792200E+01
151	  0.050060119	-5.598000E+00	  0.050060119	-5.038200E+01	  0.050060119	5.976400E+01	  0.050060119	-6.671200E+01
152	  0.050260521	-5.616000E+00	  0.050260521	-5.209600E+01	  0.050260521	5.751900E+01	  0.050260521	-6.551900E+01
153	  0.050460923	-5.635000E+00	  0.050460923	-5.379300E+01	  0.050460923	5.542300E+01	  0.050460923	-6.431600E+01
154	  0.050661322	-5.654000E+00	  0.050661322	-5.550000E+01	  0.050661322	5.343600E+01	  0.050661322	-6.309400E+01
155	  0.050861724	-5.671000E+00	  0.050861724	-5.717300E+01	  0.050861724	5.159100E+01	  0.050861724	-6.189700E+01
156	  0.051062126	-5.691000E+00	  0.051062126	-5.884300E+01	  0.051062126	4.986100E+01	  0.051062126	-6.068600E+01
157	  0.051262524	-5.712000E+00	  0.051262524	-6.047100E+01	  0.051262524	4.827500E+01	  0.051262524	-5.949200E+01
158	  0.051462926	-5.727000E+00	  0.051462926	-6.210800E+01	  0.051462926	4.674300E+01	  0.051462926	-5.832900E+01
159	  0.051663328	-5.743000E+00	  0.051663328	-6.371900E+01	  0.051663328	4.531400E+01	  0.051663328	-5.718800E+01
160	  0.051863730	-5.761000E+00	  0.051863730	-6.534700E+01	  0.051863730	4.395600E+01	  0.051863730	-5.602800E+01
161	  0.052064128	-5.775000E+00	  0.052064128	-6.696000E+01	  0.052064128	4.266400E+01	  0.052064128	-5.490800E+01
162	  0.052264530	-5.782000E+00	  0.052264530	-6.856200E+01	  0.052264530	4.141600E+01	  0.052264530	-5.383900E+01
163	  0.052464932	-5.800000E+00	  0.052464932	-7.012900E+01	  0.052464932	4.029900E+01	  0.052464932	-5.274700E+01
164	  0.052665330	-5.812000E+00	  0.052665330	-7.170900E+01	  0.052665330	3.920700E+01	  0.052665330	-5.168200E+01
165	  0.052865732	-5.826000E+00	  0.052865732	-7.325300E+01	  0.052865732	3.819900E+01	  0.052865732	-5.064100E+01
166	  0.053066134	-5.841000E+00	  0.053066134	-7.479700E+01	  0.053066134	3.724000E+01	  0.053066134	-4.961100E+01
167	  0.053266536	-5.853000E+00	  0.053266536	-7.631000E+01	  0.053266536	3.633400E+01	  0.053266536	-4.862200E+01
168	  0.053466935	-5.870000E+00	  0.053466935	-7.784100E+01	  0.053466935	3.548300E+01	  0.053466935	-4.760900E+01
169	  0.053667337	-5.879000E+00	  0.053667337	-7.936100E+01	  0.053667337	3.464100E+01	  0.053667337	-4.665000E+01
170	  0.053867739	-5.888000E+00	  0.053867739	-8.087400E+01	  0.053867739	3.384100E+01	  0.053867739	-4.570400E+01
171	  0.054068137	-5.900000E+00	  0.054068137	-8.235800E+01	  0.054068137	3.310400E+01	  0.054068137	-4.477400E+01
172	  0.054268539	-5.914000E+00	  0.054268539	-8.382800E+01	  0.054268539	3.241300E+01	  0.054268539	-4.385900E+01
173	  0.054468941	-5.924000E+00	  0.054468941	-8.531600E+01	  0.054468941	3.173100E+01	  0.054468941	-4.295400E+01
174	  0.054669335	-5.937000E+00	  0.054669335	-8.678900E+01	  0.054669335	3.109100E+01	  0.054669335	-4.206200E+01
175	  0.054869737	-5.949000E+00	  0.054869737	-8.821500E+01	  0.054869737	3.050000E+01	  0.054869737	-4.120800E+01
176	  0.055070139	-5.961000E+00	  0.055070139	-8.967100E+01	  0.055070139	2.992000E+01	  0.055070139	-4.034700E+01
177	  0.055270538	-5.969000E+00	  0.055270538	-9.110000E+01	  0.055270538	2.935900E+01	  0.055270538	-3.952300E+01
178	  0.055470940	-5.979000E+00	  0.055470940	-9.252800E+01	  0.055470940	2.882900E+01	  0.055470940	-3.870300E+01
179	  0.055671342	-5.987000E+00	  0.055671342	-9.396600E+01	  0.055671342	2.830600E+01	  0.055671342	-3.789400E+01
180	  0.055871744	-5.994000E+00	  0.055871744	-9.537400E+01	  0.055871744	2.781500E+01	  0.055871744	-3.711000E+01
181	  0.056072142	-6.000000E+00	  0.056072142	-9.679300E+01	  0.056072142	2.733500E+01	  0.056072142	-3.633100E+01
182	  0.056272544	-6.009000E+00	  0.056272544	-9.818600E+01	  0.056272544	2.689100E+01	  0.056272544	-3.556800E+01
183	  0.056472946	-6.016000E+00	  0.056472946	-9.956900E+01	  0.056472946	2.646200E+01	  0.056472946	-3.482200E+01
184	  0.056673344	-6.024000E+00	  0.056673344	-1.009250E+02	  0.056673344	2.606400E+01	  0.056673344	-3.409500E+01
185	  0.056873746	-6.031000E+00	  0.056873746	-1.022840E+02	  0.056873746	2.567400E+01	  0.056873746	-3.337700E+01
186	  0.057074148	-6.037000E+00	  0.057074148	-1.036420E+02	  0.057074148	2.529600E+01	  0.057074148	-3.266800E+01
187	  0.057274550	-6.040000E+00	  0.057274550	-1.050190E+02	  0.057274550	2.491400E+01	  0.057274550	-3.196300E+01
188	  0.057474948	-6.046000E+00	  0.057474948	-1.063520E+02	  0.057474948	2.457100E+01	  0.057474948	-3.127900E+01
189	  0.057675350	-6.049000E+00	  0.057675350	-1.077040E+02	  0.057675350	2.422300E+01	  0.057675350	-3.060000E+01
190	  0.057875752	-6.056000E+00	  0.057875752	-1.090280E+02	  0.057875752	2.391000E+01	  0.057875752	-2.993200E+01
191	  0.058076151	-6.061000E+00	  0.058076151	-1.103320E+02	  0.058076151	2.360500E+01	  0.058076151	-2.928500E+01
192	  0.058276553	-6.063000E+00	  0.058276553	-1.116370E+02	  0.058276553	2.330400E+01	  0.058276553	-2.864500E+01
193	  0.058476955	-6.070000E+00	  0.058476955	-1.129120E+02	  0.058476955	2.303200E+01	  0.058476955	-2.802000E+01
194	  0.058677353	-6.067000E+00	  0.058677353	-1.141930E+02	  0.058677353	2.274000E+01	  0.058677353	-2.741100E+01
195	  0.058877755	-6.074000E+00	  0.058877755	-1.154740E+02	  0.058877755	2.248800E+01	  0.058877755	-2.679200E+01
196	  0.059078157	-6.073000E+00	  0.059078157	-1.167360E+02	  0.059078157	2.222300E+01	  0.059078157	-2.619800E+01
197	  0.059278559	-6.077000E+00	  0.059278559	-1.179890E+02	  0.059278559	2.198600E+01	  0.059278559	-2.560600E+01
198	  0.059478957	-6.076000E+00	  0.059478957	-1.192490E+02	  0.059478957	2.173900E+01	  0.059478957	-2.502200E+01
199	  0.059679359	-6.082000E+00	  0.059679359	-1.204790E+02	  0.059679359	2.152700E+01	  0.059679359	-2.444700E+01
200	  0.059879761	-6.084000E+00	  0.059879761	-1.217100E+02	  0.059879761	2.131100E+01	  0.059879761	-2.388000E+01
201	  0.060080159	-6.084000E+00	  0.060080159	-1.229050E+02	  0.060080159	2.110300E+01	  0.060080159	-2.333700E+01
202	  0.060280561	-6.088000E+00	  0.060280561	-1.241270E+02	  0.060280561	2.090900E+01	  0.060280561	-2.277900E+01
203	  0.060480963	-6.093000E+00	  0.060480963	-1.253320E+02	  0.060480963	2.072500E+01	  0.060480963	-2.223300E+01
204	  0.060681365	-6.096000E+00	  0.060681365	-1.265270E+02	  0.060681365	2.054700E+01	  0.060681365	-2.169600E+01
205	  0.060881764	-6.093000E+00	  0.060881764	-1.277410E+02	  0.060881764	2.035100E+01	  0.060881764	-2.116100E+01
206	  0.061082166	-6.097000E+00	  0.061082166	-1.289350E+02	  0.061082166	2.018600E+01	  0.061082166	-2.063100E+01
207	  0.061282568	-6.098000E+00	  0.061282568	-1.301170E+02	  0.061282568	2.002000E+01	  0.061282568	-2.011200E+01
208	  0.061482966	-6.098000E+00	  0.061482966	-1.312920E+02	  0.061482966	1.985700E+01	  0.061482966	-1.960000E+01
209	  0.061683368	-6.097000E+00	  0.061683368	-1.324770E+02	  0.061683368	1.969600E+01	  0.061683368	-1.908700E+01
210	  0.061883770	-6.101000E+00	  0.061883770	-1.336580E+02	  0.061883770	1.955600E+01	  0.061883770	-1.857500E+01
211	  0.062084168	-6.103000E+00	  0.062084168	-1.348070E+02	  0.062084168	1.941700E+01	  0.062084168	-1.808100E+01
212	  0.062284570	-6.104000E+00	  0.062284570	-1.359610E+02	  0.062284570	1.928300E+01	  0.062284570	-1.758700E+01
213	  0.062484972	-6.098000E+00	  0.062484972	-1.370790E+02	  0.062484972	1.913500E+01	  0.062484972	-1.711700E+01
214	  0.062685370	-6.099000E+00	  0.062685370	-1.382620E+02	  0.062685370	1.900400E+01	  0.062685370	-1.661700E+01
215	  0.062885776	-6.099000E+00	  0.062885776	-1.394020E+02	  0.062885776	1.888300E+01	  0.062885776	-1.613700E+01
216	  0.063086174	-6.100000E+00	  0.063086174	-1.405320E+02	  0.063086174	1.876600E+01	  0.063086174	-1.566400E+01
217	  0.063286573	-6.102000E+00	  0.063286573	-1.416750E+02	  0.063286573	1.865800E+01	  0.063286573	-1.518600E+01
218	  0.063486971	-6.098000E+00	  0.063486971	-1.427770E+02	  0.063486971	1.853800E+01	  0.063486971	-1.473100E+01
219	  0.063687377	-6.100000E+00	  0.063687377	-1.438820E+02	  0.063687377	1.844200E+01	  0.063687377	-1.427300E+01
220	  0.063887775	-6.099000E+00	  0.063887775	-1.449860E+02	  0.063887775	1.833800E+01	  0.063887775	-1.381900E+01
221	  0.064088173	-6.102000E+00	  0.064088173	-1.461070E+02	  0.064088173	1.825000E+01	  0.064088173	-1.335800E+01
222	  0.064288579	-6.097000E+00	  0.064288579	-1.471800E+02	  0.064288579	1.814600E+01	  0.064288579	-1.292200E+01
223	  0.064488977	-6.101000E+00	  0.064488977	-1.482940E+02	  0.064488977	1.806800E+01	  0.064488977	-1.246600E+01
224	  0.064689375	-6.100000E+00	  0.064689375	-1.493590E+02	  0.064689375	1.798200E+01	  0.064689375	-1.203500E+01
225	  0.064889781	-6.099000E+00	  0.064889781	-1.504200E+02	  0.064889781	1.790100E+01	  0.064889781	-1.160600E+01
226	  0.065090179	-6.099000E+00	  0.065090179	-1.515020E+02	  0.065090179	1.782600E+01	  0.065090179	-1.116900E+01
227	  0.065290578	-6.091000E+00	  0.065290578	-1.524940E+02	  0.065290578	1.773700E+01	  0.065290578	-1.077400E+01
228	  0.065490983	-6.092000E+00	  0.065490983	-1.535570E+02	  0.065490983	1.766800E+01	  0.065490983	-1.034800E+01
229	  0.065691382	-6.085000E+00	  0.065691382	-1.545870E+02	  0.065691382	1.758800E+01	  0.065691382	-9.938000E+00
230	  0.065891780	-6.082000E+00	  0.065891780	-1.556190E+02	  0.065891780	1.751800E+01	  0.065891780	-9.528000E+00
231	  0.066092186	-6.075000E+00	  0.066092186	-1.566530E+02	  0.066092186	1.744000E+01	  0.066092186	-9.119000E+00
232	  0.066292584	-6.068000E+00	  0.066292584	-1.576480E+02	  0.066292584	1.736800E+01	  0.066292584	-8.725000E+00
233	  0.066492982	-6.062000E+00	  0.066492982	-1.586840E+02	  0.066492982	1.729800E+01	  0.066492982	-8.317000E+00
234	  0.066693388	-6.055000E+00	  0.066693388	-1.596990E+02	  0.066693388	1.723000E+01	  0.066693388	-7.918000E+00
235	  0.066893786	-6.048000E+00	  0.066893786	-1.607270E+02	  0.066893786	1.716400E+01	  0.066893786	-7.513000E+00
236	  0.067094192	-6.042000E+00	  0.067094192	-1.617340E+02	  0.067094192	1.710600E+01	  0.067094192	-7.118000E+00
237	  0.067294590	-6.033000E+00	  0.067294590	-1.627530E+02	  0.067294590	1.703900E+01	  0.067294590	-6.719000E+00
238	  0.067494988	-6.023000E+00	  0.067494988	-1.637770E+02	  0.067494988	1.697500E+01	  0.067494988	-6.319000E+00
239	  0.067695394	-6.020000E+00	  0.067695394	-1.647900E+02	  0.067695394	1.692900E+01	  0.067695394	-5.922000E+00
240	  0.067895792	-6.009000E+00	  0.067895792	-1.658330E+02	  0.067895792	1.686600E+01	  0.067895792	-5.515000E+00
241	  0.068096191	-6.006000E+00	  0.068096191	-1.668760E+02	  0.068096191	1.682400E+01	  0.068096191	-5.107000E+00
242	  0.068296596	-6.003000E+00	  0.068296596	-1.678880E+02	  0.068296596	1.678900E+01	  0.068296596	-4.712000E+00
243	  0.068496995	-5.995000E+00	  0.068496995	-1.689070E+02	  0.068496995	1.674200E+01	  0.068496995	-4.315000E+00
244	  0.068697393	-5.987000E+00	  0.068697393	-1.699330E+02	  0.068697393	1.669600E+01	  0.068697393	-3.916000E+00
245	  0.068897791	-5.983000E+00	  0.068897791	-1.709620E+02	  0.068897791	1.666400E+01	  0.068897791	-3.515000E+00
246	  0.069098189	-5.975000E+00	  0.069098189	-1.719850E+02	  0.069098189	1.662200E+01	  0.069098189	-3.117000E+00
247	  0.069298595	-5.970000E+00	  0.069298595	-1.730220E+02	  0.069298595	1.659200E+01	  0.069298595	-2.713000E+00
248	  0.069498993	-5.968000E+00	  0.069498993	-1.740460E+02	  0.069498993	1.657300E+01	  0.069498993	-2.314000E+00
249	  0.069699399	-5.966000E+00	  0.069699399	-1.750760E+02	  0.069699399	1.655500E+01	  0.069699399	-1.914000E+00
250	  0.069899797	-5.958000E+00	  0.069899797	-1.761120E+02	  0.069899797	1.652400E+01	  0.069899797	-1.511000E+00
251	  0.070100196	-5.962000E+00	  0.070100196	-1.770800E+02	  0.070100196	1.652800E+01	  0.070100196	-1.135000E+00
252	  0.070300601	-5.956000E+00	  0.070300601	-1.780930E+02	  0.070300601	1.650600E+01	  0.070300601	-7.410000E-01
253	  0.070501000	-5.950000E+00	  0.070501000	-1.791190E+02	  0.070501000	1.648800E+01	  0.070501000	-3.420000E-01
254	  0.070701398	-5.950000E+00	  0.070701398	1.799050E+02	  0.070701398	1.648700E+01	  0.070701398	3.600000E-02
255	  0.070901804	-5.949000E+00	  0.070901804	1.789010E+02	  0.070901804	1.648400E+01	  0.070901804	4.270000E-01
256	  0.071102202	-5.948000E+00	  0.071102202	1.778930E+02	  0.071102202	1.648700E+01	  0.071102202	8.190000E-01
257	  0.071302600	-5.950000E+00	  0.071302600	1.768690E+02	  0.071302600	1.649700E+01	  0.071302600	1.217000E+00
258	  0.071503006	-5.949000E+00	  0.071503006	1.758970E+02	  0.071503006	1.650300E+01	  0.071503006	1.596000E+00
259	  0.071703404	-5.947000E+00	  0.071703404	1.749120E+02	  0.071703404	1.650700E+01	  0.071703404	1.979000E+00
260	  0.071903802	-5.947000E+00	  0.071903802	1.739150E+02	  0.071903802	1.652200E+01	  0.071903802	2.367000E+00
261	  0.072104208	-5.950000E+00	  0.072104208	1.729420E+02	  0.072104208	1.654200E+01	  0.072104208	2.746000E+00
262	  0.072304606	-5.949000E+00	  0.072304606	1.719780E+02	  0.072304606	1.655700E+01	  0.072304606	3.123000E+00
263	  0.072505005	-5.952000E+00	  0.072505005	1.710120E+02	  0.072505005	1.658200E+01	  0.072505005	3.499000E+00
264	  0.072705410	-5.956000E+00	  0.072705410	1.700470E+02	  0.072705410	1.661400E+01	  0.072705410	3.876000E+00
265	  0.072905809	-5.955000E+00	  0.072905809	1.690640E+02	  0.072905809	1.663300E+01	  0.072905809	4.260000E+00
266	  0.073106214	-5.960000E+00	  0.073106214	1.681000E+02	  0.073106214	1.667200E+01	  0.073106214	4.637000E+00
267	  0.073306613	-5.964000E+00	  0.073306613	1.671350E+02	  0.073306613	1.671000E+01	  0.073306613	5.014000E+00
268	  0.073507011	-5.968000E+00	  0.073507011	1.661840E+02	  0.073507011	1.674900E+01	  0.073507011	5.386000E+00
269	  0.073707417	-5.972000E+00	  0.073707417	1.652360E+02	  0.073707417	1.679100E+01	  0.073707417	5.757000E+00
270	  0.073907815	-5.972000E+00	  0.073907815	1.642800E+02	  0.073907815	1.682400E+01	  0.073907815	6.133000E+00
271	  0.074108213	-5.980000E+00	  0.074108213	1.633260E+02	  0.074108213	1.687800E+01	  0.074108213	6.507000E+00
272	  0.074308619	-5.986000E+00	  0.074308619	1.623840E+02	  0.074308619	1.693300E+01	  0.074308619	6.877000E+00
273	  0.074509017	-5.990000E+00	  0.074509017	1.614210E+02	  0.074509017	1.698300E+01	  0.074509017	7.256000E+00
274	  0.074709415	-5.994000E+00	  0.074709415	1.605140E+02	  0.074709415	1.703500E+01	  0.074709415	7.614000E+00
275	  0.074909821	-6.002000E+00	  0.074909821	1.595550E+02	  0.074909821	1.709800E+01	  0.074909821	7.991000E+00
276	  0.075110219	-6.008000E+00	  0.075110219	1.586220E+02	  0.075110219	1.716000E+01	  0.075110219	8.359000E+00
277	  0.075310618	-6.011000E+00	  0.075310618	1.577090E+02	  0.075310618	1.721500E+01	  0.075310618	8.721000E+00
278	  0.075511023	-6.018000E+00	  0.075511023	1.568050E+02	  0.075511023	1.728300E+01	  0.075511023	9.079000E+00
279	  0.075711422	-6.026000E+00	  0.075711422	1.558890E+02	  0.075711422	1.735300E+01	  0.075711422	9.441000E+00
280	  0.075911827	-6.029000E+00	  0.075911827	1.549520E+02	  0.075911827	1.741500E+01	  0.075911827	9.815000E+00
281	  0.076112226	-6.038000E+00	  0.076112226	1.540560E+02	  0.076112226	1.749600E+01	  0.076112226	1.017000E+01
282	  0.076312624	-6.044000E+00	  0.076312624	1.531380E+02	  0.076312624	1.756800E+01	  0.076312624	1.053600E+01
283	  0.076513030	-6.054000E+00	  0.076513030	1.522220E+02	  0.076513030	1.765600E+01	  0.076513030	1.090000E+01
284	  0.076713428	-6.065000E+00	  0.076713428	1.512940E+02	  0.076713428	1.774800E+01	  0.076713428	1.126900E+01
285	  0.076913826	-6.070000E+00	  0.076913826	1.504030E+02	  0.076913826	1.782700E+01	  0.076913826	1.162700E+01
286	  0.077114232	-6.085000E+00	  0.077114232	1.495000E+02	  0.077114232	1.793100E+01	  0.077114232	1.198500E+01
287	  0.077314630	-6.094000E+00	  0.077314630	1.486210E+02	  0.077314630	1.802300E+01	  0.077314630	1.233700E+01
288	  0.077515028	-6.104000E+00	  0.077515028	1.477340E+02	  0.077515028	1.812000E+01	  0.077515028	1.269300E+01
289	  0.077715434	-6.114000E+00	  0.077715434	1.468640E+02	  0.077715434	1.821900E+01	  0.077715434	1.304200E+01
290	  0.077915832	-6.125000E+00	  0.077915832	1.459670E+02	  0.077915832	1.832200E+01	  0.077915832	1.340300E+01
291	  0.078116231	-6.136000E+00	  0.078116231	1.450890E+02	  0.078116231	1.843000E+01	  0.078116231	1.375500E+01
292	  0.078316636	-6.148000E+00	  0.078316636	1.442070E+02	  0.078316636	1.854200E+01	  0.078316636	1.411000E+01
293	  0.078517035	-6.163000E+00	  0.078517035	1.433000E+02	  0.078517035	1.866700E+01	  0.078517035	1.447400E+01
294	  0.078717433	-6.176000E+00	  0.078717433	1.424230E+02	  0.078717433	1.878600E+01	  0.078717433	1.482800E+01
295	  0.078917839	-6.188000E+00	  0.078917839	1.415520E+02	  0.078917839	1.890400E+01	  0.078917839	1.518100E+01
296	  0.079118237	-6.204000E+00	  0.079118237	1.406950E+02	  0.079118237	1.903500E+01	  0.079118237	1.552500E+01
297	  0.079318643	-6.219000E+00	  0.079318643	1.398260E+02	  0.079318643	1.916700E+01	  0.079318643	1.587600E+01
298	  0.079519041	-6.232000E+00	  0.079519041	1.389750E+02	  0.079519041	1.929400E+01	  0.079519041	1.622200E+01
299	  0.079719439	-6.248000E+00	  0.079719439	1.381190E+02	  0.079719439	1.943300E+01	  0.079719439	1.656800E+01
300	  0.079919845	-6.263000E+00	  0.079919845	1.372430E+02	  0.079919845	1.957400E+01	  0.079919845	1.692300E+01
301	  0.080120243	-6.279000E+00	  0.080120243	1.363670E+02	  0.080120243	1.972300E+01	  0.080120243	1.727800E+01
302	  0.080320641	-6.291000E+00	  0.080320641	1.355020E+02	  0.080320641	1.986000E+01	  0.080320641	1.763300E+01
303	  0.080521047	-6.308000E+00	  0.080521047	1.346300E+02	  0.080521047	2.001700E+01	  0.080521047	1.798800E+01
304	  0.080721445	-6.326000E+00	  0.080721445	1.337870E+02	  0.080721445	2.017300E+01	  0.080721445	1.833000E+01
305	  0.080921844	-6.341000E+00	  0.080921844	1.329380E+02	  0.080921844	2.032500E+01	  0.080921844	1.867700E+01
306	  0.081122249	-6.357000E+00	  0.081122249	1.321250E+02	  0.081122249	2.048000E+01	  0.081122249	1.900900E+01
307	  0.081322648	-6.378000E+00	  0.081322648	1.312630E+02	  0.081322648	2.065700E+01	  0.081322648	1.935800E+01
308	  0.081523046	-6.394000E+00	  0.081523046	1.304400E+02	  0.081523046	2.081800E+01	  0.081523046	1.969600E+01
309	  0.081723452	-6.410000E+00	  0.081723452	1.295830E+02	  0.081723452	2.098900E+01	  0.081723452	2.004700E+01
310	  0.081923850	-6.426000E+00	  0.081923850	1.287540E+02	  0.081923850	2.115700E+01	  0.081923850	2.038800E+01
311	  0.082124248	-6.445000E+00	  0.082124248	1.279230E+02	  0.082124248	2.133700E+01	  0.082124248	2.072800E+01
312	  0.082324654	-6.459000E+00	  0.082324654	1.271230E+02	  0.082324654	2.150300E+01	  0.082324654	2.105900E+01
313	  0.082525052	-6.481000E+00	  0.082525052	1.263100E+02	  0.082525052	2.169600E+01	  0.082525052	2.138800E+01
314	  0.082725458	-6.498000E+00	  0.082725458	1.255310E+02	  0.082725458	2.187100E+01	  0.082725458	2.170900E+01
315	  0.082925856	-6.520000E+00	  0.082925856	1.247060E+02	  0.082925856	2.207300E+01	  0.082925856	2.204400E+01
316	  0.083126254	-6.541000E+00	  0.083126254	1.239200E+02	  0.083126254	2.227100E+01	  0.083126254	2.236300E+01
317	  0.083326660	-6.562000E+00	  0.083326660	1.231070E+02	  0.083326660	2.247200E+01	  0.083326660	2.269500E+01
318	  0.083527058	-6.582000E+00	  0.083527058	1.223190E+02	  0.083527058	2.267400E+01	  0.083527058	2.301600E+01
319	  0.083727457	-6.607000E+00	  0.083727457	1.215380E+02	  0.083727457	2.289100E+01	  0.083727457	2.332900E+01
320	  0.083927862	-6.631000E+00	  0.083927862	1.207670E+02	  0.083927862	2.310600E+01	  0.083927862	2.363800E+01
321	  0.084128261	-6.657000E+00	  0.084128261	1.199930E+02	  0.084128261	2.332900E+01	  0.084128261	2.394700E+01
322	  0.084328659	-6.685000E+00	  0.084328659	1.192330E+02	  0.084328659	2.356200E+01	  0.084328659	2.424600E+01
323	  0.084529065	-6.707000E+00	  0.084529065	1.184780E+02	  0.084529065	2.377700E+01	  0.084529065	2.455100E+01
324	  0.084729463	-6.736000E+00	  0.084729463	1.177030E+02	  0.084729463	2.402100E+01	  0.084729463	2.485500E+01
325	  0.084929854	-6.764000E+00	  0.084929854	1.169420E+02	  0.084929854	2.426500E+01	  0.084929854	2.515400E+01
326	  0.085130259	-6.792000E+00	  0.085130259	1.161940E+02	  0.085130259	2.450700E+01	  0.085130259	2.544600E+01
327	  0.085330658	-6.817000E+00	  0.085330658	1.154590E+02	  0.085330658	2.474300E+01	  0.085330658	2.573600E+01
328	  0.085531056	-6.849000E+00	  0.085531056	1.147010E+02	  0.085531056	2.500800E+01	  0.085531056	2.602700E+01
329	  0.085731462	-6.880000E+00	  0.085731462	1.139640E+02	  0.085731462	2.526800E+01	  0.085731462	2.630800E+01
330	  0.085931860	-6.908000E+00	  0.085931860	1.132550E+02	  0.085931860	2.551600E+01	  0.085931860	2.658100E+01
331	  0.086132258	-6.938000E+00	  0.086132258	1.125580E+02	  0.086132258	2.577100E+01	  0.086132258	2.684400E+01
332	  0.086332664	-6.973000E+00	  0.086332664	1.118650E+02	  0.086332664	2.604300E+01	  0.086332664	2.709800E+01
333	  0.086533062	-7.001000E+00	  0.086533062	1.111580E+02	  0.086533062	2.630000E+01	  0.086533062	2.736700E+01
334	  0.086733460	-7.032000E+00	  0.086733460	1.104900E+02	  0.086733460	2.656100E+01	  0.086733460	2.761400E+01
335	  0.086933866	-7.060000E+00	  0.086933866	1.097920E+02	  0.086933866	2.682600E+01	  0.086933866	2.787700E+01
336	  0.087134264	-7.087000E+00	  0.087134264	1.091350E+02	  0.087134264	2.707900E+01	  0.087134264	2.812300E+01
337	  0.087334670	-7.114000E+00	  0.087334670	1.084710E+02	  0.087334670	2.733600E+01	  0.087334670	2.837200E+01
338	  0.087535068	-7.138000E+00	  0.087535068	1.078880E+02	  0.087535068	2.756600E+01	  0.087535068	2.858800E+01
339	  0.087735467	-7.164000E+00	  0.087735467	1.072110E+02	  0.087735467	2.782900E+01	  0.087735467	2.884400E+01
340	  0.087935872	-7.187000E+00	  0.087935872	1.066040E+02	  0.087935872	2.806700E+01	  0.087935872	2.907300E+01
341	  0.088136271	-7.204000E+00	  0.088136271	1.059580E+02	  0.088136271	2.830400E+01	  0.088136271	2.932800E+01
342	  0.088336669	-7.217000E+00	  0.088336669	1.053050E+02	  0.088336669	2.853400E+01	  0.088336669	2.959400E+01
343	  0.088537075	-7.231000E+00	  0.088537075	1.046920E+02	  0.088537075	2.875600E+01	  0.088537075	2.984200E+01
344	  0.088737473	-7.237000E+00	  0.088737473	1.040090E+02	  0.088737473	2.898000E+01	  0.088737473	3.013600E+01
345	  0.088937871	-7.255000E+00	  0.088937871	1.033190E+02	  0.088937871	2.924700E+01	  0.088937871	3.040800E+01
346	  0.089138277	-7.266000E+00	  0.089138277	1.026580E+02	  0.089138277	2.948500E+01	  0.089138277	3.068300E+01
347	  0.089338675	-7.281000E+00	  0.089338675	1.019670E+02	  0.089338675	2.975200E+01	  0.089338675	3.096000E+01
348	  0.089539073	-7.296000E+00	  0.089539073	1.012700E+02	  0.089539073	3.002100E+01	  0.089539073	3.124200E+01
349	  0.089739479	-7.317000E+00	  0.089739479	1.006160E+02	  0.089739479	3.029800E+01	  0.089739479	3.149000E+01
350	  0.089939877	-7.325000E+00	  0.089939877	9.987700E+01	  0.089939877	3.057100E+01	  0.089939877	3.180500E+01
351	  0.090140276	-7.353000E+00	  0.090140276	9.922500E+01	  0.090140276	3.087800E+01	  0.090140276	3.203400E+01
352	  0.090340681	-7.373000E+00	  0.090340681	9.851800E+01	  0.090340681	3.118400E+01	  0.090340681	3.230500E+01
353	  0.090541080	-7.401000E+00	  0.090541080	9.784000E+01	  0.090541080	3.150600E+01	  0.090541080	3.254500E+01
354	  0.090741485	-7.421000E+00	  0.090741485	9.717300E+01	  0.090741485	3.180800E+01	  0.090741485	3.279400E+01
355	  0.090941884	-7.449000E+00	  0.090941884	9.652600E+01	  0.090941884	3.212700E+01	  0.090941884	3.301700E+01
356	  0.091142282	-7.484000E+00	  0.091142282	9.586900E+01	  0.091142282	3.247600E+01	  0.091142282	3.322200E+01
357	  0.091342688	-7.512000E+00	  0.091342688	9.519500E+01	  0.091342688	3.281200E+01	  0.091342688	3.345300E+01
358	  0.091543086	-7.543000E+00	  0.091543086	9.455800E+01	  0.091543086	3.314800E+01	  0.091543086	3.365700E+01
359	  0.091743484	-7.567000E+00	  0.091743484	9.392200E+01	  0.091743484	3.346900E+01	  0.091743484	3.387500E+01
360	  0.091943890	-7.603000E+00	  0.091943890	9.325100E+01	  0.091943890	3.384300E+01	  0.091943890	3.407400E+01
361	  0.092144288	-7.631000E+00	  0.092144288	9.258700E+01	  0.092144288	3.419200E+01	  0.092144288	3.429100E+01
362	  0.092344686	-7.662000E+00	  0.092344686	9.197600E+01	  0.092344686	3.453200E+01	  0.092344686	3.447400E+01
363	  0.092545092	-7.697000E+00	  0.092545092	9.135900E+01	  0.092545092	3.489200E+01	  0.092545092	3.464400E+01
364	  0.092745490	-7.726000E+00	  0.092745490	9.070100E+01	  0.092745490	3.525400E+01	  0.092745490	3.484900E+01
365	  0.092945889	-7.772000E+00	  0.092945889	9.015600E+01	  0.092945889	3.561900E+01	  0.092945889	3.495300E+01
366	  0.093146294	-7.800000E+00	  0.093146294	8.952400E+01	  0.093146294	3.597600E+01	  0.093146294	3.514000E+01
367	  0.093346693	-7.835000E+00	  0.093346693	8.888900E+01	  0.093346693	3.635700E+01	  0.093346693	3.530600E+01
368	  0.093547091	-7.870000E+00	  0.093547091	8.829500E+01	  0.093547091	3.672300E+01	  0.093547091	3.545300E+01
369	  0.093747497	-7.907000E+00	  0.093747497	8.769300E+01	  0.093747497	3.710000E+01	  0.093747497	3.559400E+01
370	  0.093947895	-7.938000E+00	  0.093947895	8.709400E+01	  0.093947895	3.746400E+01	  0.093947895	3.574700E+01
371	  0.094148301	-7.976000E+00	  0.094148301	8.650800E+01	  0.094148301	3.784200E+01	  0.094148301	3.587100E+01
372	  0.094348699	-8.013000E+00	  0.094348699	8.592700E+01	  0.094348699	3.822000E+01	  0.094348699	3.599200E+01
373	  0.094549097	-8.052000E+00	  0.094549097	8.533400E+01	  0.094549097	3.861000E+01	  0.094549097	3.610900E+01
374	  0.094749503	-8.082000E+00	  0.094749503	8.475900E+01	  0.094749503	3.897100E+01	  0.094749503	3.624300E+01
375	  0.094949901	-8.117000E+00	  0.094949901	8.425100E+01	  0.094949901	3.931500E+01	  0.094949901	3.633200E+01
376	  0.095150299	-8.148000E+00	  0.095150299	8.365100E+01	  0.095150299	3.969700E+01	  0.095150299	3.646700E+01
377	  0.095350705	-8.184000E+00	  0.095350705	8.311600E+01	  0.095350705	4.006200E+01	  0.095350705	3.655600E+01
378	  0.095551103	-8.216000E+00	  0.095551103	8.254100E+01	  0.095551103	4.043900E+01	  0.095551103	3.667000E+01
379	  0.095751502	-8.247000E+00	  0.095751502	8.199600E+01	  0.095751502	4.080200E+01	  0.095751502	3.677100E+01
380	  0.095951907	-8.282000E+00	  0.095951907	8.146100E+01	  0.095951907	4.117200E+01	  0.095951907	3.685300E+01
381	  0.096152306	-8.314000E+00	  0.096152306	8.094600E+01	  0.096152306	4.152600E+01	  0.096152306	3.693300E+01
382	  0.096352704	-8.352000E+00	  0.096352704	8.045200E+01	  0.096352704	4.188500E+01	  0.096352704	3.698100E+01
383	  0.096553110	-8.380000E+00	  0.096553110	7.992600E+01	  0.096553110	4.223800E+01	  0.096553110	3.707400E+01
384	  0.096753508	-8.412000E+00	  0.096753508	7.947700E+01	  0.096753508	4.256200E+01	  0.096753508	3.712100E+01
385	  0.096953906	-8.444000E+00	  0.096953906	7.897400E+01	  0.096953906	4.291600E+01	  0.096953906	3.718400E+01
386	  0.097154312	-8.475000E+00	  0.097154312	7.849500E+01	  0.097154312	4.325500E+01	  0.097154312	3.724100E+01
387	  0.097354710	-8.514000E+00	  0.097354710	7.804000E+01	  0.097354710	4.360200E+01	  0.097354710	3.725500E+01
388	  0.097555116	-8.539000E+00	  0.097555116	7.758500E+01	  0.097555116	4.391900E+01	  0.097555116	3.731700E+01
389	  0.097755514	-8.577000E+00	  0.097755514	7.715000E+01	  0.097755514	4.425400E+01	  0.097755514	3.732200E+01
390	  0.097955912	-8.607000E+00	  0.097955912	7.669400E+01	  0.097955912	4.458500E+01	  0.097955912	3.735800E+01
391	  0.098156318	-8.637000E+00	  0.098156318	7.627500E+01	  0.098156318	4.489400E+01	  0.098156318	3.738100E+01
392	  0.098356716	-8.666000E+00	  0.098356716	7.587500E+01	  0.098356716	4.519200E+01	  0.098356716	3.740000E+01
393	  0.098557115	-8.695000E+00	  0.098557115	7.544200E+01	  0.098557115	4.550800E+01	  0.098557115	3.742900E+01
394	  0.098757520	-8.728000E+00	  0.098757520	7.500600E+01	  0.098757520	4.583900E+01	  0.098757520	3.743400E+01
395	  0.098957919	-8.763000E+00	  0.098957919	7.460800E+01	  0.098957919	4.615100E+01	  0.098957919	3.741900E+01
396	  0.099158317	-8.785000E+00	  0.099158317	7.420100E+01	  0.099158317	4.644000E+01	  0.099158317	3.745800E+01
397	  0.099358723	-8.818000E+00	  0.099358723	7.380800E+01	  0.099358723	4.674600E+01	  0.099358723	3.744200E+01
398	  0.099559121	-8.847000E+00	  0.099559121	7.343600E+01	  0.099559121	4.703000E+01	  0.099559121	3.743800E+01
399	  0.099759519	-8.873000E+00	  0.099759519	7.305300E+01	  0.099759519	4.731700E+01	  0.099759519	3.744300E+01
400	  0.099959925	-8.895000E+00	  0.099959925	7.268000E+01	  0.099959925	4.758900E+01	  0.099959925	3.746200E+01
401	  0.100160323	-8.931000E+00	  0.100160323	7.227700E+01	  0.100160323	4.790900E+01	  0.100160323	3.742700E+01
402	  0.100360721	-8.943000E+00	  0.100360721	7.190100E+01	  0.100360721	4.816700E+01	  0.100360721	3.748100E+01
403	  0.100561127	-8.984000E+00	  0.100561127	7.151900E+01	  0.100561127	4.848100E+01	  0.100561127	3.741600E+01
404	  0.100761525	-8.993000E+00	  0.100761525	7.113100E+01	  0.100761525	4.874400E+01	  0.100761525	3.748200E+01
405	  0.100961931	-9.018000E+00	  0.100961931	7.079300E+01	  0.100961931	4.900400E+01	  0.100961931	3.746600E+01
406	  0.101162329	-9.043000E+00	  0.101162329	7.043700E+01	  0.101162329	4.927600E+01	  0.101162329	3.745300E+01
407	  0.101362728	-9.062000E+00	  0.101362728	7.009700E+01	  0.101362728	4.952700E+01	  0.101362728	3.745900E+01
408	  0.101563133	-9.077000E+00	  0.101563133	6.974600E+01	  0.101563133	4.978000E+01	  0.101563133	3.748300E+01
409	  0.101763532	-9.093000E+00	  0.101763532	6.940100E+01	  0.101763532	5.003100E+01	  0.101763532	3.750000E+01
410	  0.101963930	-9.107000E+00	  0.101963930	6.901600E+01	  0.101963930	5.030700E+01	  0.101963930	3.753200E+01
411	  0.102164328	-9.120000E+00	  0.102164328	6.864700E+01	  0.102164328	5.057100E+01	  0.102164328	3.756400E+01
412	  0.102364726	-9.125000E+00	  0.102364726	6.831900E+01	  0.102364726	5.079600E+01	  0.102364726	3.761900E+01
413	  0.102565125	-9.145000E+00	  0.102565125	6.798200E+01	  0.102565125	5.105300E+01	  0.102565125	3.760500E+01
414	  0.102765530	-9.141000E+00	  0.102765530	6.759500E+01	  0.102765530	5.130700E+01	  0.102765530	3.771300E+01
415	  0.102965929	-9.155000E+00	  0.102965929	6.724900E+01	  0.102965929	5.156200E+01	  0.102965929	3.772800E+01
416	  0.103166327	-9.148000E+00	  0.103166327	6.691100E+01	  0.103166327	5.178200E+01	  0.103166327	3.783400E+01
417	  0.103366733	-9.162000E+00	  0.103366733	6.654400E+01	  0.103366733	5.205400E+01	  0.103366733	3.784800E+01
418	  0.103567131	-9.153000E+00	  0.103567131	6.616600E+01	  0.103567131	5.230300E+01	  0.103567131	3.796900E+01
419	  0.103767529	-9.164000E+00	  0.103767529	6.581600E+01	  0.103767529	5.256000E+01	  0.103767529	3.799400E+01
420	  0.103967935	-9.151000E+00	  0.103967935	6.546100E+01	  0.103967935	5.279200E+01	  0.103967935	3.812500E+01
421	  0.104168333	-9.149000E+00	  0.104168333	6.514600E+01	  0.104168333	5.301100E+01	  0.104168333	3.819700E+01
422	  0.104368731	-9.136000E+00	  0.104368731	6.475400E+01	  0.104368731	5.327300E+01	  0.104368731	3.833700E+01
423	  0.104569137	-9.128000E+00	  0.104569137	6.443800E+01	  0.104569137	5.348700E+01	  0.104569137	3.843700E+01
424	  0.104769535	-9.122000E+00	  0.104769535	6.407000E+01	  0.104769535	5.374500E+01	  0.104769535	3.853600E+01
425	  0.104969934	-9.114000E+00	  0.104969934	6.366700E+01	  0.104969934	5.402800E+01	  0.104969934	3.865000E+01
426	  0.105170339	-9.104000E+00	  0.105170339	6.332700E+01	  0.105170339	5.426400E+01	  0.105170339	3.876300E+01
427	  0.105370738	-9.083000E+00	  0.105370738	6.290700E+01	  0.105370738	5.454900E+01	  0.105370738	3.894400E+01
428	  0.105571143	-9.075000E+00	  0.105571143	6.250700E+01	  0.105571143	5.483700E+01	  0.105571143	3.905200E+01
429	  0.105771542	-9.061000E+00	  0.105771542	6.203900E+01	  0.105771542	5.517300E+01	  0.105771542	3.920500E+01
430	  0.105971940	-9.046000E+00	  0.105971940	6.170100E+01	  0.105971940	5.541100E+01	  0.105971940	3.933900E+01
431	  0.106172346	-9.035000E+00	  0.106172346	6.125600E+01	  0.106172346	5.574000E+01	  0.106172346	3.946700E+01
432	  0.106372744	-9.008000E+00	  0.106372744	6.082000E+01	  0.106372744	5.604800E+01	  0.106372744	3.967500E+01
433	  0.106573142	-8.995000E+00	  0.106573142	6.039800E+01	  0.106573142	5.636300E+01	  0.106573142	3.980900E+01
434	  0.106773548	-8.975000E+00	  0.106773548	5.993900E+01	  0.106773548	5.670300E+01	  0.106773548	3.998700E+01
435	  0.106973946	-8.946000E+00	  0.106973946	5.948400E+01	  0.106973946	5.703700E+01	  0.106973946	4.020900E+01
436	  0.107174344	-8.932000E+00	  0.107174344	5.899900E+01	  0.107174344	5.741300E+01	  0.107174344	4.035400E+01
437	  0.107374750	-8.913000E+00	  0.107374750	5.846300E+01	  0.107374750	5.783100E+01	  0.107374750	4.053200E+01
438	  0.107575148	-8.885000E+00	  0.107575148	5.802100E+01	  0.107575148	5.816900E+01	  0.107575148	4.074700E+01
439	  0.107775547	-8.866000E+00	  0.107775547	5.746200E+01	  0.107775547	5.861800E+01	  0.107775547	4.092400E+01
440	  0.107975952	-8.841000E+00	  0.107975952	5.697500E+01	  0.107975952	5.900800E+01	  0.107975952	4.112300E+01
441	  0.108176351	-8.817000E+00	  0.108176351	5.640800E+01	  0.108176351	5.947200E+01	  0.108176351	4.132500E+01
442	  0.108376749	-8.793000E+00	  0.108376749	5.584400E+01	  0.108376749	5.994000E+01	  0.108376749	4.152900E+01
443	  0.108577155	-8.772000E+00	  0.108577155	5.531400E+01	  0.108577155	6.038900E+01	  0.108577155	4.170600E+01
444	  0.108777553	-8.753000E+00	  0.108777553	5.469700E+01	  0.108777553	6.092200E+01	  0.108777553	4.187900E+01
445	  0.108977959	-8.732000E+00	  0.108977959	5.411300E+01	  0.108977959	6.143300E+01	  0.108977959	4.205500E+01
446	  0.109178357	-8.710000E+00	  0.109178357	5.346900E+01	  0.109178357	6.200600E+01	  0.109178357	4.224100E+01
447	  0.109378755	-8.690000E+00	  0.109378755	5.284800E+01	  0.109378755	6.256800E+01	  0.109378755	4.240700E+01
448	  0.109579161	-8.665000E+00	  0.109579161	5.218700E+01	  0.109579161	6.317500E+01	  0.109579161	4.259700E+01
449	  0.109779559	-8.647000E+00	  0.109779559	5.155400E+01	  0.109779559	6.376700E+01	  0.109779559	4.274700E+01
450	  0.109979957	-8.629000E+00	  0.109979957	5.089200E+01	  0.109979957	6.439700E+01	  0.109979957	4.288100E+01
451	  0.110180363	-8.611000E+00	  0.110180363	5.021700E+01	  0.110180363	6.504900E+01	  0.110180363	4.301600E+01
452	  0.110380761	-8.598000E+00	  0.110380761	4.955300E+01	  0.110380761	6.569900E+01	  0.110380761	4.311200E+01
453	  0.110581160	-8.583000E+00	  0.110581160	4.884400E+01	  0.110581160	6.640600E+01	  0.110581160	4.321200E+01
454	  0.110781565	-8.572000E+00	  0.110781565	4.816200E+01	  0.110781565	6.709300E+01	  0.110781565	4.327400E+01
455	  0.110981964	-8.560000E+00	  0.110981964	4.746400E+01	  0.110981964	6.780700E+01	  0.110981964	4.333100E+01
456	  0.111182362	-8.548000E+00	  0.111182362	4.671500E+01	  0.111182362	6.858500E+01	  0.111182362	4.338100E+01
457	  0.111382768	-8.534000E+00	  0.111382768	4.599500E+01	  0.111382768	6.934300E+01	  0.111382768	4.343100E+01
458	  0.111583166	-8.531000E+00	  0.111583166	4.531500E+01	  0.111583166	7.006300E+01	  0.111583166	4.339400E+01
459	  0.111783572	-8.518000E+00	  0.111783572	4.454000E+01	  0.111783572	7.089900E+01	  0.111783572	4.340600E+01
460	  0.111983970	-8.508000E+00	  0.111983970	4.378300E+01	  0.111983970	7.172400E+01	  0.111983970	4.338200E+01
461	  0.112184368	-8.505000E+00	  0.112184368	4.302000E+01	  0.112184368	7.256000E+01	  0.112184368	4.329300E+01
462	  0.112384774	-8.502000E+00	  0.112384774	4.227200E+01	  0.112384774	7.338700E+01	  0.112384774	4.319300E+01
463	  0.112585172	-8.499000E+00	  0.112585172	4.143700E+01	  0.112585172	7.431900E+01	  0.112585172	4.305500E+01
464	  0.112785570	-8.497000E+00	  0.112785570	4.066400E+01	  0.112785570	7.518800E+01	  0.112785570	4.289900E+01
465	  0.112985976	-8.490000E+00	  0.112985976	3.989500E+01	  0.112985976	7.607100E+01	  0.112985976	4.277100E+01
466	  0.113186374	-8.492000E+00	  0.113186374	3.904000E+01	  0.113186374	7.704000E+01	  0.113186374	4.252100E+01
467	  0.113386773	-8.490000E+00	  0.113386773	3.823900E+01	  0.113386773	7.796400E+01	  0.113386773	4.229800E+01
468	  0.113587178	-8.491000E+00	  0.113587178	3.737800E+01	  0.113587178	7.895600E+01	  0.113587178	4.200800E+01
469	  0.113787577	-8.495000E+00	  0.113787577	3.654200E+01	  0.113787577	7.991700E+01	  0.113787577	4.167700E+01
470	  0.113987975	-8.496000E+00	  0.113987975	3.566300E+01	  0.113987975	8.093800E+01	  0.113987975	4.132500E+01
471	  0.114188381	-8.501000E+00	  0.114188381	3.481000E+01	  0.114188381	8.192000E+01	  0.114188381	4.092300E+01
472	  0.114388779	-8.513000E+00	  0.114388779	3.389000E+01	  0.114388779	8.296300E+01	  0.114388779	4.041200E+01
473	  0.114589177	-8.512000E+00	  0.114589177	3.303200E+01	  0.114589177	8.397200E+01	  0.114589177	3.999300E+01
474	  0.114789583	-8.525000E+00	  0.114789583	3.208300E+01	  0.114789583	8.503500E+01	  0.114789583	3.937900E+01
475	  0.114989981	-8.528000E+00	  0.114989981	3.114400E+01	  0.114989981	8.611900E+01	  0.114989981	3.881500E+01
476	  0.115190387	-8.541000E+00	  0.115190387	3.026600E+01	  0.115190387	8.709000E+01	  0.115190387	3.817900E+01
477	  0.115390785	-8.561000E+00	  0.115390785	2.927900E+01	  0.115390785	8.814500E+01	  0.115390785	3.738200E+01
478	  0.115591183	-8.578000E+00	  0.115591183	2.834000E+01	  0.115591183	8.914300E+01	  0.115591183	3.660000E+01
479	  0.115791589	-8.601000E+00	  0.115791589	2.738300E+01	  0.115791589	9.011100E+01	  0.115791589	3.571800E+01
480	  0.115991987	-8.626000E+00	  0.115991987	2.642600E+01	  0.115991987	9.104800E+01	  0.115991987	3.478900E+01
481	  0.116192386	-8.648000E+00	  0.116192386	2.545400E+01	  0.116192386	9.199700E+01	  0.116192386	3.383600E+01
482	  0.116392791	-8.675000E+00	  0.116392791	2.446400E+01	  0.116392791	9.290800E+01	  0.116392791	3.279100E+01
483	  0.116593190	-8.704000E+00	  0.116593190	2.347300E+01	  0.116593190	9.377400E+01	  0.116593190	3.169300E+01
484	  0.116793588	-8.737000E+00	  0.116793588	2.247600E+01	  0.116793588	9.459300E+01	  0.116793588	3.053400E+01
485	  0.116993994	-8.776000E+00	  0.116993994	2.146600E+01	  0.116993994	9.534000E+01	  0.116993994	2.928600E+01
486	  0.117194392	-8.807000E+00	  0.117194392	2.045800E+01	  0.117194392	9.610000E+01	  0.117194392	2.806400E+01
487	  0.117394790	-8.844000E+00	  0.117394790	1.945400E+01	  0.117394790	9.676900E+01	  0.117394790	2.678000E+01
488	  0.117595196	-8.883000E+00	  0.117595196	1.844700E+01	  0.117595196	9.737800E+01	  0.117595196	2.545300E+01
489	  0.117795594	-8.930000E+00	  0.117795594	1.741400E+01	  0.117795594	9.789800E+01	  0.117795594	2.403100E+01
490	  0.117995992	-8.963000E+00	  0.117995992	1.630300E+01	  0.117995992	9.854000E+01	  0.117995992	2.257900E+01
491	  0.118196398	-9.009000E+00	  0.118196398	1.525500E+01	  0.118196398	9.896600E+01	  0.118196398	2.110900E+01
492	  0.118396796	-9.058000E+00	  0.118396796	1.413600E+01	  0.118396796	9.936600E+01	  0.118396796	1.953100E+01
493	  0.118597202	-9.106000E+00	  0.118597202	1.301700E+01	  0.118597202	9.970000E+01	  0.118597202	1.794500E+01
494	  0.118797600	-9.166000E+00	  0.118797600	1.186900E+01	  0.118797600	9.988900E+01	  0.118797600	1.627400E+01
