! Anritsu VNA Master:             	Model: MS2036C/10/77
! SN:             	1601066
! /bd0/18may07/256.ew.m8.txt
! Existing Calibration Information:
! TYPE:             	Current Settings	Active Cal Settings
! TIME:             	05/07/2018 12:15:10 PM	05/07/2018 12:05:13 PM
! INTERNAL TEMP:    	54.5 C	53.5 C
! # POINTS:         	500	500
! START FREQ:       	20.000 MHz	20.000 MHz
! STOP FREQ:        	120.000 MHz	120.000 MHz
! SOURCE POWER:     	High	High
! IFBW:             	50 Hz	50 Hz
! AVG FACTOR:       	  1 	  1 
! REF PLANE 1:      	0 mm	0 mm
! REF PLANE 2:      	0 mm	0 mm
! CAL TYPE:         	Full S11	Full S11
! CAL METHOD:       	SOLT	SOLT
! CAL LINE TYPE:    	Coax	Coax
! DUT PORT 1:       	K-Conn(F)	K-Conn(F)
! DUT PORT 2:       	K-Conn(F)	K-Conn(F)
! CAL STATUS:       	OK: Accuracy High	--
! PROP-V:       	0.700
! CABLE LOSS:       	0.000 dB/m
! REF IMPEDANCE:       	50.0
! Trace Specific Parameters:	TR1	TR2	TR3	TR4
! TRACE.#.Y (GRAPH TYPE)	LOG MAG	PHASE	REAL IMPEDANCE	IMAGINARY IMPEDANCE
! TRACE.#.X 	FREQ.GHZ	FREQ.GHZ	FREQ.GHZ	FREQ.GHZ
! S-PARAMETER	S11	S11	S11	S11
! SMOOTH/APERTURE %	0	0	0	0
! WINDOW	NSL	NSL	NSL	NSL
! GATING	OFF	OFF	OFF	OFF
! FGTD	OFF	OFF	OFF	OFF
Marker Information per Trace:	TR1	TR2	TR3	TR4
!MK1	--	"MK1 TR2:  20.000 MHz,PH:-125.74°"	--	--
!MK2	--	--	"MK2 TR3:  70.100 200 MHz,Z:(16.323 ohm, -2.982 ohm)"	--
!MK3	--	--	--	--
!MK4	--	--	--	--
!MK5	--	--	--	--
!MK6	--	--	--	--
!MK7	--	--	--	--
!MK8	--	--	--	--
PNT	TR1.FREQ.GHZ	TR1.LOG MAG.dB	TR2.FREQ.GHZ	TR2.PHASE.deg	TR3.FREQ.GHZ	TR3.REAL IMPEDANCE.ohm	TR4.FREQ.GHZ	TR4.IMAGINARY IMPEDANCE.ohm
1	  0.020000000	-6.360000E-01	  0.020000000	-1.257350E+02	  0.020000000	2.310000E+00	  0.020000000	-2.557800E+01
2	  0.020200402	-6.330000E-01	  0.020200402	-1.272000E+02	  0.020200402	2.271000E+00	  0.020200402	-2.477900E+01
3	  0.020400802	-6.340000E-01	  0.020400802	-1.286540E+02	  0.020400802	2.247000E+00	  0.020400802	-2.399400E+01
4	  0.020601204	-6.350000E-01	  0.020601204	-1.301220E+02	  0.020601204	2.224000E+00	  0.020601204	-2.321200E+01
5	  0.020801604	-6.400000E-01	  0.020801604	-1.316220E+02	  0.020801604	2.214000E+00	  0.020801604	-2.242200E+01
6	  0.021002004	-6.470000E-01	  0.021002004	-1.331370E+02	  0.021002004	2.210000E+00	  0.021002004	-2.163300E+01
7	  0.021202406	-6.530000E-01	  0.021202406	-1.346730E+02	  0.021202406	2.206000E+00	  0.021202406	-2.084300E+01
8	  0.021402806	-6.590000E-01	  0.021402806	-1.362060E+02	  0.021402806	2.202000E+00	  0.021402806	-2.006300E+01
9	  0.021603208	-6.640000E-01	  0.021603208	-1.377450E+02	  0.021603208	2.198000E+00	  0.021603208	-1.928800E+01
10	  0.021803608	-6.690000E-01	  0.021803608	-1.392970E+02	  0.021803608	2.190000E+00	  0.021803608	-1.851500E+01
11	  0.022004008	-6.730000E-01	  0.022004008	-1.408400E+02	  0.022004008	2.181000E+00	  0.022004008	-1.775400E+01
12	  0.022204408	-6.780000E-01	  0.022204408	-1.423990E+02	  0.022204408	2.177000E+00	  0.022204408	-1.699200E+01
13	  0.022404809	-6.850000E-01	  0.022404809	-1.439730E+02	  0.022404809	2.180000E+00	  0.022404809	-1.623000E+01
14	  0.022605211	-6.910000E-01	  0.022605211	-1.455660E+02	  0.022605211	2.180000E+00	  0.022605211	-1.546600E+01
15	  0.022805611	-6.960000E-01	  0.022805611	-1.471530E+02	  0.022805611	2.177000E+00	  0.022805611	-1.471100E+01
16	  0.023006011	-6.980000E-01	  0.023006011	-1.487550E+02	  0.023006011	2.165000E+00	  0.023006011	-1.395600E+01
17	  0.023206413	-6.990000E-01	  0.023206413	-1.503390E+02	  0.023206413	2.152000E+00	  0.023206413	-1.321500E+01
18	  0.023406813	-7.010000E-01	  0.023406813	-1.519300E+02	  0.023406813	2.143000E+00	  0.023406813	-1.247700E+01
19	  0.023607215	-7.060000E-01	  0.023607215	-1.535160E+02	  0.023607215	2.146000E+00	  0.023607215	-1.174500E+01
20	  0.023807615	-7.150000E-01	  0.023807615	-1.551100E+02	  0.023807615	2.157000E+00	  0.023807615	-1.101400E+01
21	  0.024008015	-7.240000E-01	  0.024008015	-1.567290E+02	  0.024008015	2.172000E+00	  0.024008015	-1.027600E+01
22	  0.024208417	-7.340000E-01	  0.024208417	-1.583640E+02	  0.024208417	2.189000E+00	  0.024208417	-9.536000E+00
23	  0.024408817	-7.430000E-01	  0.024408817	-1.600010E+02	  0.024408817	2.206000E+00	  0.024408817	-8.799000E+00
24	  0.024609219	-7.530000E-01	  0.024609219	-1.616440E+02	  0.024609219	2.222000E+00	  0.024609219	-8.062000E+00
25	  0.024809619	-7.620000E-01	  0.024809619	-1.632900E+02	  0.024809619	2.241000E+00	  0.024809619	-7.328000E+00
26	  0.025010020	-7.740000E-01	  0.025010020	-1.649330E+02	  0.025010020	2.266000E+00	  0.025010020	-6.598000E+00
27	  0.025210422	-7.880000E-01	  0.025210422	-1.665920E+02	  0.025210422	2.299000E+00	  0.025210422	-5.864000E+00
28	  0.025410822	-8.010000E-01	  0.025410822	-1.682760E+02	  0.025410822	2.328000E+00	  0.025410822	-5.122000E+00
29	  0.025611224	-8.160000E-01	  0.025611224	-1.699610E+02	  0.025611224	2.365000E+00	  0.025611224	-4.381000E+00
30	  0.025811624	-8.290000E-01	  0.025811624	-1.716730E+02	  0.025811624	2.397000E+00	  0.025811624	-3.631000E+00
31	  0.026012026	-8.400000E-01	  0.026012026	-1.734030E+02	  0.026012026	2.426000E+00	  0.026012026	-2.874000E+00
32	  0.026212426	-8.520000E-01	  0.026212426	-1.751280E+02	  0.026212426	2.456000E+00	  0.026212426	-2.121000E+00
33	  0.026412826	-8.660000E-01	  0.026412826	-1.768540E+02	  0.026412826	2.492000E+00	  0.026412826	-1.369000E+00
34	  0.026613226	-8.810000E-01	  0.026613226	-1.786090E+02	  0.026613226	2.536000E+00	  0.026613226	-6.050000E-01
35	  0.026813626	-8.980000E-01	  0.026813626	1.796260E+02	  0.026813626	2.584000E+00	  0.026813626	1.620000E-01
36	  0.027014028	-9.160000E-01	  0.027014028	1.778620E+02	  0.027014028	2.635000E+00	  0.027014028	9.300000E-01
37	  0.027214428	-9.330000E-01	  0.027214428	1.760770E+02	  0.027214428	2.687000E+00	  0.027214428	1.707000E+00
38	  0.027414829	-9.530000E-01	  0.027414829	1.742680E+02	  0.027414829	2.747000E+00	  0.027414829	2.495000E+00
39	  0.027615231	-9.690000E-01	  0.027615231	1.724660E+02	  0.027615231	2.798000E+00	  0.027615231	3.281000E+00
40	  0.027815631	-9.900000E-01	  0.027815631	1.706560E+02	  0.027815631	2.866000E+00	  0.027815631	4.072000E+00
41	  0.028016033	-1.010000E+00	  0.028016033	1.688190E+02	  0.028016033	2.934000E+00	  0.028016033	4.877000E+00
42	  0.028216433	-1.033000E+00	  0.028216433	1.669840E+02	  0.028216433	3.009000E+00	  0.028216433	5.683000E+00
43	  0.028416833	-1.055000E+00	  0.028416833	1.651460E+02	  0.028416833	3.085000E+00	  0.028416833	6.493000E+00
44	  0.028617235	-1.075000E+00	  0.028617235	1.633100E+02	  0.028617235	3.157000E+00	  0.028617235	7.305000E+00
45	  0.028817635	-1.096000E+00	  0.028817635	1.614750E+02	  0.028817635	3.235000E+00	  0.028817635	8.120000E+00
46	  0.029018037	-1.117000E+00	  0.029018037	1.596520E+02	  0.029018037	3.314000E+00	  0.029018037	8.934000E+00
47	  0.029218437	-1.137000E+00	  0.029218437	1.578340E+02	  0.029218437	3.395000E+00	  0.029218437	9.750000E+00
48	  0.029418837	-1.161000E+00	  0.029418837	1.560160E+02	  0.029418837	3.487000E+00	  0.029418837	1.057000E+01
49	  0.029619239	-1.187000E+00	  0.029619239	1.541790E+02	  0.029619239	3.591000E+00	  0.029619239	1.140400E+01
50	  0.029819639	-1.217000E+00	  0.029819639	1.523150E+02	  0.029819639	3.708000E+00	  0.029819639	1.225600E+01
51	  0.030020041	-1.247000E+00	  0.030020041	1.504320E+02	  0.030020041	3.831000E+00	  0.030020041	1.312300E+01
52	  0.030220442	-1.277000E+00	  0.030220442	1.485280E+02	  0.030220442	3.960000E+00	  0.030220442	1.400500E+01
53	  0.030420844	-1.306000E+00	  0.030420844	1.466190E+02	  0.030420844	4.089000E+00	  0.030420844	1.489900E+01
54	  0.030621244	-1.338000E+00	  0.030621244	1.447260E+02	  0.030621244	4.229000E+00	  0.030621244	1.579200E+01
55	  0.030821644	-1.369000E+00	  0.030821644	1.428400E+02	  0.030821644	4.375000E+00	  0.030821644	1.669100E+01
56	  0.031022044	-1.404000E+00	  0.031022044	1.409270E+02	  0.031022044	4.537000E+00	  0.031022044	1.761100E+01
57	  0.031222444	-1.436000E+00	  0.031222444	1.390160E+02	  0.031222444	4.698000E+00	  0.031222444	1.854100E+01
58	  0.031422846	-1.473000E+00	  0.031422846	1.370540E+02	  0.031422846	4.880000E+00	  0.031422846	1.950500E+01
59	  0.031623244	-1.511000E+00	  0.031623244	1.350770E+02	  0.031623244	5.074000E+00	  0.031623244	2.048900E+01
60	  0.031823646	-1.548000E+00	  0.031823646	1.330810E+02	  0.031823646	5.273000E+00	  0.031823646	2.149500E+01
61	  0.032024048	-1.584000E+00	  0.032024048	1.310830E+02	  0.032024048	5.478000E+00	  0.032024048	2.251500E+01
62	  0.032224450	-1.619000E+00	  0.032224450	1.290830E+02	  0.032224450	5.691000E+00	  0.032224450	2.355200E+01
63	  0.032424849	-1.656000E+00	  0.032424849	1.270880E+02	  0.032424849	5.918000E+00	  0.032424849	2.460100E+01
64	  0.032625251	-1.692000E+00	  0.032625251	1.250980E+02	  0.032625251	6.151000E+00	  0.032625251	2.566300E+01
65	  0.032825653	-1.728000E+00	  0.032825653	1.231160E+02	  0.032825653	6.395000E+00	  0.032825653	2.673800E+01
66	  0.033026051	-1.771000E+00	  0.033026051	1.211190E+02	  0.033026051	6.676000E+00	  0.033026051	2.783600E+01
67	  0.033226453	-1.812000E+00	  0.033226453	1.191380E+02	  0.033226453	6.964000E+00	  0.033226453	2.894500E+01
68	  0.033426855	-1.859000E+00	  0.033426855	1.171520E+02	  0.033426855	7.292000E+00	  0.033426855	3.007300E+01
69	  0.033627257	-1.910000E+00	  0.033627257	1.151330E+02	  0.033627257	7.652000E+00	  0.033627257	3.123800E+01
70	  0.033827655	-1.966000E+00	  0.033827655	1.131120E+02	  0.033827655	8.051000E+00	  0.033827655	3.242400E+01
71	  0.034028057	-2.014000E+00	  0.034028057	1.110330E+02	  0.034028057	8.443000E+00	  0.034028057	3.367200E+01
72	  0.034228459	-2.067000E+00	  0.034228459	1.089420E+02	  0.034228459	8.877000E+00	  0.034228459	3.495100E+01
73	  0.034428857	-2.117000E+00	  0.034428857	1.068060E+02	  0.034428857	9.334000E+00	  0.034428857	3.628700E+01
74	  0.034629259	-2.166000E+00	  0.034629259	1.046830E+02	  0.034629259	9.806000E+00	  0.034629259	3.764700E+01
75	  0.034829661	-2.209000E+00	  0.034829661	1.025370E+02	  0.034829661	1.028800E+01	  0.034829661	3.905800E+01
76	  0.035030060	-2.254000E+00	  0.035030060	1.004380E+02	  0.035030060	1.080200E+01	  0.035030060	4.046900E+01
77	  0.035230462	-2.300000E+00	  0.035230462	9.833100E+01	  0.035230462	1.135200E+01	  0.035230462	4.191900E+01
78	  0.035430863	-2.342000E+00	  0.035430863	9.621200E+01	  0.035430863	1.192400E+01	  0.035430863	4.341800E+01
79	  0.035631265	-2.386000E+00	  0.035631265	9.413400E+01	  0.035631265	1.252900E+01	  0.035631265	4.492500E+01
80	  0.035831664	-2.427000E+00	  0.035831664	9.205500E+01	  0.035831664	1.316600E+01	  0.035831664	4.647300E+01
81	  0.036032066	-2.469000E+00	  0.036032066	9.000300E+01	  0.036032066	1.384600E+01	  0.036032066	4.804100E+01
82	  0.036232468	-2.518000E+00	  0.036232468	8.794400E+01	  0.036232468	1.460500E+01	  0.036232468	4.964700E+01
83	  0.036432866	-2.566000E+00	  0.036432866	8.590600E+01	  0.036432866	1.541400E+01	  0.036432866	5.127700E+01
84	  0.036633268	-2.618000E+00	  0.036633268	8.388000E+01	  0.036633268	1.629200E+01	  0.036633268	5.293400E+01
85	  0.036833670	-2.672000E+00	  0.036833670	8.183900E+01	  0.036833670	1.725600E+01	  0.036833670	5.464200E+01
86	  0.037034072	-2.730000E+00	  0.037034072	7.979500E+01	  0.037034072	1.831200E+01	  0.037034072	5.638800E+01
87	  0.037234470	-2.788000E+00	  0.037234470	7.772600E+01	  0.037234470	1.945300E+01	  0.037234470	5.820500E+01
88	  0.037434869	-2.851000E+00	  0.037434869	7.565400E+01	  0.037434869	2.071400E+01	  0.037434869	6.005600E+01
89	  0.037635271	-2.911000E+00	  0.037635271	7.354200E+01	  0.037635271	2.207600E+01	  0.037635271	6.200100E+01
90	  0.037835669	-2.973000E+00	  0.037835669	7.142500E+01	  0.037835669	2.356500E+01	  0.037835669	6.399300E+01
91	  0.038036071	-3.033000E+00	  0.038036071	6.926800E+01	  0.038036071	2.518500E+01	  0.038036071	6.608200E+01
92	  0.038236473	-3.095000E+00	  0.038236473	6.711800E+01	  0.038236473	2.694900E+01	  0.038236473	6.820800E+01
93	  0.038436871	-3.154000E+00	  0.038436871	6.494800E+01	  0.038436871	2.885600E+01	  0.038436871	7.041700E+01
94	  0.038637273	-3.209000E+00	  0.038637273	6.281800E+01	  0.038637273	3.086600E+01	  0.038637273	7.265000E+01
95	  0.038837675	-3.259000E+00	  0.038837675	6.066800E+01	  0.038837675	3.303700E+01	  0.038837675	7.497600E+01
96	  0.039038073	-3.307000E+00	  0.039038073	5.856800E+01	  0.039038073	3.533800E+01	  0.039038073	7.730000E+01
97	  0.039238475	-3.355000E+00	  0.039238475	5.648900E+01	  0.039238475	3.782800E+01	  0.039238475	7.963900E+01
98	  0.039438877	-3.405000E+00	  0.039438877	5.443300E+01	  0.039438877	4.052500E+01	  0.039438877	8.196700E+01
99	  0.039639279	-3.456000E+00	  0.039639279	5.238300E+01	  0.039639279	4.347300E+01	  0.039639279	8.429200E+01
100	  0.039839678	-3.514000E+00	  0.039839678	5.033000E+01	  0.039839678	4.675400E+01	  0.039839678	8.655800E+01
101	  0.040040080	-3.575000E+00	  0.040040080	4.824900E+01	  0.040040080	5.039600E+01	  0.040040080	8.880500E+01
102	  0.040240481	-3.635000E+00	  0.040240481	4.617500E+01	  0.040240481	5.434800E+01	  0.040240481	9.098900E+01
103	  0.040440880	-3.694000E+00	  0.040440880	4.409000E+01	  0.040440880	5.866100E+01	  0.040440880	9.312000E+01
104	  0.040641282	-3.755000E+00	  0.040641282	4.201000E+01	  0.040641282	6.336400E+01	  0.040641282	9.508600E+01
105	  0.040841684	-3.813000E+00	  0.040841684	3.993200E+01	  0.040841684	6.844400E+01	  0.040841684	9.692000E+01
106	  0.041042086	-3.871000E+00	  0.041042086	3.786400E+01	  0.041042086	7.392800E+01	  0.041042086	9.851800E+01
107	  0.041242484	-3.926000E+00	  0.041242484	3.578900E+01	  0.041242484	7.986300E+01	  0.041242484	9.988000E+01
108	  0.041442886	-3.981000E+00	  0.041442886	3.371600E+01	  0.041442886	8.625600E+01	  0.041442886	1.008760E+02
109	  0.041643288	-4.036000E+00	  0.041643288	3.164500E+01	  0.041643288	9.311200E+01	  0.041643288	1.014330E+02
110	  0.041843686	-4.088000E+00	  0.041843686	2.958400E+01	  0.041843686	1.003830E+02	  0.041843686	1.014910E+02
111	  0.042044088	-4.136000E+00	  0.042044088	2.752700E+01	  0.042044088	1.080640E+02	  0.042044088	1.010010E+02
112	  0.042244490	-4.188000E+00	  0.042244490	2.549500E+01	  0.042244490	1.160430E+02	  0.042244490	9.967200E+01
113	  0.042444889	-4.238000E+00	  0.042444889	2.347600E+01	  0.042444889	1.242710E+02	  0.042444889	9.753200E+01
114	  0.042645290	-4.290000E+00	  0.042645290	2.146900E+01	  0.042645290	1.326310E+02	  0.042645290	9.439900E+01
115	  0.042845692	-4.341000E+00	  0.042845692	1.947900E+01	  0.042845692	1.409570E+02	  0.042845692	9.024200E+01
116	  0.043046094	-4.391000E+00	  0.043046094	1.747400E+01	  0.043046094	1.492300E+02	  0.043046094	8.495900E+01
117	  0.043246493	-4.439000E+00	  0.043246493	1.547300E+01	  0.043246493	1.571960E+02	  0.043246493	7.857700E+01
118	  0.043446895	-4.487000E+00	  0.043446895	1.349300E+01	  0.043446895	1.645530E+02	  0.043446895	7.110900E+01
119	  0.043647297	-4.538000E+00	  0.043647297	1.151100E+01	  0.043647297	1.710640E+02	  0.043647297	6.244800E+01
120	  0.043847695	-4.586000E+00	  0.043847695	9.521000E+00	  0.043847695	1.766940E+02	  0.043847695	5.286200E+01
121	  0.044048097	-4.635000E+00	  0.044048097	7.562000E+00	  0.044048097	1.810140E+02	  0.044048097	4.258800E+01
122	  0.044248499	-4.681000E+00	  0.044248499	5.576000E+00	  0.044248499	1.841600E+02	  0.044248499	3.165200E+01
123	  0.044448901	-4.727000E+00	  0.044448901	3.614000E+00	  0.044448901	1.857960E+02	  0.044448901	2.049300E+01
124	  0.044649299	-4.773000E+00	  0.044649299	1.662000E+00	  0.044649299	1.860210E+02	  0.044649299	9.343000E+00
125	  0.044849701	-4.820000E+00	  0.044849701	-2.760000E-01	  0.044849701	1.847740E+02	  0.044849701	-1.525000E+00
126	  0.045050103	-4.862000E+00	  0.045050103	-2.210000E+00	  0.045050103	1.824160E+02	  0.045050103	-1.193600E+01
127	  0.045250501	-4.903000E+00	  0.045250501	-4.153000E+00	  0.045250501	1.789520E+02	  0.045250501	-2.178600E+01
128	  0.045450903	-4.940000E+00	  0.045450903	-6.075000E+00	  0.045450903	1.746310E+02	  0.045450903	-3.080600E+01
129	  0.045651305	-4.977000E+00	  0.045651305	-7.987000E+00	  0.045651305	1.695160E+02	  0.045651305	-3.894200E+01
130	  0.045851704	-5.015000E+00	  0.045851704	-9.884000E+00	  0.045851704	1.637820E+02	  0.045851704	-4.608400E+01
131	  0.046052106	-5.051000E+00	  0.046052106	-1.178400E+01	  0.046052106	1.576650E+02	  0.046052106	-5.236800E+01
132	  0.046252504	-5.088000E+00	  0.046252504	-1.366900E+01	  0.046252504	1.512720E+02	  0.046252504	-5.766200E+01
133	  0.046452906	-5.126000E+00	  0.046452906	-1.553800E+01	  0.046452906	1.448080E+02	  0.046452906	-6.206800E+01
134	  0.046653304	-5.159000E+00	  0.046653304	-1.742100E+01	  0.046653304	1.383430E+02	  0.046653304	-6.579300E+01
135	  0.046853706	-5.194000E+00	  0.046853706	-1.927900E+01	  0.046853706	1.319920E+02	  0.046853706	-6.870900E+01
136	  0.047054108	-5.223000E+00	  0.047054108	-2.112500E+01	  0.047054108	1.258710E+02	  0.047054108	-7.107600E+01
137	  0.047254506	-5.256000E+00	  0.047254506	-2.295300E+01	  0.047254506	1.199470E+02	  0.047254506	-7.278000E+01
138	  0.047454908	-5.286000E+00	  0.047454908	-2.476900E+01	  0.047454908	1.142910E+02	  0.047454908	-7.401300E+01
139	  0.047655310	-5.311000E+00	  0.047655310	-2.658200E+01	  0.047655310	1.089060E+02	  0.047655310	-7.493600E+01
140	  0.047855709	-5.336000E+00	  0.047855709	-2.835700E+01	  0.047855709	1.038570E+02	  0.047855709	-7.545400E+01
141	  0.048056111	-5.365000E+00	  0.048056111	-3.010000E+01	  0.048056111	9.912300E+01	  0.048056111	-7.557400E+01
142	  0.048256513	-5.393000E+00	  0.048256513	-3.185700E+01	  0.048256513	9.459900E+01	  0.048256513	-7.546100E+01
143	  0.048456915	-5.421000E+00	  0.048456915	-3.358800E+01	  0.048456915	9.037800E+01	  0.048456915	-7.512500E+01
144	  0.048657313	-5.450000E+00	  0.048657313	-3.532800E+01	  0.048657313	8.637000E+01	  0.048657313	-7.459900E+01
145	  0.048857715	-5.474000E+00	  0.048857715	-3.706900E+01	  0.048857715	8.258200E+01	  0.048857715	-7.397900E+01
146	  0.049058117	-5.501000E+00	  0.049058117	-3.879800E+01	  0.049058117	7.903500E+01	  0.049058117	-7.319800E+01
147	  0.049258515	-5.524000E+00	  0.049258515	-4.054000E+01	  0.049258515	7.566100E+01	  0.049258515	-7.233800E+01
148	  0.049458917	-5.548000E+00	  0.049458917	-4.224100E+01	  0.049458917	7.255800E+01	  0.049458917	-7.140600E+01
149	  0.049659319	-5.572000E+00	  0.049659319	-4.392600E+01	  0.049659319	6.966000E+01	  0.049659319	-7.040200E+01
150	  0.049859721	-5.601000E+00	  0.049859721	-4.564000E+01	  0.049859721	6.689800E+01	  0.049859721	-6.927100E+01
151	  0.050060119	-5.623000E+00	  0.050060119	-4.732800E+01	  0.050060119	6.431900E+01	  0.050060119	-6.817400E+01
152	  0.050260521	-5.646000E+00	  0.050260521	-4.901300E+01	  0.050260521	6.189100E+01	  0.050260521	-6.704100E+01
153	  0.050460923	-5.668000E+00	  0.050460923	-5.071000E+01	  0.050460923	5.957900E+01	  0.050460923	-6.588700E+01
154	  0.050661322	-5.685000E+00	  0.050661322	-5.238500E+01	  0.050661322	5.741200E+01	  0.050661322	-6.475500E+01
155	  0.050861724	-5.700000E+00	  0.050861724	-5.404300E+01	  0.050861724	5.537500E+01	  0.050861724	-6.363500E+01
156	  0.051062126	-5.714000E+00	  0.051062126	-5.569800E+01	  0.051062126	5.345200E+01	  0.051062126	-6.250500E+01
157	  0.051262524	-5.729000E+00	  0.051262524	-5.729900E+01	  0.051262524	5.169200E+01	  0.051262524	-6.139500E+01
158	  0.051462926	-5.746000E+00	  0.051462926	-5.888100E+01	  0.051462926	5.005300E+01	  0.051462926	-6.027700E+01
159	  0.051663328	-5.759000E+00	  0.051663328	-6.045300E+01	  0.051663328	4.849500E+01	  0.051663328	-5.918600E+01
160	  0.051863730	-5.772000E+00	  0.051863730	-6.200400E+01	  0.051863730	4.703200E+01	  0.051863730	-5.811400E+01
161	  0.052064128	-5.789000E+00	  0.052064128	-6.355300E+01	  0.052064128	4.566200E+01	  0.052064128	-5.701900E+01
162	  0.052264530	-5.803000E+00	  0.052264530	-6.508900E+01	  0.052264530	4.435700E+01	  0.052264530	-5.595400E+01
163	  0.052464932	-5.821000E+00	  0.052464932	-6.662300E+01	  0.052464932	4.313600E+01	  0.052464932	-5.487500E+01
164	  0.052665330	-5.835000E+00	  0.052665330	-6.819000E+01	  0.052665330	4.193000E+01	  0.052665330	-5.380500E+01
165	  0.052865732	-5.851000E+00	  0.052865732	-6.970400E+01	  0.052865732	4.083300E+01	  0.052865732	-5.276200E+01
166	  0.053066134	-5.867000E+00	  0.053066134	-7.122800E+01	  0.053066134	3.977900E+01	  0.053066134	-5.172500E+01
167	  0.053266536	-5.876000E+00	  0.053266536	-7.274100E+01	  0.053266536	3.875000E+01	  0.053266536	-5.074200E+01
168	  0.053466935	-5.889000E+00	  0.053466935	-7.425500E+01	  0.053466935	3.778800E+01	  0.053466935	-4.974300E+01
169	  0.053667337	-5.899000E+00	  0.053667337	-7.575100E+01	  0.053667337	3.686900E+01	  0.053667337	-4.877800E+01
170	  0.053867739	-5.906000E+00	  0.053867739	-7.723600E+01	  0.053867739	3.598500E+01	  0.053867739	-4.784000E+01
171	  0.054068137	-5.908000E+00	  0.054068137	-7.873000E+01	  0.054068137	3.511500E+01	  0.054068137	-4.692500E+01
172	  0.054268539	-5.914000E+00	  0.054268539	-8.018400E+01	  0.054268539	3.432000E+01	  0.054268539	-4.602500E+01
173	  0.054468941	-5.920000E+00	  0.054468941	-8.159900E+01	  0.054468941	3.358100E+01	  0.054468941	-4.515600E+01
174	  0.054669339	-5.927000E+00	  0.054669339	-8.302500E+01	  0.054669339	3.286900E+01	  0.054669339	-4.428600E+01
175	  0.054869737	-5.932000E+00	  0.054869737	-8.444800E+01	  0.054869737	3.217900E+01	  0.054869737	-4.343500E+01
176	  0.055070139	-5.942000E+00	  0.055070139	-8.583000E+01	  0.055070139	3.155500E+01	  0.055070139	-4.260100E+01
177	  0.055270538	-5.946000E+00	  0.055270538	-8.718100E+01	  0.055270538	3.095000E+01	  0.055270538	-4.180700E+01
178	  0.055470940	-5.955000E+00	  0.055470940	-8.857600E+01	  0.055470940	3.036400E+01	  0.055470940	-4.098600E+01
179	  0.055671342	-5.962000E+00	  0.055671342	-8.994900E+01	  0.055671342	2.980500E+01	  0.055671342	-4.018900E+01
180	  0.055871744	-5.965000E+00	  0.055871744	-9.132500E+01	  0.055871744	2.925200E+01	  0.055871744	-3.940900E+01
181	  0.056072142	-5.975000E+00	  0.056072142	-9.272700E+01	  0.056072142	2.873400E+01	  0.056072142	-3.860500E+01
182	  0.056272544	-5.979000E+00	  0.056272544	-9.408500E+01	  0.056272544	2.823300E+01	  0.056272544	-3.784900E+01
183	  0.056472946	-5.986000E+00	  0.056472946	-9.547300E+01	  0.056472946	2.775200E+01	  0.056472946	-3.707400E+01
184	  0.056673344	-5.991000E+00	  0.056673344	-9.682600E+01	  0.056673344	2.729100E+01	  0.056673344	-3.633400E+01
185	  0.056873746	-5.991000E+00	  0.056873746	-9.822000E+01	  0.056873746	2.682000E+01	  0.056873746	-3.558800E+01
186	  0.057074148	-5.993000E+00	  0.057074148	-9.956000E+01	  0.057074148	2.638500E+01	  0.057074148	-3.487600E+01
187	  0.057274550	-5.994000E+00	  0.057274550	-1.009610E+02	  0.057274550	2.594700E+01	  0.057274550	-3.413900E+01
188	  0.057474948	-5.990000E+00	  0.057474948	-1.022730E+02	  0.057474948	2.553600E+01	  0.057474948	-3.346400E+01
189	  0.057675350	-5.985000E+00	  0.057675350	-1.036050E+02	  0.057675350	2.513000E+01	  0.057675350	-3.278600E+01
190	  0.057875752	-5.983000E+00	  0.057875752	-1.049240E+02	  0.057875752	2.474900E+01	  0.057875752	-3.211500E+01
191	  0.058076151	-5.984000E+00	  0.058076151	-1.062420E+02	  0.058076151	2.439300E+01	  0.058076151	-3.144500E+01
192	  0.058276553	-5.979000E+00	  0.058276553	-1.075110E+02	  0.058276553	2.404500E+01	  0.058276553	-3.081400E+01
193	  0.058476955	-5.977000E+00	  0.058476955	-1.087670E+02	  0.058476955	2.371800E+01	  0.058476955	-3.019100E+01
194	  0.058677353	-5.975000E+00	  0.058677353	-1.100100E+02	  0.058677353	2.340500E+01	  0.058677353	-2.957900E+01
195	  0.058877755	-5.976000E+00	  0.058877755	-1.112620E+02	  0.058877755	2.311100E+01	  0.058877755	-2.896300E+01
196	  0.059078157	-5.974000E+00	  0.059078157	-1.125220E+02	  0.059078157	2.281500E+01	  0.059078157	-2.835100E+01
197	  0.059278559	-5.974000E+00	  0.059278559	-1.137520E+02	  0.059278559	2.254300E+01	  0.059278559	-2.775500E+01
198	  0.059478957	-5.975000E+00	  0.059478957	-1.149830E+02	  0.059478957	2.228000E+01	  0.059478957	-2.716300E+01
199	  0.059679359	-5.976000E+00	  0.059679359	-1.162130E+02	  0.059679359	2.202900E+01	  0.059679359	-2.657500E+01
200	  0.059879761	-5.976000E+00	  0.059879761	-1.174600E+02	  0.059879761	2.177700E+01	  0.059879761	-2.598500E+01
201	  0.060080159	-5.976000E+00	  0.060080159	-1.186580E+02	  0.060080159	2.154700E+01	  0.060080159	-2.542200E+01
202	  0.060280561	-5.975000E+00	  0.060280561	-1.198660E+02	  0.060280561	2.131300E+01	  0.060280561	-2.486100E+01
203	  0.060480963	-5.976000E+00	  0.060480963	-1.210700E+02	  0.060480963	2.109900E+01	  0.060480963	-2.430100E+01
204	  0.060681365	-5.976000E+00	  0.060681365	-1.222920E+02	  0.060681365	2.088400E+01	  0.060681365	-2.373900E+01
205	  0.060881764	-5.977000E+00	  0.060881764	-1.234650E+02	  0.060881764	2.068600E+01	  0.060881764	-2.320200E+01
206	  0.061082166	-5.975000E+00	  0.061082166	-1.246520E+02	  0.061082166	2.048500E+01	  0.061082166	-2.266500E+01
207	  0.061282568	-5.971000E+00	  0.061282568	-1.258470E+02	  0.061282568	2.028400E+01	  0.061282568	-2.212900E+01
208	  0.061482966	-5.969000E+00	  0.061482966	-1.269880E+02	  0.061482966	2.010100E+01	  0.061482966	-2.162000E+01
209	  0.061683368	-5.971000E+00	  0.061683368	-1.281560E+02	  0.061683368	1.993200E+01	  0.061683368	-2.109700E+01
210	  0.061883770	-5.969000E+00	  0.061883770	-1.292980E+02	  0.061883770	1.976300E+01	  0.061883770	-2.059200E+01
211	  0.062084168	-5.969000E+00	  0.062084168	-1.304480E+02	  0.062084168	1.960100E+01	  0.062084168	-2.008500E+01
212	  0.062284570	-5.972000E+00	  0.062284570	-1.315720E+02	  0.062284570	1.945800E+01	  0.062284570	-1.958900E+01
213	  0.062484972	-5.963000E+00	  0.062484972	-1.326560E+02	  0.062484972	1.928900E+01	  0.062484972	-1.912500E+01
214	  0.062685370	-5.967000E+00	  0.062685370	-1.338060E+02	  0.062685370	1.915700E+01	  0.062685370	-1.862200E+01
215	  0.062885776	-5.975000E+00	  0.062885776	-1.349300E+02	  0.062885776	1.904000E+01	  0.062885776	-1.813100E+01
216	  0.063086174	-5.975000E+00	  0.063086174	-1.360510E+02	  0.063086174	1.890800E+01	  0.063086174	-1.764900E+01
217	  0.063286573	-5.980000E+00	  0.063286573	-1.372130E+02	  0.063286573	1.878800E+01	  0.063286573	-1.714900E+01
218	  0.063486971	-5.978000E+00	  0.063486971	-1.383220E+02	  0.063486971	1.866200E+01	  0.063486971	-1.667900E+01
219	  0.063687377	-5.976000E+00	  0.063687377	-1.394750E+02	  0.063687377	1.853200E+01	  0.063687377	-1.619300E+01
220	  0.063887775	-5.981000E+00	  0.063887775	-1.405890E+02	  0.063887775	1.843300E+01	  0.063887775	-1.572000E+01
221	  0.064088173	-5.974000E+00	  0.064088173	-1.417120E+02	  0.064088173	1.830100E+01	  0.064088173	-1.525400E+01
222	  0.064288579	-5.975000E+00	  0.064288579	-1.428130E+02	  0.064288579	1.819700E+01	  0.064288579	-1.479400E+01
223	  0.064488977	-5.973000E+00	  0.064488977	-1.439130E+02	  0.064488977	1.809100E+01	  0.064488977	-1.433700E+01
224	  0.064689375	-5.974000E+00	  0.064689375	-1.449780E+02	  0.064689375	1.800000E+01	  0.064689375	-1.389500E+01
225	  0.064889781	-5.972000E+00	  0.064889781	-1.460530E+02	  0.064889781	1.790100E+01	  0.064889781	-1.345300E+01
226	  0.065090179	-5.967000E+00	  0.065090179	-1.471280E+02	  0.065090179	1.779900E+01	  0.065090179	-1.301300E+01
227	  0.065290578	-5.967000E+00	  0.065290578	-1.481320E+02	  0.065290578	1.771900E+01	  0.065290578	-1.260200E+01
228	  0.065490983	-5.963000E+00	  0.065490983	-1.491790E+02	  0.065490983	1.762900E+01	  0.065490983	-1.217600E+01
229	  0.065691382	-5.957000E+00	  0.065691382	-1.502280E+02	  0.065691382	1.753500E+01	  0.065691382	-1.175200E+01
230	  0.065891780	-5.957000E+00	  0.065891780	-1.512320E+02	  0.065891780	1.746600E+01	  0.065891780	-1.134300E+01
231	  0.066092186	-5.953000E+00	  0.066092186	-1.522540E+02	  0.066092186	1.738400E+01	  0.066092186	-1.093200E+01
232	  0.066292584	-5.952000E+00	  0.066292584	-1.532920E+02	  0.066292584	1.731600E+01	  0.066292584	-1.051300E+01
233	  0.066492982	-5.944000E+00	  0.066492982	-1.542960E+02	  0.066492982	1.723100E+01	  0.066492982	-1.011200E+01
234	  0.066693388	-5.943000E+00	  0.066693388	-1.552830E+02	  0.066693388	1.717100E+01	  0.066693388	-9.715000E+00
235	  0.066893786	-5.936000E+00	  0.066893786	-1.562900E+02	  0.066893786	1.709500E+01	  0.066893786	-9.314000E+00
236	  0.067094192	-5.930000E+00	  0.067094192	-1.573000E+02	  0.067094192	1.702300E+01	  0.067094192	-8.912000E+00
237	  0.067294590	-5.928000E+00	  0.067294590	-1.583090E+02	  0.067294590	1.696500E+01	  0.067294590	-8.510000E+00
238	  0.067494988	-5.917000E+00	  0.067494988	-1.593370E+02	  0.067494988	1.688700E+01	  0.067494988	-8.104000E+00
239	  0.067695394	-5.914000E+00	  0.067695394	-1.603200E+02	  0.067695394	1.683200E+01	  0.067695394	-7.715000E+00
240	  0.067895792	-5.909000E+00	  0.067895792	-1.613410E+02	  0.067895792	1.677600E+01	  0.067895792	-7.310000E+00
241	  0.068096191	-5.900000E+00	  0.068096191	-1.623750E+02	  0.068096191	1.670800E+01	  0.068096191	-6.903000E+00
242	  0.068296596	-5.900000E+00	  0.068296596	-1.633700E+02	  0.068296596	1.667100E+01	  0.068296596	-6.510000E+00
243	  0.068496995	-5.899000E+00	  0.068496995	-1.643500E+02	  0.068496995	1.663200E+01	  0.068496995	-6.123000E+00
244	  0.068697393	-5.892000E+00	  0.068697393	-1.653510E+02	  0.068697393	1.657800E+01	  0.068697393	-5.730000E+00
245	  0.068897791	-5.887000E+00	  0.068897791	-1.663860E+02	  0.068897791	1.653200E+01	  0.068897791	-5.323000E+00
246	  0.069098189	-5.882000E+00	  0.069098189	-1.673910E+02	  0.069098189	1.649100E+01	  0.069098189	-4.929000E+00
247	  0.069298595	-5.875000E+00	  0.069298595	-1.683810E+02	  0.069298595	1.644500E+01	  0.069298595	-4.541000E+00
248	  0.069498993	-5.869000E+00	  0.069498993	-1.693560E+02	  0.069498993	1.640500E+01	  0.069498993	-4.159000E+00
249	  0.069699399	-5.871000E+00	  0.069699399	-1.703840E+02	  0.069699399	1.638500E+01	  0.069699399	-3.756000E+00
250	  0.069899797	-5.865000E+00	  0.069899797	-1.713730E+02	  0.069899797	1.635100E+01	  0.069899797	-3.369000E+00
251	  0.070100196	-5.861000E+00	  0.070100196	-1.723650E+02	  0.070100196	1.632200E+01	  0.070100196	-2.982000E+00
252	  0.070300601	-5.864000E+00	  0.070300601	-1.733400E+02	  0.070300601	1.631400E+01	  0.070300601	-2.600000E+00
253	  0.070501000	-5.857000E+00	  0.070501000	-1.743570E+02	  0.070501000	1.628300E+01	  0.070501000	-2.203000E+00
254	  0.070701398	-5.847000E+00	  0.070701398	-1.753600E+02	  0.070701398	1.624700E+01	  0.070701398	-1.811000E+00
255	  0.070901804	-5.849000E+00	  0.070901804	-1.763220E+02	  0.070901804	1.624200E+01	  0.070901804	-1.435000E+00
256	  0.071102202	-5.844000E+00	  0.071102202	-1.772980E+02	  0.071102202	1.622200E+01	  0.071102202	-1.055000E+00
257	  0.071302600	-5.842000E+00	  0.071302600	-1.783210E+02	  0.071302600	1.621300E+01	  0.071302600	-6.550000E-01
258	  0.071503006	-5.844000E+00	  0.071503006	-1.792730E+02	  0.071503006	1.621500E+01	  0.071503006	-2.830000E-01
259	  0.071703404	-5.844000E+00	  0.071703404	1.797980E+02	  0.071703404	1.621500E+01	  0.071703404	7.800000E-02
260	  0.071903802	-5.846000E+00	  0.071903802	1.788120E+02	  0.071903802	1.622000E+01	  0.071903802	4.630000E-01
261	  0.072104208	-5.842000E+00	  0.072104208	1.778680E+02	  0.072104208	1.621400E+01	  0.072104208	8.320000E-01
262	  0.072304606	-5.844000E+00	  0.072304606	1.769100E+02	  0.072304606	1.622600E+01	  0.072304606	1.206000E+00
263	  0.072505005	-5.844000E+00	  0.072505005	1.759620E+02	  0.072505005	1.623100E+01	  0.072505005	1.576000E+00
264	  0.072705410	-5.844000E+00	  0.072705410	1.750300E+02	  0.072705410	1.624000E+01	  0.072705410	1.941000E+00
265	  0.072905809	-5.846000E+00	  0.072905809	1.740690E+02	  0.072905809	1.625900E+01	  0.072905809	2.316000E+00
266	  0.073106214	-5.851000E+00	  0.073106214	1.731160E+02	  0.073106214	1.628500E+01	  0.073106214	2.689000E+00
267	  0.073306613	-5.855000E+00	  0.073306613	1.721920E+02	  0.073306613	1.630900E+01	  0.073306613	3.050000E+00
268	  0.073507011	-5.856000E+00	  0.073507011	1.712640E+02	  0.073507011	1.633100E+01	  0.073507011	3.413000E+00
269	  0.073707417	-5.864000E+00	  0.073707417	1.703430E+02	  0.073707417	1.636800E+01	  0.073707417	3.773000E+00
270	  0.073907815	-5.865000E+00	  0.073907815	1.694070E+02	  0.073907815	1.639300E+01	  0.073907815	4.140000E+00
271	  0.074108213	-5.869000E+00	  0.074108213	1.684790E+02	  0.074108213	1.642700E+01	  0.074108213	4.504000E+00
272	  0.074308619	-5.875000E+00	  0.074308619	1.675430E+02	  0.074308619	1.646800E+01	  0.074308619	4.871000E+00
273	  0.074509017	-5.882000E+00	  0.074509017	1.665920E+02	  0.074509017	1.651300E+01	  0.074509017	5.243000E+00
274	  0.074709415	-5.887000E+00	  0.074709415	1.656950E+02	  0.074709415	1.655400E+01	  0.074709415	5.596000E+00
275	  0.074909821	-5.895000E+00	  0.074909821	1.647660E+02	  0.074909821	1.660600E+01	  0.074909821	5.960000E+00
276	  0.075110219	-5.907000E+00	  0.075110219	1.638240E+02	  0.075110219	1.667000E+01	  0.075110219	6.329000E+00
277	  0.075310618	-5.913000E+00	  0.075310618	1.629310E+02	  0.075310618	1.671900E+01	  0.075310618	6.680000E+00
278	  0.075511023	-5.923000E+00	  0.075511023	1.620090E+02	  0.075511023	1.678200E+01	  0.075511023	7.042000E+00
279	  0.075711422	-5.927000E+00	  0.075711422	1.611070E+02	  0.075711422	1.683100E+01	  0.075711422	7.398000E+00
280	  0.075911827	-5.936000E+00	  0.075911827	1.602180E+02	  0.075911827	1.689500E+01	  0.075911827	7.748000E+00
281	  0.076112226	-5.942000E+00	  0.076112226	1.593010E+02	  0.076112226	1.695300E+01	  0.076112226	8.111000E+00
282	  0.076312624	-5.950000E+00	  0.076312624	1.583630E+02	  0.076312624	1.702100E+01	  0.076312624	8.481000E+00
283	  0.076513030	-5.960000E+00	  0.076513030	1.574540E+02	  0.076513030	1.709300E+01	  0.076513030	8.841000E+00
284	  0.076713428	-5.970000E+00	  0.076713428	1.565240E+02	  0.076713428	1.717100E+01	  0.076713428	9.208000E+00
285	  0.076913826	-5.976000E+00	  0.076913826	1.556160E+02	  0.076913826	1.723600E+01	  0.076913826	9.570000E+00
286	  0.077114232	-5.977000E+00	  0.077114232	1.547150E+02	  0.077114232	1.729400E+01	  0.077114232	9.930000E+00
287	  0.077314630	-5.986000E+00	  0.077314630	1.538290E+02	  0.077314630	1.737100E+01	  0.077314630	1.028200E+01
288	  0.077515028	-5.990000E+00	  0.077515028	1.529610E+02	  0.077515028	1.743600E+01	  0.077515028	1.063000E+01
289	  0.077715434	-5.997000E+00	  0.077715434	1.520830E+02	  0.077715434	1.751400E+01	  0.077715434	1.098100E+01
290	  0.077915832	-6.003000E+00	  0.077915832	1.511940E+02	  0.077915832	1.759000E+01	  0.077915832	1.133800E+01
291	  0.078116231	-6.014000E+00	  0.078116231	1.503200E+02	  0.078116231	1.768100E+01	  0.078116231	1.168700E+01
292	  0.078316636	-6.026000E+00	  0.078316636	1.494540E+02	  0.078316636	1.777700E+01	  0.078316636	1.203300E+01
293	  0.078517035	-6.035000E+00	  0.078517035	1.485710E+02	  0.078517035	1.786900E+01	  0.078517035	1.238700E+01
294	  0.078717433	-6.046000E+00	  0.078717433	1.477060E+02	  0.078717433	1.796700E+01	  0.078717433	1.273500E+01
295	  0.078917839	-6.060000E+00	  0.078917839	1.468400E+02	  0.078917839	1.807300E+01	  0.078917839	1.308200E+01
296	  0.079118237	-6.070000E+00	  0.079118237	1.460210E+02	  0.079118237	1.817100E+01	  0.079118237	1.341100E+01
297	  0.079318643	-6.085000E+00	  0.079318643	1.451580E+02	  0.079318643	1.828400E+01	  0.079318643	1.375700E+01
298	  0.079519041	-6.100000E+00	  0.079519041	1.443120E+02	  0.079519041	1.840200E+01	  0.079519041	1.409600E+01
299	  0.079719439	-6.114000E+00	  0.079719439	1.434570E+02	  0.079719439	1.851900E+01	  0.079719439	1.444000E+01
300	  0.079919845	-6.129000E+00	  0.079919845	1.426220E+02	  0.079919845	1.863700E+01	  0.079919845	1.477600E+01
301	  0.080120243	-6.149000E+00	  0.080120243	1.417770E+02	  0.080120243	1.877500E+01	  0.080120243	1.511300E+01
302	  0.080320641	-6.161000E+00	  0.080320641	1.409200E+02	  0.080320641	1.889400E+01	  0.080320641	1.546100E+01
303	  0.080521047	-6.180000E+00	  0.080521047	1.400560E+02	  0.080521047	1.903400E+01	  0.080521047	1.580800E+01
304	  0.080721445	-6.196000E+00	  0.080721445	1.392480E+02	  0.080721445	1.916600E+01	  0.080721445	1.613300E+01
305	  0.080921844	-6.214000E+00	  0.080921844	1.384030E+02	  0.080921844	1.930900E+01	  0.080921844	1.647400E+01
306	  0.081122249	-6.232000E+00	  0.081122249	1.375890E+02	  0.081122249	1.945000E+01	  0.081122249	1.680200E+01
307	  0.081322648	-6.254000E+00	  0.081322648	1.367780E+02	  0.081322648	1.960300E+01	  0.081322648	1.712600E+01
308	  0.081523046	-6.274000E+00	  0.081523046	1.359440E+02	  0.081523046	1.976000E+01	  0.081523046	1.746100E+01
309	  0.081723452	-6.295000E+00	  0.081723452	1.351170E+02	  0.081723452	1.991700E+01	  0.081723452	1.779300E+01
310	  0.081923850	-6.316000E+00	  0.081923850	1.343140E+02	  0.081923850	2.007900E+01	  0.081923850	1.811400E+01
311	  0.082124248	-6.335000E+00	  0.082124248	1.334960E+02	  0.082124248	2.023500E+01	  0.082124248	1.844600E+01
312	  0.082324654	-6.358000E+00	  0.082324654	1.327110E+02	  0.082324654	2.040500E+01	  0.082324654	1.875900E+01
313	  0.082525052	-6.380000E+00	  0.082525052	1.319290E+02	  0.082525052	2.057200E+01	  0.082525052	1.907200E+01
314	  0.082725458	-6.405000E+00	  0.082725458	1.311620E+02	  0.082725458	2.074800E+01	  0.082725458	1.937600E+01
315	  0.082925856	-6.432000E+00	  0.082925856	1.303630E+02	  0.082925856	2.093900E+01	  0.082925856	1.969200E+01
316	  0.083126254	-6.460000E+00	  0.083126254	1.295770E+02	  0.083126254	2.113100E+01	  0.083126254	2.000100E+01
317	  0.083326660	-6.483000E+00	  0.083326660	1.287310E+02	  0.083326660	2.132400E+01	  0.083326660	2.034100E+01
318	  0.083527058	-6.507000E+00	  0.083527058	1.279580E+02	  0.083527058	2.150900E+01	  0.083527058	2.064900E+01
319	  0.083727457	-6.531000E+00	  0.083727457	1.271350E+02	  0.083727457	2.170700E+01	  0.083727457	2.097800E+01
320	  0.083927862	-6.556000E+00	  0.083927862	1.263980E+02	  0.083927862	2.189700E+01	  0.083927862	2.127000E+01
321	  0.084128261	-6.582000E+00	  0.084128261	1.256430E+02	  0.084128261	2.209400E+01	  0.084128261	2.156800E+01
322	  0.084328659	-6.601000E+00	  0.084328659	1.248750E+02	  0.084328659	2.227700E+01	  0.084328659	2.188000E+01
323	  0.084529065	-6.630000E+00	  0.084529065	1.241490E+02	  0.084529065	2.248600E+01	  0.084529065	2.216100E+01
324	  0.084729463	-6.654000E+00	  0.084729463	1.234010E+02	  0.084729463	2.268700E+01	  0.084729463	2.245700E+01
325	  0.084929861	-6.681000E+00	  0.084929861	1.226900E+02	  0.084929861	2.289200E+01	  0.084929861	2.273400E+01
326	  0.085130267	-6.707000E+00	  0.085130267	1.219530E+02	  0.085130267	2.310100E+01	  0.085130267	2.302500E+01
327	  0.085330658	-6.733000E+00	  0.085330658	1.212470E+02	  0.085330658	2.330800E+01	  0.085330658	2.330000E+01
328	  0.085531056	-6.764000E+00	  0.085531056	1.205490E+02	  0.085531056	2.353300E+01	  0.085531056	2.356500E+01
329	  0.085731462	-6.798000E+00	  0.085731462	1.198620E+02	  0.085731462	2.376200E+01	  0.085731462	2.382200E+01
330	  0.085931860	-6.828000E+00	  0.085931860	1.191960E+02	  0.085931860	2.398200E+01	  0.085931860	2.407400E+01
331	  0.086132258	-6.855000E+00	  0.086132258	1.185270E+02	  0.086132258	2.419600E+01	  0.086132258	2.433000E+01
332	  0.086332664	-6.887000E+00	  0.086332664	1.178840E+02	  0.086332664	2.442300E+01	  0.086332664	2.456700E+01
333	  0.086533062	-6.918000E+00	  0.086533062	1.172230E+02	  0.086533062	2.465200E+01	  0.086533062	2.481300E+01
334	  0.086733460	-6.946000E+00	  0.086733460	1.165530E+02	  0.086733460	2.487600E+01	  0.086733460	2.506700E+01
335	  0.086933866	-6.976000E+00	  0.086933866	1.158890E+02	  0.086933866	2.511100E+01	  0.086933866	2.531400E+01
336	  0.087134264	-6.999000E+00	  0.087134264	1.152060E+02	  0.087134264	2.533000E+01	  0.087134264	2.557900E+01
337	  0.087334670	-7.028000E+00	  0.087334670	1.145930E+02	  0.087334670	2.555300E+01	  0.087334670	2.580500E+01
338	  0.087535068	-7.053000E+00	  0.087535068	1.139330E+02	  0.087535068	2.577800E+01	  0.087535068	2.605600E+01
339	  0.087735467	-7.073000E+00	  0.087735467	1.133000E+02	  0.087735467	2.598600E+01	  0.087735467	2.630300E+01
340	  0.087935872	-7.096000E+00	  0.087935872	1.126690E+02	  0.087935872	2.620400E+01	  0.087935872	2.654400E+01
341	  0.088136271	-7.113000E+00	  0.088136271	1.120020E+02	  0.088136271	2.641800E+01	  0.088136271	2.680900E+01
342	  0.088336669	-7.130000E+00	  0.088336669	1.113630E+02	  0.088336669	2.662700E+01	  0.088336669	2.706200E+01
343	  0.088537075	-7.139000E+00	  0.088537075	1.106870E+02	  0.088537075	2.682500E+01	  0.088537075	2.734500E+01
344	  0.088737473	-7.155000E+00	  0.088737473	1.100600E+02	  0.088737473	2.703400E+01	  0.088737473	2.759400E+01
345	  0.088937871	-7.171000E+00	  0.088937871	1.093710E+02	  0.088937871	2.726100E+01	  0.088937871	2.787200E+01
346	  0.089138277	-7.185000E+00	  0.089138277	1.087030E+02	  0.089138277	2.748100E+01	  0.089138277	2.814200E+01
347	  0.089338675	-7.204000E+00	  0.089338675	1.080600E+02	  0.089338675	2.771000E+01	  0.089338675	2.839300E+01
348	  0.089539073	-7.222000E+00	  0.089539073	1.073770E+02	  0.089539073	2.795400E+01	  0.089539073	2.866200E+01
349	  0.089739479	-7.243000E+00	  0.089739479	1.067020E+02	  0.089739479	2.820400E+01	  0.089739479	2.892400E+01
350	  0.089939877	-7.269000E+00	  0.089939877	1.060180E+02	  0.089939877	2.847800E+01	  0.089939877	2.917700E+01
351	  0.090140276	-7.287000E+00	  0.090140276	1.053090E+02	  0.090140276	2.873800E+01	  0.090140276	2.945700E+01
352	  0.090340681	-7.316000E+00	  0.090340681	1.046680E+02	  0.090340681	2.901300E+01	  0.090340681	2.968400E+01
353	  0.090541080	-7.333000E+00	  0.090541080	1.039550E+02	  0.090541080	2.927900E+01	  0.090541080	2.996700E+01
354	  0.090741485	-7.364000E+00	  0.090741485	1.032800E+02	  0.090741485	2.957800E+01	  0.090741485	3.020300E+01
355	  0.090941884	-7.384000E+00	  0.090941884	1.026280E+02	  0.090941884	2.984300E+01	  0.090941884	3.044900E+01
356	  0.091142282	-7.414000E+00	  0.091142282	1.019690E+02	  0.091142282	3.014100E+01	  0.091142282	3.067700E+01
357	  0.091342688	-7.440000E+00	  0.091342688	1.013780E+02	  0.091342688	3.040900E+01	  0.091342688	3.088200E+01
358	  0.091543086	-7.466000E+00	  0.091543086	1.006970E+02	  0.091543086	3.070900E+01	  0.091543086	3.112700E+01
359	  0.091743484	-7.497000E+00	  0.091743484	1.000690E+02	  0.091743484	3.101100E+01	  0.091743484	3.133400E+01
360	  0.091943890	-7.524000E+00	  0.091943890	9.948100E+01	  0.091943890	3.129100E+01	  0.091943890	3.153100E+01
361	  0.092144288	-7.558000E+00	  0.092144288	9.885100E+01	  0.092144288	3.160700E+01	  0.092144288	3.173100E+01
362	  0.092344686	-7.583000E+00	  0.092344686	9.828300E+01	  0.092344686	3.188100E+01	  0.092344686	3.191900E+01
363	  0.092545092	-7.620000E+00	  0.092545092	9.768200E+01	  0.092545092	3.220000E+01	  0.092545092	3.209600E+01
364	  0.092745490	-7.648000E+00	  0.092745490	9.711100E+01	  0.092745490	3.249000E+01	  0.092745490	3.227500E+01
365	  0.092945889	-7.690000E+00	  0.092945889	9.657200E+01	  0.092945889	3.280600E+01	  0.092945889	3.240800E+01
366	  0.093146294	-7.723000E+00	  0.093146294	9.597700E+01	  0.093146294	3.312400E+01	  0.093146294	3.258200E+01
367	  0.093346693	-7.764000E+00	  0.093346693	9.542000E+01	  0.093346693	3.345100E+01	  0.093346693	3.271800E+01
368	  0.093547091	-7.799000E+00	  0.093547091	9.485900E+01	  0.093547091	3.376600E+01	  0.093547091	3.286800E+01
369	  0.093747497	-7.838000E+00	  0.093747497	9.429200E+01	  0.093747497	3.409600E+01	  0.093747497	3.300900E+01
370	  0.093947895	-7.873000E+00	  0.093947895	9.368700E+01	  0.093947895	3.443400E+01	  0.093947895	3.317300E+01
371	  0.094148301	-7.911000E+00	  0.094148301	9.311900E+01	  0.094148301	3.476700E+01	  0.094148301	3.331100E+01
372	  0.094348699	-7.949000E+00	  0.094348699	9.256400E+01	  0.094348699	3.509800E+01	  0.094348699	3.344100E+01
373	  0.094549097	-7.994000E+00	  0.094549097	9.198200E+01	  0.094549097	3.545900E+01	  0.094549097	3.356200E+01
374	  0.094749503	-8.031000E+00	  0.094749503	9.143200E+01	  0.094749503	3.579100E+01	  0.094749503	3.368500E+01
375	  0.094949901	-8.064000E+00	  0.094949901	9.089300E+01	  0.094949901	3.611000E+01	  0.094949901	3.381300E+01
376	  0.095150299	-8.101000E+00	  0.095150299	9.034900E+01	  0.095150299	3.644100E+01	  0.095150299	3.393000E+01
377	  0.095350705	-8.133000E+00	  0.095350705	8.981100E+01	  0.095350705	3.676000E+01	  0.095350705	3.405600E+01
378	  0.095551103	-8.170000E+00	  0.095551103	8.926100E+01	  0.095551103	3.710100E+01	  0.095551103	3.416900E+01
379	  0.095751502	-8.201000E+00	  0.095751502	8.871700E+01	  0.095751502	3.742400E+01	  0.095751502	3.429600E+01
380	  0.095951907	-8.238000E+00	  0.095951907	8.822200E+01	  0.095951907	3.774300E+01	  0.095951907	3.438100E+01
381	  0.096152306	-8.272000E+00	  0.096152306	8.771800E+01	  0.096152306	3.806200E+01	  0.096152306	3.447600E+01
382	  0.096352704	-8.303000E+00	  0.096352704	8.722800E+01	  0.096352704	3.836600E+01	  0.096352704	3.457400E+01
383	  0.096553110	-8.336000E+00	  0.096553110	8.671500E+01	  0.096553110	3.868900E+01	  0.096553110	3.467100E+01
384	  0.096753508	-8.367000E+00	  0.096753508	8.624600E+01	  0.096753508	3.898700E+01	  0.096753508	3.475500E+01
385	  0.096953906	-8.398000E+00	  0.096953906	8.577400E+01	  0.096953906	3.929000E+01	  0.096953906	3.483700E+01
386	  0.097154312	-8.430000E+00	  0.097154312	8.529400E+01	  0.097154312	3.960000E+01	  0.097154312	3.491700E+01
387	  0.097354710	-8.464000E+00	  0.097354710	8.482100E+01	  0.097354710	3.991300E+01	  0.097354710	3.498500E+01
388	  0.097555116	-8.488000E+00	  0.097555116	8.438300E+01	  0.097555116	4.018600E+01	  0.097555116	3.506900E+01
389	  0.097755514	-8.519000E+00	  0.097755514	8.392300E+01	  0.097755514	4.048800E+01	  0.097755514	3.513800E+01
390	  0.097955912	-8.546000E+00	  0.097955912	8.347300E+01	  0.097955912	4.077700E+01	  0.097955912	3.521300E+01
391	  0.098156318	-8.572000E+00	  0.098156318	8.305400E+01	  0.098156318	4.105300E+01	  0.098156318	3.527500E+01
392	  0.098356716	-8.600000E+00	  0.098356716	8.265200E+01	  0.098356716	4.132300E+01	  0.098356716	3.532600E+01
393	  0.098557115	-8.626000E+00	  0.098557115	8.226600E+01	  0.098557115	4.157900E+01	  0.098557115	3.537700E+01
394	  0.098757520	-8.648000E+00	  0.098757520	8.185000E+01	  0.098757520	4.184400E+01	  0.098757520	3.544800E+01
395	  0.098957919	-8.674000E+00	  0.098957919	8.147000E+01	  0.098957919	4.210200E+01	  0.098957919	3.549100E+01
396	  0.099158317	-8.697000E+00	  0.099158317	8.107700E+01	  0.099158317	4.235900E+01	  0.099158317	3.554800E+01
397	  0.099358723	-8.719000E+00	  0.099358723	8.072000E+01	  0.099358723	4.259900E+01	  0.099358723	3.559200E+01
398	  0.099559121	-8.747000E+00	  0.099559121	8.039300E+01	  0.099559121	4.283500E+01	  0.099559121	3.560500E+01
399	  0.099759519	-8.771000E+00	  0.099759519	8.002200E+01	  0.099759519	4.308700E+01	  0.099759519	3.564400E+01
400	  0.099959925	-8.792000E+00	  0.099959925	7.971100E+01	  0.099959925	4.330000E+01	  0.099959925	3.567400E+01
401	  0.100160323	-8.816000E+00	  0.100160323	7.933100E+01	  0.100160323	4.355800E+01	  0.100160323	3.571200E+01
402	  0.100360721	-8.841000E+00	  0.100360721	7.904700E+01	  0.100360721	4.376600E+01	  0.100360721	3.571600E+01
403	  0.100561127	-8.863000E+00	  0.100561127	7.861900E+01	  0.100561127	4.404800E+01	  0.100561127	3.577500E+01
404	  0.100761525	-8.886000E+00	  0.100761525	7.824300E+01	  0.100761525	4.430400E+01	  0.100761525	3.581000E+01
405	  0.100961931	-8.904000E+00	  0.100961931	7.795300E+01	  0.100961931	4.450200E+01	  0.100961931	3.583800E+01
406	  0.101162329	-8.922000E+00	  0.101162329	7.758000E+01	  0.101162329	4.474800E+01	  0.101162329	3.588700E+01
407	  0.101362728	-8.942000E+00	  0.101362728	7.717700E+01	  0.101362728	4.501500E+01	  0.101362728	3.593900E+01
408	  0.101563133	-8.968000E+00	  0.101563133	7.689700E+01	  0.101563133	4.522600E+01	  0.101563133	3.592800E+01
409	  0.101763532	-8.973000E+00	  0.101763532	7.652400E+01	  0.101763532	4.544900E+01	  0.101763532	3.602200E+01
410	  0.101963930	-8.986000E+00	  0.101963930	7.617800E+01	  0.101963930	4.567200E+01	  0.101963930	3.607700E+01
411	  0.102164336	-8.998000E+00	  0.102164336	7.572800E+01	  0.102164336	4.595600E+01	  0.102164336	3.616500E+01
412	  0.102364734	-9.018000E+00	  0.102364734	7.544300E+01	  0.102364734	4.616100E+01	  0.102364734	3.617100E+01
413	  0.102565132	-9.021000E+00	  0.102565132	7.503900E+01	  0.102565132	4.640200E+01	  0.102565132	3.627900E+01
414	  0.102765530	-9.024000E+00	  0.102765530	7.469800E+01	  0.102765530	4.660800E+01	  0.102765530	3.636700E+01
415	  0.102965929	-9.028000E+00	  0.102965929	7.434100E+01	  0.102965929	4.682900E+01	  0.102965929	3.645200E+01
416	  0.103166327	-9.037000E+00	  0.103166327	7.405200E+01	  0.103166327	4.701900E+01	  0.103166327	3.649800E+01
417	  0.103366733	-9.031000E+00	  0.103366733	7.366100E+01	  0.103366733	4.724200E+01	  0.103366733	3.663500E+01
418	  0.103567131	-9.034000E+00	  0.103567131	7.328800E+01	  0.103567131	4.747500E+01	  0.103567131	3.672300E+01
419	  0.103767529	-9.039000E+00	  0.103767529	7.294300E+01	  0.103767529	4.769400E+01	  0.103767529	3.680100E+01
420	  0.103967935	-9.038000E+00	  0.103967935	7.257700E+01	  0.103967935	4.791800E+01	  0.103967935	3.690400E+01
421	  0.104168333	-9.032000E+00	  0.104168333	7.219700E+01	  0.104168333	4.814200E+01	  0.104168333	3.703300E+01
422	  0.104368731	-9.030000E+00	  0.104368731	7.190200E+01	  0.104368731	4.832200E+01	  0.104368731	3.712100E+01
423	  0.104569137	-9.026000E+00	  0.104569137	7.149500E+01	  0.104569137	4.857200E+01	  0.104569137	3.724500E+01
424	  0.104769535	-9.014000E+00	  0.104769535	7.115400E+01	  0.104769535	4.876600E+01	  0.104769535	3.738900E+01
425	  0.104969934	-9.003000E+00	  0.104969934	7.077600E+01	  0.104969934	4.899000E+01	  0.104969934	3.753200E+01
426	  0.105170339	-9.008000E+00	  0.105170339	7.040100E+01	  0.105170339	4.923900E+01	  0.105170339	3.761200E+01
427	  0.105370738	-8.977000E+00	  0.105370738	7.008900E+01	  0.105370738	4.938900E+01	  0.105370738	3.782300E+01
428	  0.105571143	-8.983000E+00	  0.105571143	6.971100E+01	  0.105571143	4.964600E+01	  0.105571143	3.789700E+01
429	  0.105771542	-8.959000E+00	  0.105771542	6.928800E+01	  0.105771542	4.988500E+01	  0.105771542	3.811000E+01
430	  0.105971940	-8.962000E+00	  0.105971940	6.892900E+01	  0.105971940	5.012900E+01	  0.105971940	3.818800E+01
431	  0.106172346	-8.937000E+00	  0.106172346	6.852800E+01	  0.106172346	5.035600E+01	  0.106172346	3.840100E+01
432	  0.106372744	-8.928000E+00	  0.106372744	6.810000E+01	  0.106372744	5.063100E+01	  0.106372744	3.854800E+01
433	  0.106573142	-8.908000E+00	  0.106573142	6.768200E+01	  0.106573142	5.088600E+01	  0.106573142	3.873900E+01
434	  0.106773548	-8.898000E+00	  0.106773548	6.722100E+01	  0.106773548	5.118800E+01	  0.106773548	3.889900E+01
435	  0.106973946	-8.886000E+00	  0.106973946	6.682200E+01	  0.106973946	5.144800E+01	  0.106973946	3.904800E+01
436	  0.107174344	-8.874000E+00	  0.107174344	6.644100E+01	  0.107174344	5.169700E+01	  0.107174344	3.919900E+01
437	  0.107374750	-8.853000E+00	  0.107374750	6.594300E+01	  0.107374750	5.201800E+01	  0.107374750	3.941500E+01
438	  0.107575148	-8.837000E+00	  0.107575148	6.538300E+01	  0.107575148	5.239700E+01	  0.107575148	3.962000E+01
439	  0.107775547	-8.820000E+00	  0.107775547	6.496100E+01	  0.107775547	5.268000E+01	  0.107775547	3.979700E+01
440	  0.107975952	-8.808000E+00	  0.107975952	6.443500E+01	  0.107975952	5.304800E+01	  0.107975952	3.997500E+01
441	  0.108176351	-8.787000E+00	  0.108176351	6.394700E+01	  0.108176351	5.338100E+01	  0.108176351	4.018800E+01
442	  0.108376749	-8.772000E+00	  0.108376749	6.341600E+01	  0.108376749	5.375900E+01	  0.108376749	4.038000E+01
443	  0.108577155	-8.758000E+00	  0.108577155	6.283700E+01	  0.108577155	5.418100E+01	  0.108577155	4.057300E+01
444	  0.108777553	-8.734000E+00	  0.108777553	6.226400E+01	  0.108777553	5.459100E+01	  0.108777553	4.081400E+01
445	  0.108977959	-8.723000E+00	  0.108977959	6.171100E+01	  0.108977959	5.500800E+01	  0.108977959	4.098500E+01
446	  0.109178357	-8.700000E+00	  0.109178357	6.108100E+01	  0.109178357	5.547800E+01	  0.109178357	4.122900E+01
447	  0.109378755	-8.682000E+00	  0.109378755	6.052500E+01	  0.109378755	5.590100E+01	  0.109378755	4.143400E+01
448	  0.109579161	-8.659000E+00	  0.109579161	5.986900E+01	  0.109579161	5.640800E+01	  0.109579161	4.167800E+01
449	  0.109779559	-8.645000E+00	  0.109779559	5.926700E+01	  0.109779559	5.688800E+01	  0.109779559	4.186400E+01
450	  0.109979957	-8.622000E+00	  0.109979957	5.866000E+01	  0.109979957	5.737000E+01	  0.109979957	4.209600E+01
451	  0.110180363	-8.604000E+00	  0.110180363	5.798700E+01	  0.110180363	5.792100E+01	  0.110180363	4.230800E+01
452	  0.110380761	-8.574000E+00	  0.110380761	5.738600E+01	  0.110380761	5.840800E+01	  0.110380761	4.257500E+01
453	  0.110581160	-8.559000E+00	  0.110581160	5.669100E+01	  0.110581160	5.900100E+01	  0.110581160	4.276900E+01
454	  0.110781565	-8.542000E+00	  0.110781565	5.605500E+01	  0.110781565	5.954800E+01	  0.110781565	4.295900E+01
455	  0.110981964	-8.519000E+00	  0.110981964	5.537500E+01	  0.110981964	6.014000E+01	  0.110981964	4.318700E+01
456	  0.111182362	-8.503000E+00	  0.111182362	5.468500E+01	  0.111182362	6.075600E+01	  0.111182362	4.337300E+01
457	  0.111382768	-8.484000E+00	  0.111382768	5.401100E+01	  0.111382768	6.136700E+01	  0.111382768	4.356300E+01
458	  0.111583166	-8.471000E+00	  0.111583166	5.334500E+01	  0.111583166	6.198300E+01	  0.111583166	4.371400E+01
459	  0.111783572	-8.459000E+00	  0.111783572	5.266100E+01	  0.111783572	6.262700E+01	  0.111783572	4.385400E+01
460	  0.111983970	-8.440000E+00	  0.111983970	5.194900E+01	  0.111983970	6.330500E+01	  0.111983970	4.403200E+01
461	  0.112184368	-8.421000E+00	  0.112184368	5.117300E+01	  0.112184368	6.405700E+01	  0.112184368	4.421300E+01
462	  0.112384774	-8.417000E+00	  0.112384774	5.045200E+01	  0.112384774	6.477300E+01	  0.112384774	4.427500E+01
463	  0.112585172	-8.405000E+00	  0.112585172	4.974300E+01	  0.112585172	6.548500E+01	  0.112585172	4.438000E+01
464	  0.112785570	-8.399000E+00	  0.112785570	4.897400E+01	  0.112785570	6.626900E+01	  0.112785570	4.444100E+01
465	  0.112985976	-8.396000E+00	  0.112985976	4.822900E+01	  0.112985976	6.704000E+01	  0.112985976	4.446500E+01
466	  0.113186374	-8.392000E+00	  0.113186374	4.740400E+01	  0.113186374	6.790400E+01	  0.113186374	4.448400E+01
467	  0.113386773	-8.393000E+00	  0.113386773	4.667300E+01	  0.113386773	6.867800E+01	  0.113386773	4.444900E+01
468	  0.113587178	-8.392000E+00	  0.113587178	4.585300E+01	  0.113587178	6.955800E+01	  0.113587178	4.441900E+01
469	  0.113787577	-8.391000E+00	  0.113787577	4.509300E+01	  0.113787577	7.038300E+01	  0.113787577	4.436800E+01
470	  0.113987975	-8.399000E+00	  0.113987975	4.422000E+01	  0.113987975	7.133400E+01	  0.113987975	4.422500E+01
471	  0.114188381	-8.396000E+00	  0.114188381	4.339600E+01	  0.114188381	7.224900E+01	  0.114188381	4.414300E+01
472	  0.114388779	-8.413000E+00	  0.114388779	4.255800E+01	  0.114388779	7.316900E+01	  0.114388779	4.389700E+01
473	  0.114589177	-8.412000E+00	  0.114589177	4.163400E+01	  0.114589177	7.421100E+01	  0.114589177	4.374000E+01
474	  0.114789583	-8.424000E+00	  0.114789583	4.078800E+01	  0.114789583	7.515800E+01	  0.114789583	4.347800E+01
475	  0.114989981	-8.439000E+00	  0.114989981	3.989500E+01	  0.114989981	7.615500E+01	  0.114989981	4.315100E+01
476	  0.115190387	-8.453000E+00	  0.115190387	3.899400E+01	  0.115190387	7.716700E+01	  0.115190387	4.280900E+01
477	  0.115390785	-8.464000E+00	  0.115390785	3.805300E+01	  0.115390785	7.823400E+01	  0.115390785	4.244400E+01
478	  0.115591183	-8.477000E+00	  0.115591183	3.708600E+01	  0.115591183	7.932800E+01	  0.115591183	4.201900E+01
479	  0.115791589	-8.488000E+00	  0.115791589	3.611700E+01	  0.115791589	8.043000E+01	  0.115791589	4.157000E+01
480	  0.115991987	-8.507000E+00	  0.115991987	3.513900E+01	  0.115991987	8.152100E+01	  0.115991987	4.102500E+01
481	  0.116192386	-8.522000E+00	  0.116192386	3.417300E+01	  0.116192386	8.260200E+01	  0.116192386	4.047100E+01
482	  0.116392791	-8.545000E+00	  0.116392791	3.319800E+01	  0.116392791	8.366400E+01	  0.116392791	3.981700E+01
483	  0.116593190	-8.563000E+00	  0.116593190	3.218600E+01	  0.116593190	8.477800E+01	  0.116593190	3.914900E+01
484	  0.116793588	-8.583000E+00	  0.116793588	3.115000E+01	  0.116793588	8.589700E+01	  0.116793588	3.839800E+01
485	  0.116993994	-8.604000E+00	  0.116993994	3.012900E+01	  0.116993994	8.698300E+01	  0.116993994	3.761300E+01
486	  0.117194392	-8.633000E+00	  0.117194392	2.905600E+01	  0.117194392	8.807600E+01	  0.117194392	3.668900E+01
487	  0.117394790	-8.646000E+00	  0.117394790	2.799800E+01	  0.117394790	8.920100E+01	  0.117394790	3.584400E+01
488	  0.117595196	-8.676000E+00	  0.117595196	2.694200E+01	  0.117595196	9.022300E+01	  0.117595196	3.483400E+01
489	  0.117795594	-8.705000E+00	  0.117795594	2.584500E+01	  0.117795594	9.126000E+01	  0.117795594	3.375100E+01
490	  0.117995992	-8.739000E+00	  0.117995992	2.472800E+01	  0.117995992	9.225700E+01	  0.117995992	3.257300E+01
491	  0.118196398	-8.767000E+00	  0.118196398	2.366700E+01	  0.118196398	9.319600E+01	  0.118196398	3.144300E+01
492	  0.118396796	-8.810000E+00	  0.118396796	2.254500E+01	  0.118396796	9.405900E+01	  0.118396796	3.011500E+01
493	  0.118597202	-8.847000E+00	  0.118597202	2.137100E+01	  0.118597202	9.496400E+01	  0.118597202	2.873900E+01
494	  0.118797600	-8.889000E+00	  0.118797600	2.019400E+01	  0.118797600	9.578000E+01	  0.118797600	2.728700E+01
495	  0.118997999	-8.940000E+00	  0.118997999	1.905600E+01	  0.118997999	9.644000E+01	  0.118997999	2.578900E+01
496	  0.119198404	-8.983000E+00	  0.119198404	1.783000E+01	  0.119198404	9.717000E+01	  0.119198404	2.421600E+01
497	  0.119398803	-9.045000E+00	  0.119398803	1.664800E+01	  0.119398803	9.764700E+01	  0.119398803	2.255900E+01
498	  0.119599201	-9.110000E+00	  0.119599201	1.542200E+01	  0.119599201	9.806300E+01	  0.119599201	2.082800E+01
499	  0.119799607	-9.179000E+00	  0.119799607	1.415900E+01	  0.119799607	9.838600E+01	  0.119799607	1.902700E+01
500	  0.120000005	-9.249000E+00	  0.120000005	1.290600E+01	  0.120000005	9.861600E+01	  0.120000005	1.723700E+01
