! Anritsu VNA Master:             	Model: MS2036C/10/77
! SN:             	1601066
! /bd0/18may07/256.ew.m13.txt
! Existing Calibration Information:
! TYPE:             	Current Settings	Active Cal Settings
! TIME:             	05/07/2018 02:28:49 PM	05/07/2018 02:21:54 PM
! INTERNAL TEMP:    	56.5 C	55.5 C
! # POINTS:         	500	500
! START FREQ:       	20.000 MHz	20.000 MHz
! STOP FREQ:        	120.000 MHz	120.000 MHz
! SOURCE POWER:     	High	High
! IFBW:             	50 Hz	50 Hz
! AVG FACTOR:       	  1 	  1 
! REF PLANE 1:      	0 mm	0 mm
! REF PLANE 2:      	0 mm	0 mm
! CAL TYPE:         	Full S11	Full S11
! CAL METHOD:       	SOLT	SOLT
! CAL LINE TYPE:    	Coax	Coax
! DUT PORT 1:       	K-Conn(F)	K-Conn(F)
! DUT PORT 2:       	K-Conn(F)	K-Conn(F)
! CAL STATUS:       	OK: Accuracy High	--
! PROP-V:       	0.700
! CABLE LOSS:       	0.000 dB/m
! REF IMPEDANCE:       	50.0
! Trace Specific Parameters:	TR1	TR2	TR3	TR4
! TRACE.#.Y (GRAPH TYPE)	LOG MAG	PHASE	REAL IMPEDANCE	IMAGINARY IMPEDANCE
! TRACE.#.X 	FREQ.GHZ	FREQ.GHZ	FREQ.GHZ	FREQ.GHZ
! S-PARAMETER	S11	S11	S11	S11
! SMOOTH/APERTURE %	0	0	0	0
! WINDOW	NSL	NSL	NSL	NSL
! GATING	OFF	OFF	OFF	OFF
! FGTD	OFF	OFF	OFF	OFF
Marker Information per Trace:	TR1	TR2	TR3	TR4
!MK1	--	"MK1 TR2:  20.000 MHz,PH:-126.16°"	--	--
!MK2	--	--	"MK2 TR3:  70.100 200 MHz,Z:(16.506 ohm, -2.565 ohm)"	--
!MK3	--	--	--	--
!MK4	--	--	--	--
!MK5	--	--	--	--
!MK6	--	--	--	--
!MK7	--	--	--	--
!MK8	--	--	--	--
PNT	TR1.FREQ.GHZ	TR1.LOG MAG.dB	TR2.FREQ.GHZ	TR2.PHASE.deg	TR3.FREQ.GHZ	TR3.REAL IMPEDANCE.ohm	TR4.FREQ.GHZ	TR4.IMAGINARY IMPEDANCE.ohm
1	  0.020000000	-6.440000E-01	  0.020000000	-1.261590E+02	  0.020000000	2.330000E+00	  0.020000000	-2.534400E+01
2	  0.020200402	-6.420000E-01	  0.020200402	-1.276260E+02	  0.020200402	2.295000E+00	  0.020200402	-2.454600E+01
3	  0.020400802	-6.430000E-01	  0.020400802	-1.290940E+02	  0.020400802	2.270000E+00	  0.020400802	-2.375700E+01
4	  0.020601204	-6.450000E-01	  0.020601204	-1.305550E+02	  0.020601204	2.249000E+00	  0.020601204	-2.298200E+01
5	  0.020801604	-6.490000E-01	  0.020801604	-1.320580E+02	  0.020801604	2.238000E+00	  0.020801604	-2.219300E+01
6	  0.021002004	-6.560000E-01	  0.021002004	-1.335650E+02	  0.021002004	2.235000E+00	  0.021002004	-2.141100E+01
7	  0.021202406	-6.620000E-01	  0.021202406	-1.351050E+02	  0.021202406	2.231000E+00	  0.021202406	-2.062100E+01
8	  0.021402806	-6.690000E-01	  0.021402806	-1.366390E+02	  0.021402806	2.229000E+00	  0.021402806	-1.984300E+01
9	  0.021603208	-6.730000E-01	  0.021603208	-1.381730E+02	  0.021603208	2.220000E+00	  0.021603208	-1.907300E+01
10	  0.021803608	-6.780000E-01	  0.021803608	-1.397050E+02	  0.021803608	2.214000E+00	  0.021803608	-1.831200E+01
11	  0.022004008	-6.860000E-01	  0.022004008	-1.412450E+02	  0.022004008	2.217000E+00	  0.022004008	-1.755400E+01
12	  0.022204408	-6.940000E-01	  0.022204408	-1.427890E+02	  0.022204408	2.222000E+00	  0.022204408	-1.680200E+01
13	  0.022404809	-6.950000E-01	  0.022404809	-1.443650E+02	  0.022404809	2.207000E+00	  0.022404809	-1.604100E+01
14	  0.022605211	-6.980000E-01	  0.022605211	-1.459680E+02	  0.022605211	2.197000E+00	  0.022605211	-1.527400E+01
15	  0.022805611	-7.040000E-01	  0.022805611	-1.475650E+02	  0.022805611	2.197000E+00	  0.022805611	-1.451600E+01
16	  0.023006011	-7.100000E-01	  0.023006011	-1.491510E+02	  0.023006011	2.200000E+00	  0.023006011	-1.377000E+01
17	  0.023206413	-7.130000E-01	  0.023206413	-1.507470E+02	  0.023206413	2.192000E+00	  0.023206413	-1.302500E+01
18	  0.023406813	-7.170000E-01	  0.023406813	-1.523330E+02	  0.023406813	2.189000E+00	  0.023406813	-1.228900E+01
19	  0.023607215	-7.200000E-01	  0.023607215	-1.539210E+02	  0.023607215	2.183000E+00	  0.023607215	-1.155800E+01
20	  0.023807615	-7.270000E-01	  0.023807615	-1.555140E+02	  0.023807615	2.191000E+00	  0.023807615	-1.082900E+01
21	  0.024008015	-7.380000E-01	  0.024008015	-1.571410E+02	  0.024008015	2.211000E+00	  0.024008015	-1.008900E+01
22	  0.024208417	-7.470000E-01	  0.024208417	-1.587720E+02	  0.024208417	2.225000E+00	  0.024208417	-9.351000E+00
23	  0.024408817	-7.570000E-01	  0.024408817	-1.604250E+02	  0.024408817	2.244000E+00	  0.024408817	-8.608000E+00
24	  0.024609219	-7.660000E-01	  0.024609219	-1.620810E+02	  0.024609219	2.259000E+00	  0.024609219	-7.867000E+00
25	  0.024809619	-7.750000E-01	  0.024809619	-1.637360E+02	  0.024809619	2.276000E+00	  0.024809619	-7.129000E+00
26	  0.025010020	-7.880000E-01	  0.025010020	-1.653960E+02	  0.025010020	2.305000E+00	  0.025010020	-6.393000E+00
27	  0.025210422	-7.990000E-01	  0.025210422	-1.670570E+02	  0.025210422	2.330000E+00	  0.025210422	-5.659000E+00
28	  0.025410822	-8.140000E-01	  0.025410822	-1.687390E+02	  0.025410822	2.365000E+00	  0.025410822	-4.918000E+00
29	  0.025611224	-8.270000E-01	  0.025611224	-1.704390E+02	  0.025611224	2.397000E+00	  0.025611224	-4.171000E+00
30	  0.025811624	-8.430000E-01	  0.025811624	-1.721520E+02	  0.025811624	2.436000E+00	  0.025811624	-3.421000E+00
31	  0.026012026	-8.540000E-01	  0.026012026	-1.738800E+02	  0.026012026	2.463000E+00	  0.026012026	-2.666000E+00
32	  0.026212426	-8.640000E-01	  0.026212426	-1.756150E+02	  0.026212426	2.491000E+00	  0.026212426	-1.909000E+00
33	  0.026412826	-8.770000E-01	  0.026412826	-1.773400E+02	  0.026412826	2.524000E+00	  0.026412826	-1.157000E+00
34	  0.026613226	-8.930000E-01	  0.026613226	-1.790880E+02	  0.026613226	2.570000E+00	  0.026613226	-3.960000E-01
35	  0.026813626	-9.100000E-01	  0.026813626	1.791530E+02	  0.026813626	2.617000E+00	  0.026813626	3.680000E-01
36	  0.027014028	-9.270000E-01	  0.027014028	1.773910E+02	  0.027014028	2.668000E+00	  0.027014028	1.135000E+00
37	  0.027214428	-9.450000E-01	  0.027214428	1.755970E+02	  0.027214428	2.721000E+00	  0.027214428	1.916000E+00
38	  0.027414829	-9.610000E-01	  0.027414829	1.738130E+02	  0.027414829	2.771000E+00	  0.027414829	2.693000E+00
39	  0.027615231	-9.790000E-01	  0.027615231	1.720190E+02	  0.027615231	2.830000E+00	  0.027615231	3.476000E+00
40	  0.027815631	-9.980000E-01	  0.027815631	1.702020E+02	  0.027815631	2.891000E+00	  0.027815631	4.271000E+00
41	  0.028016033	-1.019000E+00	  0.028016033	1.683820E+02	  0.028016033	2.961000E+00	  0.028016033	5.068000E+00
42	  0.028216433	-1.042000E+00	  0.028216433	1.665570E+02	  0.028216433	3.038000E+00	  0.028216433	5.871000E+00
43	  0.028416833	-1.063000E+00	  0.028416833	1.647200E+02	  0.028416833	3.112000E+00	  0.028416833	6.681000E+00
44	  0.028617235	-1.086000E+00	  0.028617235	1.628930E+02	  0.028617235	3.194000E+00	  0.028617235	7.490000E+00
45	  0.028817635	-1.105000E+00	  0.028817635	1.610600E+02	  0.028817635	3.265000E+00	  0.028817635	8.305000E+00
46	  0.029018037	-1.125000E+00	  0.029018037	1.592450E+02	  0.029018037	3.343000E+00	  0.029018037	9.116000E+00
47	  0.029218437	-1.147000E+00	  0.029218437	1.574220E+02	  0.029218437	3.428000E+00	  0.029218437	9.935000E+00
48	  0.029418837	-1.171000E+00	  0.029418837	1.555990E+02	  0.029418837	3.522000E+00	  0.029418837	1.075900E+01
49	  0.029619239	-1.196000E+00	  0.029619239	1.537710E+02	  0.029619239	3.624000E+00	  0.029619239	1.159000E+01
50	  0.029819639	-1.225000E+00	  0.029819639	1.519010E+02	  0.029819639	3.741000E+00	  0.029819639	1.244600E+01
51	  0.030020041	-1.256000E+00	  0.030020041	1.500180E+02	  0.030020041	3.869000E+00	  0.030020041	1.331400E+01
52	  0.030220442	-1.286000E+00	  0.030220442	1.480980E+02	  0.030220442	3.997000E+00	  0.030220442	1.420600E+01
53	  0.030420844	-1.317000E+00	  0.030420844	1.461810E+02	  0.030420844	4.131000E+00	  0.030420844	1.510400E+01
54	  0.030621244	-1.347000E+00	  0.030621244	1.442750E+02	  0.030621244	4.270000E+00	  0.030621244	1.600600E+01
55	  0.030821644	-1.379000E+00	  0.030821644	1.423620E+02	  0.030821644	4.419000E+00	  0.030821644	1.692000E+01
56	  0.031022044	-1.413000E+00	  0.031022044	1.404310E+02	  0.031022044	4.581000E+00	  0.031022044	1.785100E+01
57	  0.031222444	-1.444000E+00	  0.031222444	1.385250E+02	  0.031222444	4.737000E+00	  0.031222444	1.878100E+01
58	  0.031422846	-1.480000E+00	  0.031422846	1.365400E+02	  0.031422846	4.922000E+00	  0.031422846	1.976000E+01
59	  0.031623244	-1.518000E+00	  0.031623244	1.345440E+02	  0.031623244	5.116000E+00	  0.031623244	2.075600E+01
60	  0.031823646	-1.556000E+00	  0.031823646	1.325450E+02	  0.031823646	5.321000E+00	  0.031823646	2.176700E+01
61	  0.032024048	-1.589000E+00	  0.032024048	1.305420E+02	  0.032024048	5.521000E+00	  0.032024048	2.279500E+01
62	  0.032224450	-1.626000E+00	  0.032224450	1.285260E+02	  0.032224450	5.739000E+00	  0.032224450	2.384400E+01
63	  0.032424849	-1.662000E+00	  0.032424849	1.265320E+02	  0.032424849	5.968000E+00	  0.032424849	2.489700E+01
64	  0.032625251	-1.695000E+00	  0.032625251	1.245240E+02	  0.032625251	6.191000E+00	  0.032625251	2.597500E+01
65	  0.032825653	-1.734000E+00	  0.032825653	1.225300E+02	  0.032825653	6.451000E+00	  0.032825653	2.706100E+01
66	  0.033026051	-1.772000E+00	  0.033026051	1.205530E+02	  0.033026051	6.717000E+00	  0.033026051	2.815600E+01
67	  0.033226453	-1.813000E+00	  0.033226453	1.185590E+02	  0.033226453	7.012000E+00	  0.033226453	2.927800E+01
68	  0.033426855	-1.859000E+00	  0.033426855	1.165710E+02	  0.033426855	7.336000E+00	  0.033426855	3.041400E+01
69	  0.033627257	-1.910000E+00	  0.033627257	1.145790E+02	  0.033627257	7.697000E+00	  0.033627257	3.157000E+01
70	  0.033827655	-1.959000E+00	  0.033827655	1.125540E+02	  0.033827655	8.074000E+00	  0.033827655	3.276800E+01
71	  0.034028057	-2.013000E+00	  0.034028057	1.105020E+02	  0.034028057	8.489000E+00	  0.034028057	3.400500E+01
72	  0.034228459	-2.062000E+00	  0.034228459	1.084070E+02	  0.034228459	8.914000E+00	  0.034228459	3.529600E+01
73	  0.034428857	-2.111000E+00	  0.034428857	1.062930E+02	  0.034428857	9.367000E+00	  0.034428857	3.662700E+01
74	  0.034629259	-2.159000E+00	  0.034629259	1.041500E+02	  0.034629259	9.848000E+00	  0.034629259	3.800900E+01
75	  0.034829661	-2.203000E+00	  0.034829661	1.020490E+02	  0.034829661	1.032900E+01	  0.034829661	3.939900E+01
76	  0.035030060	-2.248000E+00	  0.035030060	9.992100E+01	  0.035030060	1.085200E+01	  0.035030060	4.083900E+01
77	  0.035230462	-2.293000E+00	  0.035230462	9.782400E+01	  0.035230462	1.140400E+01	  0.035230462	4.229300E+01
78	  0.035430863	-2.335000E+00	  0.035430863	9.573200E+01	  0.035430863	1.197600E+01	  0.035430863	4.378300E+01
79	  0.035631265	-2.377000E+00	  0.035631265	9.366000E+01	  0.035631265	1.258000E+01	  0.035631265	4.529800E+01
80	  0.035831664	-2.421000E+00	  0.035831664	9.157700E+01	  0.035831664	1.323700E+01	  0.035831664	4.685800E+01
81	  0.036032066	-2.465000E+00	  0.036032066	8.952200E+01	  0.036032066	1.393300E+01	  0.036032066	4.843700E+01
82	  0.036232468	-2.510000E+00	  0.036232468	8.744100E+01	  0.036232468	1.469200E+01	  0.036232468	5.007800E+01
83	  0.036432866	-2.559000E+00	  0.036432866	8.540500E+01	  0.036432866	1.551000E+01	  0.036432866	5.172000E+01
84	  0.036633268	-2.608000E+00	  0.036633268	8.337600E+01	  0.036633268	1.638700E+01	  0.036633268	5.340000E+01
85	  0.036833670	-2.663000E+00	  0.036833670	8.132600E+01	  0.036833670	1.736700E+01	  0.036833670	5.513000E+01
86	  0.037034072	-2.720000E+00	  0.037034072	7.928000E+01	  0.037034072	1.843400E+01	  0.037034072	5.689700E+01
87	  0.037234470	-2.778000E+00	  0.037234470	7.722000E+01	  0.037234470	1.959100E+01	  0.037234470	5.872000E+01
88	  0.037434869	-2.839000E+00	  0.037434869	7.514200E+01	  0.037434869	2.085900E+01	  0.037434869	6.060100E+01
89	  0.037635271	-2.899000E+00	  0.037635271	7.303500E+01	  0.037635271	2.223800E+01	  0.037635271	6.256100E+01
90	  0.037835669	-2.959000E+00	  0.037835669	7.089200E+01	  0.037835669	2.375000E+01	  0.037835669	6.460600E+01
91	  0.038036071	-3.021000E+00	  0.038036071	6.874100E+01	  0.038036071	2.540300E+01	  0.038036071	6.670800E+01
92	  0.038236473	-3.083000E+00	  0.038236473	6.656900E+01	  0.038236473	2.721200E+01	  0.038236473	6.888000E+01
93	  0.038436871	-3.139000E+00	  0.038436871	6.441600E+01	  0.038436871	2.912200E+01	  0.038436871	7.110700E+01
94	  0.038637273	-3.193000E+00	  0.038637273	6.225700E+01	  0.038637273	3.118600E+01	  0.038637273	7.340400E+01
95	  0.038837675	-3.245000E+00	  0.038837675	6.011700E+01	  0.038837675	3.340000E+01	  0.038837675	7.573900E+01
96	  0.039038073	-3.294000E+00	  0.039038073	5.800800E+01	  0.039038073	3.576500E+01	  0.039038073	7.809700E+01
97	  0.039238475	-3.338000E+00	  0.039238475	5.594400E+01	  0.039238475	3.826000E+01	  0.039238475	8.046800E+01
98	  0.039438877	-3.389000E+00	  0.039438877	5.386300E+01	  0.039438877	4.105800E+01	  0.039438877	8.284700E+01
99	  0.039639279	-3.441000E+00	  0.039639279	5.182300E+01	  0.039639279	4.406200E+01	  0.039639279	8.518300E+01
100	  0.039839678	-3.498000E+00	  0.039839678	4.976600E+01	  0.039839678	4.741800E+01	  0.039839678	8.748100E+01
101	  0.040040080	-3.556000E+00	  0.040040080	4.769000E+01	  0.040040080	5.111100E+01	  0.040040080	8.977200E+01
102	  0.040240481	-3.616000E+00	  0.040240481	4.563500E+01	  0.040240481	5.512100E+01	  0.040240481	9.195100E+01
103	  0.040440880	-3.677000E+00	  0.040440880	4.354300E+01	  0.040440880	5.955800E+01	  0.040440880	9.408500E+01
104	  0.040641282	-3.736000E+00	  0.040641282	4.147100E+01	  0.040641282	6.434300E+01	  0.040641282	9.607400E+01
105	  0.040841684	-3.793000E+00	  0.040841684	3.937900E+01	  0.040841684	6.957400E+01	  0.040841684	9.792800E+01
106	  0.041042086	-3.852000E+00	  0.041042086	3.730700E+01	  0.041042086	7.521900E+01	  0.041042086	9.949200E+01
107	  0.041242484	-3.907000E+00	  0.041242484	3.524000E+01	  0.041242484	8.127700E+01	  0.041242484	1.008230E+02
108	  0.041442886	-3.961000E+00	  0.041442886	3.316400E+01	  0.041442886	8.783300E+01	  0.041442886	1.017920E+02
109	  0.041643288	-4.017000E+00	  0.041643288	3.108600E+01	  0.041643288	9.489100E+01	  0.041643288	1.022400E+02
110	  0.041843686	-4.069000E+00	  0.041843686	2.903300E+01	  0.041843686	1.023100E+02	  0.041843686	1.021950E+02
111	  0.042044088	-4.119000E+00	  0.042044088	2.697600E+01	  0.042044088	1.101730E+02	  0.042044088	1.015370E+02
112	  0.042244490	-4.169000E+00	  0.042244490	2.494200E+01	  0.042244490	1.183300E+02	  0.042244490	1.000740E+02
113	  0.042444889	-4.221000E+00	  0.042444889	2.292900E+01	  0.042444889	1.266850E+02	  0.042444889	9.766400E+01
114	  0.042645290	-4.271000E+00	  0.042645290	2.090400E+01	  0.042645290	1.352630E+02	  0.042645290	9.430000E+01
115	  0.042845692	-4.320000E+00	  0.042845692	1.891200E+01	  0.042845692	1.437240E+02	  0.042845692	8.990200E+01
116	  0.043046094	-4.371000E+00	  0.043046094	1.691500E+01	  0.043046094	1.520150E+02	  0.043046094	8.427200E+01
117	  0.043246493	-4.420000E+00	  0.043246493	1.490000E+01	  0.043246493	1.600490E+02	  0.043246493	7.748300E+01
118	  0.043446895	-4.469000E+00	  0.043446895	1.291900E+01	  0.043446895	1.673230E+02	  0.043446895	6.959800E+01
119	  0.043647297	-4.517000E+00	  0.043647297	1.093600E+01	  0.043647297	1.737660E+02	  0.043647297	6.061600E+01
120	  0.043847695	-4.563000E+00	  0.043847695	8.960000E+00	  0.043847695	1.791930E+02	  0.043847695	5.074800E+01
121	  0.044048097	-4.614000E+00	  0.044048097	6.979000E+00	  0.044048097	1.832200E+02	  0.044048097	3.999600E+01
122	  0.044248499	-4.663000E+00	  0.044248499	5.021000E+00	  0.044248499	1.858900E+02	  0.044248499	2.890000E+01
123	  0.044448901	-4.707000E+00	  0.044448901	3.074000E+00	  0.044448901	1.872220E+02	  0.044448901	1.765000E+01
124	  0.044649299	-4.753000E+00	  0.044649299	1.122000E+00	  0.044649299	1.870330E+02	  0.044649299	6.371000E+00
125	  0.044849701	-4.796000E+00	  0.044849701	-8.210000E-01	  0.044849701	1.855350E+02	  0.044849701	-4.581000E+00
126	  0.045050103	-4.838000E+00	  0.045050103	-2.749000E+00	  0.045050103	1.827980E+02	  0.045050103	-1.495400E+01
127	  0.045250501	-4.881000E+00	  0.045250501	-4.684000E+00	  0.045250501	1.789190E+02	  0.045250501	-2.468000E+01
128	  0.045450903	-4.920000E+00	  0.045450903	-6.595000E+00	  0.045450903	1.742270E+02	  0.045450903	-3.350200E+01
129	  0.045651305	-4.964000E+00	  0.045651305	-8.488000E+00	  0.045651305	1.686970E+02	  0.045651305	-4.128900E+01
130	  0.045851704	-5.006000E+00	  0.045851704	-1.037900E+01	  0.045851704	1.626860E+02	  0.045851704	-4.814600E+01
131	  0.046052106	-5.046000E+00	  0.046052106	-1.226800E+01	  0.046052106	1.563700E+02	  0.046052106	-5.410100E+01
132	  0.046252504	-5.084000E+00	  0.046252504	-1.415300E+01	  0.046252504	1.498810E+02	  0.046252504	-5.917700E+01
133	  0.046452906	-5.121000E+00	  0.046452906	-1.602300E+01	  0.046452906	1.433600E+02	  0.046452906	-6.338400E+01
134	  0.046653304	-5.156000E+00	  0.046653304	-1.789800E+01	  0.046653304	1.368550E+02	  0.046653304	-6.684400E+01
135	  0.046853706	-5.191000E+00	  0.046853706	-1.976000E+01	  0.046853706	1.305000E+02	  0.046853706	-6.960600E+01
136	  0.047054108	-5.224000E+00	  0.047054108	-2.160500E+01	  0.047054108	1.243670E+02	  0.047054108	-7.173400E+01
137	  0.047254506	-5.257000E+00	  0.047254506	-2.344600E+01	  0.047254506	1.184390E+02	  0.047254506	-7.330300E+01
138	  0.047454908	-5.286000E+00	  0.047454908	-2.526200E+01	  0.047454908	1.128410E+02	  0.047454908	-7.443600E+01
139	  0.047655310	-5.320000E+00	  0.047655310	-2.708500E+01	  0.047655310	1.074430E+02	  0.047655310	-7.507400E+01
140	  0.047855709	-5.348000E+00	  0.047855709	-2.886800E+01	  0.047855709	1.024340E+02	  0.047855709	-7.545400E+01
141	  0.048056111	-5.378000E+00	  0.048056111	-3.063200E+01	  0.048056111	9.772200E+01	  0.048056111	-7.550000E+01
142	  0.048256513	-5.407000E+00	  0.048256513	-3.237800E+01	  0.048256513	9.330000E+01	  0.048256513	-7.528900E+01
143	  0.048456915	-5.437000E+00	  0.048456915	-3.413400E+01	  0.048456915	8.909700E+01	  0.048456915	-7.488100E+01
144	  0.048657313	-5.466000E+00	  0.048657313	-3.587500E+01	  0.048657313	8.516300E+01	  0.048657313	-7.430300E+01
145	  0.048857715	-5.492000E+00	  0.048857715	-3.763900E+01	  0.048857715	8.140200E+01	  0.048857715	-7.361500E+01
146	  0.049058117	-5.520000E+00	  0.049058117	-3.938400E+01	  0.049058117	7.789900E+01	  0.049058117	-7.277700E+01
147	  0.049258515	-5.544000E+00	  0.049258515	-4.110400E+01	  0.049258515	7.464300E+01	  0.049258515	-7.188700E+01
148	  0.049458917	-5.570000E+00	  0.049458917	-4.283500E+01	  0.049458917	7.155500E+01	  0.049458917	-7.090100E+01
149	  0.049659319	-5.596000E+00	  0.049659319	-4.455500E+01	  0.049659319	6.866800E+01	  0.049659319	-6.984300E+01
150	  0.049859721	-5.619000E+00	  0.049859721	-4.625700E+01	  0.049859721	6.597100E+01	  0.049859721	-6.877200E+01
151	  0.050060119	-5.643000E+00	  0.050060119	-4.795300E+01	  0.050060119	6.344200E+01	  0.050060119	-6.764500E+01
152	  0.050260521	-5.665000E+00	  0.050260521	-4.964900E+01	  0.050260521	6.104600E+01	  0.050260521	-6.651200E+01
153	  0.050460923	-5.686000E+00	  0.050460923	-5.133100E+01	  0.050460923	5.880700E+01	  0.050460923	-6.536000E+01
154	  0.050661322	-5.701000E+00	  0.050661322	-5.301200E+01	  0.050661322	5.667100E+01	  0.050661322	-6.424500E+01
155	  0.050861724	-5.717000E+00	  0.050861724	-5.465900E+01	  0.050861724	5.469500E+01	  0.050861724	-6.312200E+01
156	  0.051062126	-5.730000E+00	  0.051062126	-5.632700E+01	  0.051062126	5.278900E+01	  0.051062126	-6.199600E+01
157	  0.051262524	-5.744000E+00	  0.051262524	-5.792700E+01	  0.051262524	5.106600E+01	  0.051262524	-6.089300E+01
158	  0.051462926	-5.761000E+00	  0.051462926	-5.951900E+01	  0.051462926	4.945400E+01	  0.051462926	-5.976700E+01
159	  0.051663328	-5.776000E+00	  0.051663328	-6.106900E+01	  0.051663328	4.795500E+01	  0.051663328	-5.868500E+01
160	  0.051863730	-5.788000E+00	  0.051863730	-6.263500E+01	  0.051863730	4.650200E+01	  0.051863730	-5.761400E+01
161	  0.052064128	-5.802000E+00	  0.052064128	-6.419300E+01	  0.052064128	4.514000E+01	  0.052064128	-5.653200E+01
162	  0.052264530	-5.818000E+00	  0.052264530	-6.571500E+01	  0.052264530	4.388200E+01	  0.052264530	-5.547200E+01
163	  0.052464932	-5.835000E+00	  0.052464932	-6.725000E+01	  0.052464932	4.268000E+01	  0.052464932	-5.440100E+01
164	  0.052665330	-5.848000E+00	  0.052665330	-6.879500E+01	  0.052665330	4.151000E+01	  0.052665330	-5.335600E+01
165	  0.052865732	-5.863000E+00	  0.052865732	-7.032900E+01	  0.052865732	4.041500E+01	  0.052865732	-5.231100E+01
166	  0.053066134	-5.881000E+00	  0.053066134	-7.186700E+01	  0.053066134	3.938300E+01	  0.053066134	-5.126000E+01
167	  0.053266536	-5.894000E+00	  0.053266536	-7.337600E+01	  0.053266536	3.839500E+01	  0.053266536	-5.026300E+01
168	  0.053466935	-5.908000E+00	  0.053466935	-7.489600E+01	  0.053466935	3.745000E+01	  0.053466935	-4.926500E+01
169	  0.053667337	-5.918000E+00	  0.053667337	-7.640800E+01	  0.053667337	3.653600E+01	  0.053667337	-4.829800E+01
170	  0.053867739	-5.923000E+00	  0.053867739	-7.789700E+01	  0.053867739	3.566100E+01	  0.053867739	-4.737000E+01
171	  0.054068137	-5.931000E+00	  0.054068137	-7.939100E+01	  0.054068137	3.482900E+01	  0.054068137	-4.644000E+01
172	  0.054268539	-5.936000E+00	  0.054268539	-8.087900E+01	  0.054268539	3.402900E+01	  0.054268539	-4.552900E+01
173	  0.054468941	-5.944000E+00	  0.054468941	-8.230500E+01	  0.054468941	3.330300E+01	  0.054468941	-4.465600E+01
174	  0.054669339	-5.948000E+00	  0.054669339	-8.374500E+01	  0.054669339	3.258700E+01	  0.054669339	-4.379500E+01
175	  0.054869737	-5.957000E+00	  0.054869737	-8.517400E+01	  0.054869737	3.192400E+01	  0.054869737	-4.293300E+01
176	  0.055070139	-5.964000E+00	  0.055070139	-8.655200E+01	  0.055070139	3.130500E+01	  0.055070139	-4.211400E+01
177	  0.055270538	-5.973000E+00	  0.055270538	-8.795200E+01	  0.055270538	3.070800E+01	  0.055270538	-4.128700E+01
178	  0.055470940	-5.981000E+00	  0.055470940	-8.933400E+01	  0.055470940	3.013600E+01	  0.055470940	-4.048200E+01
179	  0.055671342	-5.990000E+00	  0.055671342	-9.074200E+01	  0.055671342	2.958100E+01	  0.055671342	-3.966700E+01
180	  0.055871744	-5.998000E+00	  0.055871744	-9.214200E+01	  0.055871744	2.904800E+01	  0.055871744	-3.886800E+01
181	  0.056072142	-6.005000E+00	  0.056072142	-9.352900E+01	  0.056072142	2.853700E+01	  0.056072142	-3.808800E+01
182	  0.056272544	-6.011000E+00	  0.056272544	-9.491100E+01	  0.056272544	2.804300E+01	  0.056272544	-3.732100E+01
183	  0.056472946	-6.018000E+00	  0.056472946	-9.629600E+01	  0.056472946	2.757300E+01	  0.056472946	-3.655500E+01
184	  0.056673344	-6.026000E+00	  0.056673344	-9.765300E+01	  0.056673344	2.713100E+01	  0.056673344	-3.581400E+01
185	  0.056873746	-6.028000E+00	  0.056873746	-9.905300E+01	  0.056873746	2.667300E+01	  0.056873746	-3.506800E+01
186	  0.057074148	-6.031000E+00	  0.057074148	-1.003910E+02	  0.057074148	2.625400E+01	  0.057074148	-3.435900E+01
187	  0.057274550	-6.031000E+00	  0.057274550	-1.017810E+02	  0.057274550	2.582600E+01	  0.057274550	-3.363700E+01
188	  0.057474948	-6.031000E+00	  0.057474948	-1.031100E+02	  0.057474948	2.542700E+01	  0.057474948	-3.295300E+01
189	  0.057675350	-6.028000E+00	  0.057675350	-1.044350E+02	  0.057675350	2.503600E+01	  0.057675350	-3.228200E+01
190	  0.057875752	-6.026000E+00	  0.057875752	-1.057400E+02	  0.057875752	2.466800E+01	  0.057875752	-3.162400E+01
191	  0.058076151	-6.027000E+00	  0.058076151	-1.070540E+02	  0.058076151	2.432000E+01	  0.058076151	-3.096200E+01
192	  0.058276553	-6.028000E+00	  0.058276553	-1.083310E+02	  0.058276553	2.399600E+01	  0.058276553	-3.032200E+01
193	  0.058476955	-6.026000E+00	  0.058476955	-1.095870E+02	  0.058476955	2.367400E+01	  0.058476955	-2.970600E+01
194	  0.058677353	-6.026000E+00	  0.058677353	-1.108300E+02	  0.058677353	2.337500E+01	  0.058677353	-2.909500E+01
195	  0.058877755	-6.026000E+00	  0.058877755	-1.121070E+02	  0.058877755	2.307700E+01	  0.058877755	-2.847300E+01
196	  0.059078157	-6.027000E+00	  0.059078157	-1.133280E+02	  0.059078157	2.280300E+01	  0.059078157	-2.788300E+01
197	  0.059278559	-6.028000E+00	  0.059278559	-1.146050E+02	  0.059278559	2.252800E+01	  0.059278559	-2.726900E+01
198	  0.059478957	-6.029000E+00	  0.059478957	-1.158130E+02	  0.059478957	2.227600E+01	  0.059478957	-2.669300E+01
199	  0.059679359	-6.033000E+00	  0.059679359	-1.170850E+02	  0.059679359	2.202900E+01	  0.059679359	-2.608700E+01
200	  0.059879761	-6.032000E+00	  0.059879761	-1.183130E+02	  0.059879761	2.178300E+01	  0.059879761	-2.551300E+01
201	  0.060080159	-6.033000E+00	  0.060080159	-1.195270E+02	  0.060080159	2.155400E+01	  0.060080159	-2.494700E+01
202	  0.060280561	-6.034000E+00	  0.060280561	-1.207520E+02	  0.060280561	2.133200E+01	  0.060280561	-2.437900E+01
203	  0.060480963	-6.037000E+00	  0.060480963	-1.219730E+02	  0.060480963	2.112400E+01	  0.060480963	-2.381400E+01
204	  0.060681365	-6.034000E+00	  0.060681365	-1.231750E+02	  0.060681365	2.090700E+01	  0.060681365	-2.327000E+01
205	  0.060881764	-6.033000E+00	  0.060881764	-1.243660E+02	  0.060881764	2.070400E+01	  0.060881764	-2.273200E+01
206	  0.061082166	-6.034000E+00	  0.061082166	-1.255560E+02	  0.061082166	2.051600E+01	  0.061082166	-2.219400E+01
207	  0.061282568	-6.031000E+00	  0.061282568	-1.267590E+02	  0.061282568	2.031800E+01	  0.061282568	-2.166000E+01
208	  0.061482966	-6.030000E+00	  0.061482966	-1.279210E+02	  0.061482966	2.014000E+01	  0.061482966	-2.114400E+01
209	  0.061683368	-6.030000E+00	  0.061683368	-1.291020E+02	  0.061683368	1.996700E+01	  0.061683368	-2.062100E+01
210	  0.061883770	-6.028000E+00	  0.061883770	-1.302660E+02	  0.061883770	1.979700E+01	  0.061883770	-2.011100E+01
211	  0.062084168	-6.030000E+00	  0.062084168	-1.313970E+02	  0.062084168	1.964800E+01	  0.062084168	-1.961500E+01
212	  0.062284570	-6.030000E+00	  0.062284570	-1.325400E+02	  0.062284570	1.949800E+01	  0.062284570	-1.911700E+01
213	  0.062484972	-6.024000E+00	  0.062484972	-1.336380E+02	  0.062484972	1.934000E+01	  0.062484972	-1.864700E+01
214	  0.062685370	-6.025000E+00	  0.062685370	-1.347630E+02	  0.062685370	1.920300E+01	  0.062685370	-1.816200E+01
215	  0.062885776	-6.031000E+00	  0.062885776	-1.359170E+02	  0.062885776	1.908100E+01	  0.062885776	-1.766300E+01
216	  0.063086174	-6.030000E+00	  0.063086174	-1.370510E+02	  0.063086174	1.894700E+01	  0.063086174	-1.718100E+01
217	  0.063286573	-6.035000E+00	  0.063286573	-1.382150E+02	  0.063286573	1.883200E+01	  0.063286573	-1.668300E+01
218	  0.063486971	-6.038000E+00	  0.063486971	-1.393260E+02	  0.063486971	1.872100E+01	  0.063486971	-1.621200E+01
219	  0.063687377	-6.035000E+00	  0.063687377	-1.404610E+02	  0.063687377	1.859400E+01	  0.063687377	-1.573800E+01
220	  0.063887775	-6.033000E+00	  0.063887775	-1.416130E+02	  0.063887775	1.847200E+01	  0.063887775	-1.525700E+01
221	  0.064088173	-6.033000E+00	  0.064088173	-1.427070E+02	  0.064088173	1.836700E+01	  0.064088173	-1.480100E+01
222	  0.064288579	-6.030000E+00	  0.064288579	-1.438260E+02	  0.064288579	1.825500E+01	  0.064288579	-1.433900E+01
223	  0.064488977	-6.028000E+00	  0.064488977	-1.449220E+02	  0.064488977	1.815100E+01	  0.064488977	-1.388700E+01
224	  0.064689375	-6.030000E+00	  0.064689375	-1.460050E+02	  0.064689375	1.806200E+01	  0.064689375	-1.344000E+01
225	  0.064889781	-6.027000E+00	  0.064889781	-1.470860E+02	  0.064889781	1.796400E+01	  0.064889781	-1.299800E+01
226	  0.065090179	-6.026000E+00	  0.065090179	-1.481780E+02	  0.065090179	1.787500E+01	  0.065090179	-1.255300E+01
227	  0.065290578	-6.023000E+00	  0.065290578	-1.491970E+02	  0.065290578	1.778800E+01	  0.065290578	-1.213900E+01
228	  0.065490983	-6.023000E+00	  0.065490983	-1.502140E+02	  0.065490983	1.771300E+01	  0.065490983	-1.172600E+01
229	  0.065691382	-6.023000E+00	  0.065691382	-1.512450E+02	  0.065691382	1.763900E+01	  0.065691382	-1.130800E+01
230	  0.065891780	-6.016000E+00	  0.065891780	-1.522860E+02	  0.065891780	1.755100E+01	  0.065891780	-1.089100E+01
231	  0.066092186	-6.014000E+00	  0.066092186	-1.533170E+02	  0.066092186	1.747900E+01	  0.066092186	-1.047600E+01
232	  0.066292584	-6.013000E+00	  0.066292584	-1.543150E+02	  0.066292584	1.741300E+01	  0.066292584	-1.007600E+01
233	  0.066492982	-6.010000E+00	  0.066492982	-1.553260E+02	  0.066492982	1.734400E+01	  0.066492982	-9.672000E+00
234	  0.066693388	-6.003000E+00	  0.066693388	-1.563460E+02	  0.066693388	1.726700E+01	  0.066693388	-9.267000E+00
235	  0.066893786	-6.000000E+00	  0.066893786	-1.573570E+02	  0.066893786	1.720400E+01	  0.066893786	-8.865000E+00
236	  0.067094192	-5.996000E+00	  0.067094192	-1.583570E+02	  0.067094192	1.714300E+01	  0.067094192	-8.468000E+00
237	  0.067294590	-5.988000E+00	  0.067294590	-1.594050E+02	  0.067294590	1.707000E+01	  0.067294590	-8.055000E+00
238	  0.067494988	-5.989000E+00	  0.067494988	-1.604000E+02	  0.067494988	1.702500E+01	  0.067494988	-7.660000E+00
239	  0.067695394	-5.985000E+00	  0.067695394	-1.614110E+02	  0.067695394	1.697000E+01	  0.067695394	-7.261000E+00
240	  0.067895792	-5.975000E+00	  0.067895792	-1.624340E+02	  0.067895792	1.690200E+01	  0.067895792	-6.860000E+00
241	  0.068096191	-5.972000E+00	  0.068096191	-1.634360E+02	  0.068096191	1.685400E+01	  0.068096191	-6.466000E+00
242	  0.068296596	-5.972000E+00	  0.068296596	-1.644480E+02	  0.068296596	1.681600E+01	  0.068296596	-6.067000E+00
243	  0.068496995	-5.961000E+00	  0.068496995	-1.654410E+02	  0.068496995	1.675500E+01	  0.068496995	-5.679000E+00
244	  0.068697393	-5.959000E+00	  0.068697393	-1.664660E+02	  0.068697393	1.671700E+01	  0.068697393	-5.277000E+00
245	  0.068897791	-5.955000E+00	  0.068897791	-1.674500E+02	  0.068897791	1.667800E+01	  0.068897791	-4.892000E+00
246	  0.069098189	-5.948000E+00	  0.069098189	-1.684560E+02	  0.069098189	1.663200E+01	  0.069098189	-4.499000E+00
247	  0.069298595	-5.944000E+00	  0.069298595	-1.694480E+02	  0.069298595	1.659600E+01	  0.069298595	-4.112000E+00
248	  0.069498993	-5.940000E+00	  0.069498993	-1.704340E+02	  0.069498993	1.656400E+01	  0.069498993	-3.727000E+00
249	  0.069699399	-5.936000E+00	  0.069699399	-1.714640E+02	  0.069699399	1.653300E+01	  0.069699399	-3.325000E+00
250	  0.069899797	-5.933000E+00	  0.069899797	-1.724590E+02	  0.069899797	1.650800E+01	  0.069899797	-2.936000E+00
251	  0.070100196	-5.939000E+00	  0.070100196	-1.734120E+02	  0.070100196	1.650600E+01	  0.070100196	-2.564000E+00
252	  0.070300601	-5.932000E+00	  0.070300601	-1.744430E+02	  0.070300601	1.647400E+01	  0.070300601	-2.163000E+00
253	  0.070501000	-5.928000E+00	  0.070501000	-1.754310E+02	  0.070501000	1.645400E+01	  0.070501000	-1.778000E+00
254	  0.070701398	-5.927000E+00	  0.070701398	-1.764050E+02	  0.070701398	1.644100E+01	  0.070701398	-1.399000E+00
255	  0.070901804	-5.922000E+00	  0.070901804	-1.773910E+02	  0.070901804	1.642300E+01	  0.070901804	-1.015000E+00
256	  0.071102202	-5.919000E+00	  0.071102202	-1.783940E+02	  0.071102202	1.641100E+01	  0.071102202	-6.250000E-01
257	  0.071302600	-5.921000E+00	  0.071302600	-1.793630E+02	  0.071302600	1.641200E+01	  0.071302600	-2.470000E-01
258	  0.071503006	-5.923000E+00	  0.071503006	1.796420E+02	  0.071503006	1.641800E+01	  0.071503006	1.390000E-01
259	  0.071703404	-5.924000E+00	  0.071703404	1.786880E+02	  0.071703404	1.642100E+01	  0.071703404	5.100000E-01
260	  0.071903802	-5.921000E+00	  0.071903802	1.777270E+02	  0.071903802	1.641900E+01	  0.071903802	8.840000E-01
261	  0.072104208	-5.920000E+00	  0.072104208	1.767640E+02	  0.072104208	1.642200E+01	  0.072104208	1.260000E+00
262	  0.072304606	-5.921000E+00	  0.072304606	1.758140E+02	  0.072304606	1.643200E+01	  0.072304606	1.630000E+00
263	  0.072505005	-5.924000E+00	  0.072505005	1.748480E+02	  0.072505005	1.645000E+01	  0.072505005	2.006000E+00
264	  0.072705410	-5.923000E+00	  0.072705410	1.738900E+02	  0.072705410	1.645900E+01	  0.072705410	2.379000E+00
265	  0.072905809	-5.927000E+00	  0.072905809	1.729290E+02	  0.072905809	1.648500E+01	  0.072905809	2.754000E+00
266	  0.073106214	-5.925000E+00	  0.073106214	1.719860E+02	  0.073106214	1.649400E+01	  0.073106214	3.122000E+00
267	  0.073306613	-5.930000E+00	  0.073306613	1.710490E+02	  0.073306613	1.652500E+01	  0.073306613	3.488000E+00
268	  0.073507011	-5.936000E+00	  0.073507011	1.700830E+02	  0.073507011	1.656200E+01	  0.073507011	3.864000E+00
269	  0.073707417	-5.938000E+00	  0.073707417	1.691550E+02	  0.073707417	1.658900E+01	  0.073707417	4.227000E+00
270	  0.073907815	-5.939000E+00	  0.073907815	1.682210E+02	  0.073907815	1.661400E+01	  0.073907815	4.593000E+00
271	  0.074108213	-5.939000E+00	  0.074108213	1.672820E+02	  0.074108213	1.664000E+01	  0.074108213	4.961000E+00
272	  0.074308619	-5.945000E+00	  0.074308619	1.663580E+02	  0.074308619	1.668500E+01	  0.074308619	5.322000E+00
273	  0.074509017	-5.949000E+00	  0.074509017	1.654170E+02	  0.074509017	1.672500E+01	  0.074509017	5.691000E+00
274	  0.074709415	-5.955000E+00	  0.074709415	1.644710E+02	  0.074709415	1.677300E+01	  0.074709415	6.062000E+00
275	  0.074909821	-5.959000E+00	  0.074909821	1.635460E+02	  0.074909821	1.681500E+01	  0.074909821	6.426000E+00
276	  0.075110219	-5.966000E+00	  0.075110219	1.626150E+02	  0.075110219	1.687100E+01	  0.075110219	6.791000E+00
277	  0.075310618	-5.972000E+00	  0.075310618	1.617080E+02	  0.075310618	1.692300E+01	  0.075310618	7.148000E+00
278	  0.075511023	-5.977000E+00	  0.075511023	1.608310E+02	  0.075511023	1.697400E+01	  0.075511023	7.493000E+00
279	  0.075711422	-5.982000E+00	  0.075711422	1.598970E+02	  0.075711422	1.703100E+01	  0.075711422	7.862000E+00
280	  0.075911827	-5.989000E+00	  0.075911827	1.590310E+02	  0.075911827	1.708900E+01	  0.075911827	8.203000E+00
281	  0.076112226	-5.993000E+00	  0.076112226	1.581070E+02	  0.076112226	1.714800E+01	  0.076112226	8.569000E+00
282	  0.076312624	-6.001000E+00	  0.076312624	1.572070E+02	  0.076312624	1.721500E+01	  0.076312624	8.925000E+00
283	  0.076513030	-6.009000E+00	  0.076513030	1.562850E+02	  0.076513030	1.728600E+01	  0.076513030	9.289000E+00
284	  0.076713428	-6.019000E+00	  0.076713428	1.553970E+02	  0.076713428	1.736500E+01	  0.076713428	9.640000E+00
285	  0.076913826	-6.027000E+00	  0.076913826	1.544890E+02	  0.076913826	1.743900E+01	  0.076913826	1.000100E+01
286	  0.077114232	-6.031000E+00	  0.077114232	1.536180E+02	  0.077114232	1.750400E+01	  0.077114232	1.034900E+01
287	  0.077314630	-6.037000E+00	  0.077314630	1.527520E+02	  0.077314630	1.757600E+01	  0.077314630	1.069400E+01
288	  0.077515028	-6.041000E+00	  0.077515028	1.518800E+02	  0.077515028	1.764500E+01	  0.077515028	1.104300E+01
289	  0.077715434	-6.049000E+00	  0.077715434	1.509900E+02	  0.077715434	1.772700E+01	  0.077715434	1.139900E+01
290	  0.077915832	-6.058000E+00	  0.077915832	1.501510E+02	  0.077915832	1.781200E+01	  0.077915832	1.173400E+01
291	  0.078116231	-6.070000E+00	  0.078116231	1.492630E+02	  0.078116231	1.791000E+01	  0.078116231	1.208800E+01
292	  0.078316636	-6.079000E+00	  0.078316636	1.484100E+02	  0.078316636	1.800100E+01	  0.078316636	1.243000E+01
293	  0.078517035	-6.093000E+00	  0.078517035	1.475390E+02	  0.078517035	1.810700E+01	  0.078517035	1.277800E+01
294	  0.078717433	-6.103000E+00	  0.078717433	1.466920E+02	  0.078717433	1.820400E+01	  0.078717433	1.311800E+01
295	  0.078917839	-6.118000E+00	  0.078917839	1.458340E+02	  0.078917839	1.831600E+01	  0.078917839	1.346100E+01
296	  0.079118237	-6.128000E+00	  0.079118237	1.450030E+02	  0.079118237	1.841700E+01	  0.079118237	1.379500E+01
297	  0.079318643	-6.146000E+00	  0.079318643	1.441420E+02	  0.079318643	1.854200E+01	  0.079318643	1.413900E+01
298	  0.079519041	-6.158000E+00	  0.079519041	1.433050E+02	  0.079519041	1.865100E+01	  0.079519041	1.447600E+01
299	  0.079719439	-6.176000E+00	  0.079719439	1.424500E+02	  0.079719439	1.878300E+01	  0.079719439	1.481700E+01
300	  0.079919845	-6.194000E+00	  0.079919845	1.416060E+02	  0.079919845	1.891400E+01	  0.079919845	1.515500E+01
301	  0.080120243	-6.206000E+00	  0.080120243	1.407530E+02	  0.080120243	1.903400E+01	  0.080120243	1.550000E+01
302	  0.080320641	-6.219000E+00	  0.080320641	1.399040E+02	  0.080320641	1.916000E+01	  0.080320641	1.584400E+01
303	  0.080521047	-6.235000E+00	  0.080521047	1.390590E+02	  0.080521047	1.929400E+01	  0.080521047	1.618400E+01
304	  0.080721445	-6.252000E+00	  0.080721445	1.382190E+02	  0.080721445	1.943400E+01	  0.080721445	1.652300E+01
305	  0.080921844	-6.270000E+00	  0.080921844	1.373660E+02	  0.080921844	1.957900E+01	  0.080921844	1.686700E+01
306	  0.081122249	-6.291000E+00	  0.081122249	1.365420E+02	  0.081122249	1.973300E+01	  0.081122249	1.719600E+01
307	  0.081322648	-6.304000E+00	  0.081322648	1.357290E+02	  0.081322648	1.986800E+01	  0.081322648	1.752800E+01
308	  0.081523046	-6.327000E+00	  0.081523046	1.348780E+02	  0.081523046	2.003700E+01	  0.081523046	1.786800E+01
309	  0.081723452	-6.341000E+00	  0.081723452	1.340870E+02	  0.081723452	2.017600E+01	  0.081723452	1.819000E+01
310	  0.081923850	-6.359000E+00	  0.081923850	1.332450E+02	  0.081923850	2.033600E+01	  0.081923850	1.853100E+01
311	  0.082124248	-6.378000E+00	  0.082124248	1.324420E+02	  0.082124248	2.049500E+01	  0.082124248	1.885600E+01
312	  0.082324654	-6.396000E+00	  0.082324654	1.316310E+02	  0.082324654	2.065700E+01	  0.082324654	1.918400E+01
313	  0.082525052	-6.419000E+00	  0.082525052	1.308500E+02	  0.082525052	2.083200E+01	  0.082525052	1.949600E+01
314	  0.082725458	-6.438000E+00	  0.082725458	1.300820E+02	  0.082725458	2.099400E+01	  0.082725458	1.980700E+01
315	  0.082925856	-6.461000E+00	  0.082925856	1.292890E+02	  0.082925856	2.117700E+01	  0.082925856	2.012400E+01
316	  0.083126254	-6.482000E+00	  0.083126254	1.284880E+02	  0.083126254	2.135800E+01	  0.083126254	2.044700E+01
317	  0.083326660	-6.509000E+00	  0.083326660	1.276980E+02	  0.083326660	2.155500E+01	  0.083326660	2.075900E+01
318	  0.083527058	-6.529000E+00	  0.083527058	1.268800E+02	  0.083527058	2.174000E+01	  0.083527058	2.109100E+01
319	  0.083727457	-6.554000E+00	  0.083727457	1.260890E+02	  0.083727457	2.194200E+01	  0.083727457	2.140500E+01
320	  0.083927862	-6.571000E+00	  0.083927862	1.253070E+02	  0.083927862	2.211800E+01	  0.083927862	2.172600E+01
321	  0.084128261	-6.592000E+00	  0.084128261	1.245510E+02	  0.084128261	2.230700E+01	  0.084128261	2.203000E+01
322	  0.084328659	-6.616000E+00	  0.084328659	1.237790E+02	  0.084328659	2.251100E+01	  0.084328659	2.233800E+01
323	  0.084529065	-6.636000E+00	  0.084529065	1.230510E+02	  0.084529065	2.269600E+01	  0.084529065	2.263200E+01
324	  0.084729463	-6.660000E+00	  0.084729463	1.223200E+02	  0.084729463	2.289700E+01	  0.084729463	2.292200E+01
325	  0.084929861	-6.688000E+00	  0.084929861	1.215750E+02	  0.084929861	2.311600E+01	  0.084929861	2.321300E+01
326	  0.085130267	-6.707000E+00	  0.085130267	1.208220E+02	  0.085130267	2.331400E+01	  0.085130267	2.351900E+01
327	  0.085330658	-6.737000E+00	  0.085330658	1.201170E+02	  0.085330658	2.353800E+01	  0.085330658	2.378900E+01
328	  0.085531056	-6.760000E+00	  0.085531056	1.194020E+02	  0.085531056	2.374500E+01	  0.085531056	2.407300E+01
329	  0.085731462	-6.791000E+00	  0.085731462	1.187060E+02	  0.085731462	2.397400E+01	  0.085731462	2.433800E+01
330	  0.085931860	-6.817000E+00	  0.085931860	1.179720E+02	  0.085931860	2.420000E+01	  0.085931860	2.462500E+01
331	  0.086132258	-6.844000E+00	  0.086132258	1.173150E+02	  0.086132258	2.441700E+01	  0.086132258	2.487700E+01
332	  0.086332664	-6.875000E+00	  0.086332664	1.166840E+02	  0.086332664	2.464500E+01	  0.086332664	2.511000E+01
333	  0.086533062	-6.907000E+00	  0.086533062	1.160060E+02	  0.086533062	2.488300E+01	  0.086533062	2.536400E+01
334	  0.086733460	-6.933000E+00	  0.086733460	1.153200E+02	  0.086733460	2.511300E+01	  0.086733460	2.562700E+01
335	  0.086933866	-6.957000E+00	  0.086933866	1.146660E+02	  0.086933866	2.533100E+01	  0.086933866	2.587900E+01
336	  0.087134264	-6.982000E+00	  0.087134264	1.140060E+02	  0.087134264	2.555500E+01	  0.087134264	2.613400E+01
337	  0.087334670	-7.004000E+00	  0.087334670	1.133140E+02	  0.087334670	2.578300E+01	  0.087334670	2.640400E+01
338	  0.087535068	-7.030000E+00	  0.087535068	1.126730E+02	  0.087535068	2.601300E+01	  0.087535068	2.664600E+01
339	  0.087735467	-7.049000E+00	  0.087735467	1.120480E+02	  0.087735467	2.622100E+01	  0.087735467	2.689300E+01
340	  0.087935872	-7.072000E+00	  0.087935872	1.113980E+02	  0.087935872	2.645000E+01	  0.087935872	2.714300E+01
341	  0.088136271	-7.089000E+00	  0.088136271	1.107560E+02	  0.088136271	2.666000E+01	  0.088136271	2.740000E+01
342	  0.088336669	-7.109000E+00	  0.088336669	1.100990E+02	  0.088336669	2.688700E+01	  0.088336669	2.765700E+01
343	  0.088537075	-7.126000E+00	  0.088537075	1.094680E+02	  0.088537075	2.710300E+01	  0.088537075	2.790700E+01
344	  0.088737473	-7.132000E+00	  0.088737473	1.088090E+02	  0.088737473	2.729800E+01	  0.088737473	2.818900E+01
345	  0.088937871	-7.153000E+00	  0.088937871	1.081640E+02	  0.088937871	2.753200E+01	  0.088937871	2.844000E+01
346	  0.089138277	-7.163000E+00	  0.089138277	1.074980E+02	  0.089138277	2.774500E+01	  0.089138277	2.871900E+01
347	  0.089338675	-7.184000E+00	  0.089338675	1.068700E+02	  0.089338675	2.798400E+01	  0.089338675	2.895900E+01
348	  0.089539073	-7.204000E+00	  0.089539073	1.061760E+02	  0.089539073	2.824000E+01	  0.089539073	2.923100E+01
349	  0.089739479	-7.235000E+00	  0.089739479	1.055350E+02	  0.089739479	2.851700E+01	  0.089739479	2.945800E+01
350	  0.089939877	-7.251000E+00	  0.089939877	1.048270E+02	  0.089939877	2.877600E+01	  0.089939877	2.974200E+01
351	  0.090140276	-7.279000E+00	  0.090140276	1.041520E+02	  0.090140276	2.906200E+01	  0.090140276	2.998600E+01
352	  0.090340681	-7.299000E+00	  0.090340681	1.034660E+02	  0.090340681	2.933000E+01	  0.090340681	3.025300E+01
353	  0.090541080	-7.325000E+00	  0.090541080	1.028050E+02	  0.090541080	2.961500E+01	  0.090541080	3.049300E+01
354	  0.090741485	-7.358000E+00	  0.090741485	1.021400E+02	  0.090741485	2.992100E+01	  0.090741485	3.072100E+01
355	  0.090941884	-7.377000E+00	  0.090941884	1.014670E+02	  0.090941884	3.019600E+01	  0.090941884	3.097900E+01
356	  0.091142282	-7.415000E+00	  0.091142282	1.007910E+02	  0.091142282	3.052900E+01	  0.091142282	3.119700E+01
357	  0.091342688	-7.438000E+00	  0.091342688	1.001330E+02	  0.091342688	3.081700E+01	  0.091342688	3.143800E+01
358	  0.091543086	-7.472000E+00	  0.091543086	9.947800E+01	  0.091543086	3.114100E+01	  0.091543086	3.165000E+01
359	  0.091743484	-7.498000E+00	  0.091743484	9.886300E+01	  0.091743484	3.143000E+01	  0.091743484	3.186200E+01
360	  0.091943890	-7.528000E+00	  0.091943890	9.823100E+01	  0.091943890	3.174000E+01	  0.091943890	3.207100E+01
361	  0.092144288	-7.559000E+00	  0.092144288	9.757300E+01	  0.092144288	3.206500E+01	  0.092144288	3.228700E+01
362	  0.092344686	-7.584000E+00	  0.092344686	9.697000E+01	  0.092344686	3.235700E+01	  0.092344686	3.249200E+01
363	  0.092545092	-7.617000E+00	  0.092545092	9.637700E+01	  0.092545092	3.267000E+01	  0.092545092	3.267100E+01
364	  0.092745490	-7.650000E+00	  0.092745490	9.576100E+01	  0.092745490	3.299600E+01	  0.092745490	3.285800E+01
365	  0.092945889	-7.688000E+00	  0.092945889	9.516700E+01	  0.092945889	3.333200E+01	  0.092945889	3.301900E+01
366	  0.093146294	-7.720000E+00	  0.093146294	9.456400E+01	  0.093146294	3.365800E+01	  0.093146294	3.319700E+01
367	  0.093346693	-7.760000E+00	  0.093346693	9.400200E+01	  0.093346693	3.399200E+01	  0.093346693	3.333500E+01
368	  0.093547091	-7.787000E+00	  0.093547091	9.339100E+01	  0.093547091	3.431100E+01	  0.093547091	3.352600E+01
369	  0.093747497	-7.827000E+00	  0.093747497	9.278900E+01	  0.093747497	3.466800E+01	  0.093747497	3.367500E+01
370	  0.093947895	-7.855000E+00	  0.093947895	9.220000E+01	  0.093947895	3.498700E+01	  0.093947895	3.384900E+01
371	  0.094148301	-7.896000E+00	  0.094148301	9.165200E+01	  0.094148301	3.533000E+01	  0.094148301	3.396700E+01
372	  0.094348699	-7.924000E+00	  0.094348699	9.105800E+01	  0.094348699	3.565700E+01	  0.094348699	3.413800E+01
373	  0.094549097	-7.963000E+00	  0.094549097	9.048200E+01	  0.094549097	3.600900E+01	  0.094549097	3.426900E+01
374	  0.094749503	-7.999000E+00	  0.094749503	8.991600E+01	  0.094749503	3.635400E+01	  0.094749503	3.440000E+01
375	  0.094949901	-8.029000E+00	  0.094949901	8.936900E+01	  0.094949901	3.667400E+01	  0.094949901	3.453900E+01
376	  0.095150299	-8.056000E+00	  0.095150299	8.878900E+01	  0.095150299	3.700800E+01	  0.095150299	3.469400E+01
377	  0.095350705	-8.089000E+00	  0.095350705	8.827900E+01	  0.095350705	3.732600E+01	  0.095350705	3.480300E+01
378	  0.095551103	-8.115000E+00	  0.095551103	8.773900E+01	  0.095551103	3.764000E+01	  0.095551103	3.494400E+01
379	  0.095751502	-8.149000E+00	  0.095751502	8.723200E+01	  0.095751502	3.796400E+01	  0.095751502	3.504400E+01
380	  0.095951907	-8.178000E+00	  0.095951907	8.671800E+01	  0.095951907	3.828100E+01	  0.095951907	3.515800E+01
381	  0.096152306	-8.210000E+00	  0.096152306	8.620700E+01	  0.096152306	3.860400E+01	  0.096152306	3.526100E+01
382	  0.096352704	-8.241000E+00	  0.096352704	8.575400E+01	  0.096352704	3.890200E+01	  0.096352704	3.534000E+01
383	  0.096553110	-8.274000E+00	  0.096553110	8.525100E+01	  0.096553110	3.922800E+01	  0.096553110	3.543200E+01
384	  0.096753508	-8.300000E+00	  0.096753508	8.475800E+01	  0.096753508	3.953500E+01	  0.096753508	3.553800E+01
385	  0.096953906	-8.336000E+00	  0.096953906	8.430200E+01	  0.096953906	3.985000E+01	  0.096953906	3.559500E+01
386	  0.097154312	-8.361000E+00	  0.097154312	8.385300E+01	  0.097154312	4.013800E+01	  0.097154312	3.568100E+01
387	  0.097354710	-8.395000E+00	  0.097354710	8.337600E+01	  0.097354710	4.046100E+01	  0.097354710	3.574800E+01
388	  0.097555116	-8.422000E+00	  0.097555116	8.291300E+01	  0.097555116	4.076300E+01	  0.097555116	3.582900E+01
389	  0.097755514	-8.457000E+00	  0.097755514	8.244900E+01	  0.097755514	4.108500E+01	  0.097755514	3.588300E+01
390	  0.097955912	-8.483000E+00	  0.097955912	8.204700E+01	  0.097955912	4.135500E+01	  0.097955912	3.594100E+01
391	  0.098156318	-8.513000E+00	  0.098156318	8.159900E+01	  0.098156318	4.166100E+01	  0.098156318	3.599800E+01
392	  0.098356716	-8.538000E+00	  0.098356716	8.116500E+01	  0.098356716	4.194800E+01	  0.098356716	3.606800E+01
393	  0.098557115	-8.566000E+00	  0.098557115	8.077000E+01	  0.098557115	4.222200E+01	  0.098557115	3.611100E+01
394	  0.098757520	-8.587000E+00	  0.098757520	8.036400E+01	  0.098757520	4.248900E+01	  0.098757520	3.617800E+01
395	  0.098957919	-8.615000E+00	  0.098957919	7.994700E+01	  0.098957919	4.277700E+01	  0.098957919	3.622300E+01
396	  0.099158317	-8.645000E+00	  0.099158317	7.958300E+01	  0.099158317	4.304300E+01	  0.099158317	3.624300E+01
397	  0.099358723	-8.668000E+00	  0.099358723	7.916800E+01	  0.099358723	4.332100E+01	  0.099358723	3.630100E+01
398	  0.099559121	-8.692000E+00	  0.099559121	7.878900E+01	  0.099559121	4.358400E+01	  0.099559121	3.634100E+01
399	  0.099759519	-8.718000E+00	  0.099759519	7.845000E+01	  0.099759519	4.382900E+01	  0.099759519	3.635900E+01
400	  0.099959925	-8.739000E+00	  0.099959925	7.811900E+01	  0.099959925	4.405900E+01	  0.099959925	3.639100E+01
401	  0.100160323	-8.767000E+00	  0.100160323	7.771100E+01	  0.100160323	4.434900E+01	  0.100160323	3.642000E+01
402	  0.100360721	-8.783000E+00	  0.100360721	7.737500E+01	  0.100360721	4.457200E+01	  0.100360721	3.647000E+01
403	  0.100561127	-8.810000E+00	  0.100561127	7.698200E+01	  0.100561127	4.485400E+01	  0.100561127	3.649200E+01
404	  0.100761525	-8.820000E+00	  0.100761525	7.667100E+01	  0.100761525	4.505200E+01	  0.100761525	3.655500E+01
405	  0.100961931	-8.843000E+00	  0.100961931	7.626900E+01	  0.100961931	4.533200E+01	  0.100961931	3.659400E+01
406	  0.101162329	-8.857000E+00	  0.101162329	7.593300E+01	  0.101162329	4.555600E+01	  0.101162329	3.664300E+01
407	  0.101362728	-8.881000E+00	  0.101362728	7.557800E+01	  0.101362728	4.581100E+01	  0.101362728	3.666100E+01
408	  0.101563133	-8.895000E+00	  0.101563133	7.522700E+01	  0.101563133	4.604500E+01	  0.101563133	3.671400E+01
409	  0.101763532	-8.918000E+00	  0.101763532	7.488100E+01	  0.101763532	4.629600E+01	  0.101763532	3.672700E+01
410	  0.101963930	-8.924000E+00	  0.101963930	7.456000E+01	  0.101963930	4.649800E+01	  0.101963930	3.679900E+01
411	  0.102164336	-8.948000E+00	  0.102164336	7.421700E+01	  0.102164336	4.675100E+01	  0.102164336	3.680400E+01
412	  0.102364734	-8.947000E+00	  0.102364734	7.382200E+01	  0.102364734	4.698700E+01	  0.102364734	3.692200E+01
413	  0.102565132	-8.963000E+00	  0.102565132	7.347200E+01	  0.102565132	4.723100E+01	  0.102565132	3.695700E+01
414	  0.102765530	-8.960000E+00	  0.102765530	7.315300E+01	  0.102765530	4.741900E+01	  0.102765530	3.706300E+01
415	  0.102965929	-8.966000E+00	  0.102965929	7.287600E+01	  0.102965929	4.760100E+01	  0.102965929	3.711600E+01
416	  0.103166327	-8.975000E+00	  0.103166327	7.246300E+01	  0.103166327	4.787400E+01	  0.103166327	3.719300E+01
417	  0.103366733	-8.977000E+00	  0.103366733	7.212100E+01	  0.103366733	4.809100E+01	  0.103366733	3.727900E+01
418	  0.103567131	-8.972000E+00	  0.103567131	7.181400E+01	  0.103567131	4.827400E+01	  0.103567131	3.738600E+01
419	  0.103767529	-8.977000E+00	  0.103767529	7.152400E+01	  0.103767529	4.846600E+01	  0.103767529	3.744500E+01
420	  0.103967935	-8.983000E+00	  0.103967935	7.107800E+01	  0.103967935	4.876000E+01	  0.103967935	3.754000E+01
421	  0.104168333	-8.989000E+00	  0.104168333	7.076900E+01	  0.104168333	4.896800E+01	  0.104168333	3.759600E+01
422	  0.104368731	-8.988000E+00	  0.104368731	7.045800E+01	  0.104368731	4.916800E+01	  0.104368731	3.768100E+01
423	  0.104569137	-8.977000E+00	  0.104569137	7.006500E+01	  0.104569137	4.940400E+01	  0.104569137	3.783200E+01
424	  0.104769535	-8.978000E+00	  0.104769535	6.968900E+01	  0.104769535	4.965200E+01	  0.104769535	3.792400E+01
425	  0.104969934	-8.964000E+00	  0.104969934	6.937800E+01	  0.104969934	4.983400E+01	  0.104969934	3.806400E+01
426	  0.105170339	-8.961000E+00	  0.105170339	6.893700E+01	  0.105170339	5.012300E+01	  0.105170339	3.818800E+01
427	  0.105370738	-8.961000E+00	  0.105370738	6.856900E+01	  0.105370738	5.037000E+01	  0.105370738	3.828000E+01
428	  0.105571143	-8.945000E+00	  0.105571143	6.819900E+01	  0.105571143	5.059200E+01	  0.105571143	3.844600E+01
429	  0.105771542	-8.942000E+00	  0.105771542	6.779300E+01	  0.105771542	5.086500E+01	  0.105771542	3.855700E+01
430	  0.105971940	-8.914000E+00	  0.105971940	6.738300E+01	  0.105971940	5.110100E+01	  0.105971940	3.878800E+01
431	  0.106172346	-8.907000E+00	  0.106172346	6.693300E+01	  0.106172346	5.140300E+01	  0.106172346	3.892800E+01
432	  0.106372744	-8.894000E+00	  0.106372744	6.651300E+01	  0.106372744	5.167800E+01	  0.106372744	3.908700E+01
433	  0.106573142	-8.887000E+00	  0.106573142	6.607200E+01	  0.106573142	5.197900E+01	  0.106573142	3.922400E+01
434	  0.106773548	-8.875000E+00	  0.106773548	6.571200E+01	  0.106773548	5.221800E+01	  0.106773548	3.936500E+01
435	  0.106973946	-8.851000E+00	  0.106973946	6.523200E+01	  0.106973946	5.252900E+01	  0.106973946	3.958700E+01
436	  0.107174344	-8.842000E+00	  0.107174344	6.477200E+01	  0.107174344	5.285100E+01	  0.107174344	3.973300E+01
437	  0.107374750	-8.818000E+00	  0.107374750	6.426100E+01	  0.107374750	5.319200E+01	  0.107374750	3.996800E+01
438	  0.107575148	-8.810000E+00	  0.107575148	6.376200E+01	  0.107575148	5.355300E+01	  0.107575148	4.011300E+01
439	  0.107775547	-8.787000E+00	  0.107775547	6.327000E+01	  0.107775547	5.389200E+01	  0.107775547	4.033300E+01
440	  0.107975952	-8.775000E+00	  0.107975952	6.271900E+01	  0.107975952	5.429500E+01	  0.107975952	4.051100E+01
441	  0.108176351	-8.753000E+00	  0.108176351	6.222300E+01	  0.108176351	5.464900E+01	  0.108176351	4.072500E+01
442	  0.108376749	-8.733000E+00	  0.108376749	6.171200E+01	  0.108376749	5.502000E+01	  0.108376749	4.093400E+01
443	  0.108577155	-8.716000E+00	  0.108577155	6.122200E+01	  0.108577155	5.538600E+01	  0.108577155	4.111900E+01
444	  0.108777553	-8.697000E+00	  0.108777553	6.061500E+01	  0.108777553	5.584800E+01	  0.108777553	4.133400E+01
445	  0.108977959	-8.685000E+00	  0.108977959	6.004200E+01	  0.108977959	5.629700E+01	  0.108977959	4.150900E+01
446	  0.109178357	-8.653000E+00	  0.109178357	5.942100E+01	  0.109178357	5.676900E+01	  0.109178357	4.179500E+01
447	  0.109378755	-8.636000E+00	  0.109378755	5.887600E+01	  0.109378755	5.720400E+01	  0.109378755	4.198200E+01
448	  0.109579161	-8.608000E+00	  0.109579161	5.832800E+01	  0.109579161	5.763600E+01	  0.109579161	4.223000E+01
449	  0.109779559	-8.588000E+00	  0.109779559	5.769100E+01	  0.109779559	5.815900E+01	  0.109779559	4.244600E+01
450	  0.109979957	-8.578000E+00	  0.109979957	5.705800E+01	  0.109979957	5.869800E+01	  0.109979957	4.260400E+01
451	  0.110180363	-8.559000E+00	  0.110180363	5.650200E+01	  0.110180363	5.916700E+01	  0.110180363	4.279800E+01
452	  0.110380761	-8.536000E+00	  0.110380761	5.591700E+01	  0.110380761	5.966700E+01	  0.110380761	4.301300E+01
453	  0.110581160	-8.520000E+00	  0.110581160	5.518800E+01	  0.110581160	6.031000E+01	  0.110581160	4.320800E+01
454	  0.110781565	-8.506000E+00	  0.110781565	5.454400E+01	  0.110781565	6.088900E+01	  0.110781565	4.336900E+01
455	  0.110981964	-8.490000E+00	  0.110981964	5.389100E+01	  0.110981964	6.148200E+01	  0.110981964	4.354400E+01
456	  0.111182362	-8.463000E+00	  0.111182362	5.319000E+01	  0.111182362	6.212400E+01	  0.111182362	4.378400E+01
457	  0.111382768	-8.456000E+00	  0.111382768	5.256000E+01	  0.111382768	6.272300E+01	  0.111382768	4.388300E+01
458	  0.111583166	-8.449000E+00	  0.111583166	5.195400E+01	  0.111583166	6.330500E+01	  0.111583166	4.397500E+01
459	  0.111783572	-8.436000E+00	  0.111783572	5.119100E+01	  0.111783572	6.404600E+01	  0.111783572	4.411300E+01
460	  0.111983970	-8.419000E+00	  0.111983970	5.051300E+01	  0.111983970	6.471300E+01	  0.111983970	4.425600E+01
461	  0.112184368	-8.414000E+00	  0.112184368	4.976600E+01	  0.112184368	6.546300E+01	  0.112184368	4.432400E+01
462	  0.112384774	-8.401000E+00	  0.112384774	4.898900E+01	  0.112384774	6.625400E+01	  0.112384774	4.442800E+01
463	  0.112585172	-8.401000E+00	  0.112585172	4.824700E+01	  0.112585172	6.702100E+01	  0.112585172	4.443300E+01
464	  0.112785570	-8.393000E+00	  0.112785570	4.747900E+01	  0.112785570	6.782500E+01	  0.112785570	4.448000E+01
465	  0.112985976	-8.389000E+00	  0.112985976	4.670000E+01	  0.112985976	6.865200E+01	  0.112985976	4.448500E+01
466	  0.113186374	-8.384000E+00	  0.113186374	4.591400E+01	  0.113186374	6.949500E+01	  0.113186374	4.447400E+01
467	  0.113386773	-8.388000E+00	  0.113386773	4.513700E+01	  0.113386773	7.033600E+01	  0.113386773	4.439100E+01
468	  0.113587178	-8.386000E+00	  0.113587178	4.432000E+01	  0.113587178	7.123300E+01	  0.113587178	4.432800E+01
469	  0.113787577	-8.389000E+00	  0.113787577	4.349700E+01	  0.113787577	7.214300E+01	  0.113787577	4.421200E+01
470	  0.113987975	-8.388000E+00	  0.113987975	4.265100E+01	  0.113987975	7.309000E+01	  0.113987975	4.409200E+01
471	  0.114188381	-8.386000E+00	  0.114188381	4.180300E+01	  0.114188381	7.405200E+01	  0.114188381	4.396400E+01
472	  0.114388779	-8.390000E+00	  0.114388779	4.093000E+01	  0.114388779	7.504400E+01	  0.114388779	4.376600E+01
473	  0.114589177	-8.404000E+00	  0.114589177	4.004500E+01	  0.114589177	7.604000E+01	  0.114589177	4.345600E+01
474	  0.114789583	-8.413000E+00	  0.114789583	3.920200E+01	  0.114789583	7.700000E+01	  0.114789583	4.316700E+01
475	  0.114989981	-8.418000E+00	  0.114989981	3.830200E+01	  0.114989981	7.803800E+01	  0.114989981	4.287100E+01
476	  0.115190387	-8.423000E+00	  0.115190387	3.741300E+01	  0.115190387	7.906900E+01	  0.115190387	4.254500E+01
477	  0.115390785	-8.440000E+00	  0.115390785	3.644800E+01	  0.115390785	8.016200E+01	  0.115390785	4.206600E+01
478	  0.115591183	-8.450000E+00	  0.115591183	3.548800E+01	  0.115591183	8.127000E+01	  0.115591183	4.161400E+01
479	  0.115791589	-8.465000E+00	  0.115791589	3.457400E+01	  0.115791589	8.230600E+01	  0.115791589	4.110000E+01
480	  0.115991987	-8.473000E+00	  0.115991987	3.364500E+01	  0.115991987	8.337700E+01	  0.115991987	4.059800E+01
481	  0.116192386	-8.496000E+00	  0.116192386	3.268400E+01	  0.116192386	8.443500E+01	  0.116192386	3.993400E+01
482	  0.116392791	-8.509000E+00	  0.116392791	3.172900E+01	  0.116392791	8.550800E+01	  0.116392791	3.930200E+01
483	  0.116593190	-8.524000E+00	  0.116593190	3.072800E+01	  0.116593190	8.662200E+01	  0.116593190	3.859700E+01
484	  0.116793588	-8.546000E+00	  0.116793588	2.978100E+01	  0.116793588	8.763200E+01	  0.116793588	3.783100E+01
485	  0.116993994	-8.569000E+00	  0.116993994	2.874100E+01	  0.116993994	8.872600E+01	  0.116993994	3.695300E+01
486	  0.117194392	-8.594000E+00	  0.117194392	2.771100E+01	  0.117194392	8.977800E+01	  0.117194392	3.602000E+01
487	  0.117394790	-8.619000E+00	  0.117394790	2.670600E+01	  0.117394790	9.077700E+01	  0.117394790	3.506600E+01
488	  0.117595196	-8.649000E+00	  0.117595196	2.562200E+01	  0.117595196	9.181000E+01	  0.117595196	3.397000E+01
489	  0.117795594	-8.677000E+00	  0.117795594	2.451300E+01	  0.117795594	9.284600E+01	  0.117795594	3.282200E+01
490	  0.117995992	-8.713000E+00	  0.117995992	2.347100E+01	  0.117995992	9.372300E+01	  0.117995992	3.163100E+01
491	  0.118196398	-8.751000E+00	  0.118196398	2.239200E+01	  0.118196398	9.458700E+01	  0.118196398	3.035900E+01
492	  0.118396796	-8.794000E+00	  0.118396796	2.121200E+01	  0.118396796	9.546700E+01	  0.118396796	2.891500E+01
493	  0.118597202	-8.836000E+00	  0.118597202	2.007300E+01	  0.118597202	9.626000E+01	  0.118597202	2.748500E+01
494	  0.118797600	-8.879000E+00	  0.118797600	1.890500E+01	  0.118797600	9.700500E+01	  0.118797600	2.597700E+01
495	  0.118997999	-8.933000E+00	  0.118997999	1.767000E+01	  0.118997999	9.766900E+01	  0.118997999	2.430700E+01
496	  0.119198404	-8.985000E+00	  0.119198404	1.649900E+01	  0.119198404	9.821400E+01	  0.119198404	2.269200E+01
497	  0.119398803	-9.043000E+00	  0.119398803	1.522000E+01	  0.119398803	9.872900E+01	  0.119398803	2.090800E+01
498	  0.119599201	-9.111000E+00	  0.119599201	1.397700E+01	  0.119599201	9.904700E+01	  0.119599201	1.910500E+01
499	  0.119799607	-9.176000E+00	  0.119799607	1.270100E+01	  0.119799607	9.932300E+01	  0.119799607	1.727300E+01
500	  0.120000005	-9.244000E+00	  0.120000005	1.138800E+01	  0.120000005	9.951300E+01	  0.120000005	1.538800E+01
