! Anritsu VNA Master:             	Model: MS2036C/10/77
! SN:             	1601066
! /bd0/18may07/256.ew.m14.txt
! Existing Calibration Information:
! TYPE:             	Current Settings	Active Cal Settings
! TIME:             	05/07/2018 02:30:19 PM	05/07/2018 02:21:54 PM
! INTERNAL TEMP:    	56.8 C	55.5 C
! # POINTS:         	500	500
! START FREQ:       	20.000 MHz	20.000 MHz
! STOP FREQ:        	120.000 MHz	120.000 MHz
! SOURCE POWER:     	High	High
! IFBW:             	50 Hz	50 Hz
! AVG FACTOR:       	  1 	  1 
! REF PLANE 1:      	0 mm	0 mm
! REF PLANE 2:      	0 mm	0 mm
! CAL TYPE:         	Full S11	Full S11
! CAL METHOD:       	SOLT	SOLT
! CAL LINE TYPE:    	Coax	Coax
! DUT PORT 1:       	K-Conn(F)	K-Conn(F)
! DUT PORT 2:       	K-Conn(F)	K-Conn(F)
! CAL STATUS:       	OK: Accuracy High	--
! PROP-V:       	0.700
! CABLE LOSS:       	0.000 dB/m
! REF IMPEDANCE:       	50.0
! Trace Specific Parameters:	TR1	TR2	TR3	TR4
! TRACE.#.Y (GRAPH TYPE)	LOG MAG	PHASE	REAL IMPEDANCE	IMAGINARY IMPEDANCE
! TRACE.#.X 	FREQ.GHZ	FREQ.GHZ	FREQ.GHZ	FREQ.GHZ
! S-PARAMETER	S11	S11	S11	S11
! SMOOTH/APERTURE %	0	0	0	0
! WINDOW	NSL	NSL	NSL	NSL
! GATING	OFF	OFF	OFF	OFF
! FGTD	OFF	OFF	OFF	OFF
Marker Information per Trace:	TR1	TR2	TR3	TR4
!MK1	--	"MK1 TR2:  20.000 MHz,PH:-126.14°"	--	--
!MK2	--	--	"MK2 TR3:  70.100 200 MHz,Z:(16.509 ohm, -2.581 ohm)"	--
!MK3	--	--	--	--
!MK4	--	--	--	--
!MK5	--	--	--	--
!MK6	--	--	--	--
!MK7	--	--	--	--
!MK8	--	--	--	--
PNT	TR1.FREQ.GHZ	TR1.LOG MAG.dB	TR2.FREQ.GHZ	TR2.PHASE.deg	TR3.FREQ.GHZ	TR3.REAL IMPEDANCE.ohm	TR4.FREQ.GHZ	TR4.IMAGINARY IMPEDANCE.ohm
1	  0.020000000	-6.450000E-01	  0.020000000	-1.261410E+02	  0.020000000	2.336000E+00	  0.020000000	-2.535400E+01
2	  0.020200402	-6.440000E-01	  0.020200402	-1.276150E+02	  0.020200402	2.303000E+00	  0.020200402	-2.455200E+01
3	  0.020400802	-6.450000E-01	  0.020400802	-1.290720E+02	  0.020400802	2.277000E+00	  0.020400802	-2.376900E+01
4	  0.020601204	-6.470000E-01	  0.020601204	-1.305350E+02	  0.020601204	2.255000E+00	  0.020601204	-2.299300E+01
5	  0.020801604	-6.510000E-01	  0.020801604	-1.320300E+02	  0.020801604	2.244000E+00	  0.020801604	-2.220700E+01
6	  0.021002004	-6.590000E-01	  0.021002004	-1.335370E+02	  0.021002004	2.244000E+00	  0.021002004	-2.142600E+01
7	  0.021202406	-6.640000E-01	  0.021202406	-1.350820E+02	  0.021202406	2.236000E+00	  0.021202406	-2.063300E+01
8	  0.021402806	-6.700000E-01	  0.021402806	-1.366120E+02	  0.021402806	2.234000E+00	  0.021402806	-1.985600E+01
9	  0.021603208	-6.760000E-01	  0.021603208	-1.381530E+02	  0.021603208	2.230000E+00	  0.021603208	-1.908300E+01
10	  0.021803608	-6.800000E-01	  0.021803608	-1.396770E+02	  0.021803608	2.221000E+00	  0.021803608	-1.832500E+01
11	  0.022004008	-6.870000E-01	  0.022004008	-1.412170E+02	  0.022004008	2.223000E+00	  0.022004008	-1.756800E+01
12	  0.022204408	-6.950000E-01	  0.022204408	-1.427670E+02	  0.022204408	2.227000E+00	  0.022204408	-1.681200E+01
13	  0.022404809	-6.980000E-01	  0.022404809	-1.443410E+02	  0.022404809	2.215000E+00	  0.022404809	-1.605200E+01
14	  0.022605211	-7.010000E-01	  0.022605211	-1.459380E+02	  0.022605211	2.205000E+00	  0.022605211	-1.528800E+01
15	  0.022805611	-7.080000E-01	  0.022805611	-1.475360E+02	  0.022805611	2.210000E+00	  0.022805611	-1.453000E+01
16	  0.023006011	-7.120000E-01	  0.023006011	-1.491240E+02	  0.023006011	2.206000E+00	  0.023006011	-1.378200E+01
17	  0.023206413	-7.150000E-01	  0.023206413	-1.507220E+02	  0.023206413	2.199000E+00	  0.023206413	-1.303600E+01
18	  0.023406813	-7.180000E-01	  0.023406813	-1.523110E+02	  0.023406813	2.193000E+00	  0.023406813	-1.229900E+01
19	  0.023607215	-7.220000E-01	  0.023607215	-1.538970E+02	  0.023607215	2.190000E+00	  0.023607215	-1.156900E+01
20	  0.023807615	-7.300000E-01	  0.023807615	-1.554970E+02	  0.023807615	2.199000E+00	  0.023807615	-1.083700E+01
21	  0.024008015	-7.400000E-01	  0.024008015	-1.571230E+02	  0.024008015	2.217000E+00	  0.024008015	-1.009700E+01
22	  0.024208417	-7.510000E-01	  0.024208417	-1.587540E+02	  0.024208417	2.236000E+00	  0.024208417	-9.359000E+00
23	  0.024408817	-7.600000E-01	  0.024408817	-1.604120E+02	  0.024408817	2.251000E+00	  0.024408817	-8.614000E+00
24	  0.024609219	-7.680000E-01	  0.024609219	-1.620630E+02	  0.024609219	2.265000E+00	  0.024609219	-7.875000E+00
25	  0.024809619	-7.780000E-01	  0.024809619	-1.637240E+02	  0.024809619	2.286000E+00	  0.024809619	-7.135000E+00
26	  0.025010020	-7.910000E-01	  0.025010020	-1.653780E+02	  0.025010020	2.312000E+00	  0.025010020	-6.401000E+00
27	  0.025210422	-8.030000E-01	  0.025210422	-1.670400E+02	  0.025210422	2.339000E+00	  0.025210422	-5.666000E+00
28	  0.025410822	-8.170000E-01	  0.025410822	-1.687250E+02	  0.025410822	2.373000E+00	  0.025410822	-4.924000E+00
29	  0.025611224	-8.300000E-01	  0.025611224	-1.704310E+02	  0.025611224	2.404000E+00	  0.025611224	-4.175000E+00
30	  0.025811624	-8.440000E-01	  0.025811624	-1.721360E+02	  0.025811624	2.440000E+00	  0.025811624	-3.428000E+00
31	  0.026012026	-8.550000E-01	  0.026012026	-1.738680E+02	  0.026012026	2.468000E+00	  0.026012026	-2.671000E+00
32	  0.026212426	-8.640000E-01	  0.026212426	-1.755950E+02	  0.026212426	2.491000E+00	  0.026212426	-1.918000E+00
33	  0.026412826	-8.800000E-01	  0.026412826	-1.773270E+02	  0.026412826	2.533000E+00	  0.026412826	-1.163000E+00
34	  0.026613226	-8.940000E-01	  0.026613226	-1.790700E+02	  0.026613226	2.571000E+00	  0.026613226	-4.040000E-01
35	  0.026813626	-9.110000E-01	  0.026813626	1.791690E+02	  0.026813626	2.620000E+00	  0.026813626	3.610000E-01
36	  0.027014028	-9.280000E-01	  0.027014028	1.773980E+02	  0.027014028	2.671000E+00	  0.027014028	1.131000E+00
37	  0.027214428	-9.470000E-01	  0.027214428	1.756220E+02	  0.027214428	2.727000E+00	  0.027214428	1.905000E+00
38	  0.027414829	-9.630000E-01	  0.027414829	1.738290E+02	  0.027414829	2.777000E+00	  0.027414829	2.686000E+00
39	  0.027615231	-9.800000E-01	  0.027615231	1.720360E+02	  0.027615231	2.831000E+00	  0.027615231	3.469000E+00
40	  0.027815631	-9.990000E-01	  0.027815631	1.702240E+02	  0.027815631	2.895000E+00	  0.027815631	4.261000E+00
41	  0.028016033	-1.022000E+00	  0.028016033	1.684080E+02	  0.028016033	2.969000E+00	  0.028016033	5.057000E+00
42	  0.028216433	-1.044000E+00	  0.028216433	1.665730E+02	  0.028216433	3.044000E+00	  0.028216433	5.863000E+00
43	  0.028416833	-1.065000E+00	  0.028416833	1.647370E+02	  0.028416833	3.116000E+00	  0.028416833	6.673000E+00
44	  0.028617235	-1.088000E+00	  0.028617235	1.629090E+02	  0.028617235	3.198000E+00	  0.028617235	7.482000E+00
45	  0.028817635	-1.107000E+00	  0.028817635	1.610830E+02	  0.028817635	3.270000E+00	  0.028817635	8.295000E+00
46	  0.029018037	-1.127000E+00	  0.029018037	1.592640E+02	  0.029018037	3.350000E+00	  0.029018037	9.107000E+00
47	  0.029218437	-1.150000E+00	  0.029218437	1.574410E+02	  0.029218437	3.436000E+00	  0.029218437	9.926000E+00
48	  0.029418837	-1.172000E+00	  0.029418837	1.556200E+02	  0.029418837	3.527000E+00	  0.029418837	1.074900E+01
49	  0.029619239	-1.198000E+00	  0.029619239	1.537830E+02	  0.029619239	3.631000E+00	  0.029619239	1.158400E+01
50	  0.029819639	-1.227000E+00	  0.029819639	1.519170E+02	  0.029819639	3.746000E+00	  0.029819639	1.243800E+01
51	  0.030020041	-1.259000E+00	  0.030020041	1.500340E+02	  0.030020041	3.875000E+00	  0.030020041	1.330600E+01
52	  0.030220442	-1.289000E+00	  0.030220442	1.481120E+02	  0.030220442	4.006000E+00	  0.030220442	1.419900E+01
53	  0.030420844	-1.318000E+00	  0.030420844	1.461960E+02	  0.030420844	4.135000E+00	  0.030420844	1.509700E+01
54	  0.030621244	-1.349000E+00	  0.030621244	1.442860E+02	  0.030621244	4.275000E+00	  0.030621244	1.600100E+01
55	  0.030821644	-1.381000E+00	  0.030821644	1.423790E+02	  0.030821644	4.424000E+00	  0.030821644	1.691100E+01
56	  0.031022044	-1.416000E+00	  0.031022044	1.404560E+02	  0.031022044	4.588000E+00	  0.031022044	1.783900E+01
57	  0.031222444	-1.446000E+00	  0.031222444	1.385430E+02	  0.031222444	4.744000E+00	  0.031222444	1.877200E+01
58	  0.031422846	-1.483000E+00	  0.031422846	1.365540E+02	  0.031422846	4.930000E+00	  0.031422846	1.975300E+01
59	  0.031623244	-1.520000E+00	  0.031623244	1.345540E+02	  0.031623244	5.124000E+00	  0.031623244	2.075100E+01
60	  0.031823646	-1.559000E+00	  0.031823646	1.325580E+02	  0.031823646	5.331000E+00	  0.031823646	2.176000E+01
61	  0.032024048	-1.593000E+00	  0.032024048	1.305610E+02	  0.032024048	5.533000E+00	  0.032024048	2.278400E+01
62	  0.032224450	-1.629000E+00	  0.032224450	1.285350E+02	  0.032224450	5.750000E+00	  0.032224450	2.383800E+01
63	  0.032424849	-1.665000E+00	  0.032424849	1.265450E+02	  0.032424849	5.977000E+00	  0.032424849	2.488900E+01
64	  0.032625251	-1.699000E+00	  0.032625251	1.245360E+02	  0.032625251	6.206000E+00	  0.032625251	2.596800E+01
65	  0.032825653	-1.735000E+00	  0.032825653	1.225390E+02	  0.032825653	6.456000E+00	  0.032825653	2.705600E+01
66	  0.033026051	-1.773000E+00	  0.033026051	1.205690E+02	  0.033026051	6.722000E+00	  0.033026051	2.814600E+01
67	  0.033226453	-1.814000E+00	  0.033226453	1.185730E+02	  0.033226453	7.014000E+00	  0.033226453	2.926900E+01
68	  0.033426855	-1.862000E+00	  0.033426855	1.165840E+02	  0.033426855	7.348000E+00	  0.033426855	3.040500E+01
69	  0.033627257	-1.913000E+00	  0.033627257	1.145900E+02	  0.033627257	7.707000E+00	  0.033627257	3.156200E+01
70	  0.033827655	-1.963000E+00	  0.033827655	1.125650E+02	  0.033827655	8.087000E+00	  0.033827655	3.276000E+01
71	  0.034028057	-2.015000E+00	  0.034028057	1.105160E+02	  0.034028057	8.498000E+00	  0.034028057	3.399400E+01
72	  0.034228459	-2.064000E+00	  0.034228459	1.084250E+02	  0.034228459	8.921000E+00	  0.034228459	3.528300E+01
73	  0.034428857	-2.114000E+00	  0.034428857	1.063110E+02	  0.034428857	9.379000E+00	  0.034428857	3.661400E+01
74	  0.034629259	-2.162000E+00	  0.034629259	1.041830E+02	  0.034629259	9.857000E+00	  0.034629259	3.798400E+01
75	  0.034829661	-2.206000E+00	  0.034829661	1.020600E+02	  0.034829661	1.034400E+01	  0.034829661	3.938700E+01
76	  0.035030060	-2.251000E+00	  0.035030060	9.992800E+01	  0.035030060	1.086400E+01	  0.035030060	4.083200E+01
77	  0.035230462	-2.295000E+00	  0.035230462	9.784000E+01	  0.035230462	1.140900E+01	  0.035230462	4.228000E+01
78	  0.035430863	-2.338000E+00	  0.035430863	9.574600E+01	  0.035430863	1.198600E+01	  0.035430863	4.377000E+01
79	  0.035631265	-2.379000E+00	  0.035631265	9.366400E+01	  0.035631265	1.258800E+01	  0.035631265	4.529300E+01
80	  0.035831664	-2.424000E+00	  0.035831664	9.159000E+01	  0.035831664	1.324900E+01	  0.035831664	4.684400E+01
81	  0.036032066	-2.466000E+00	  0.036032066	8.952100E+01	  0.036032066	1.394200E+01	  0.036032066	4.843600E+01
82	  0.036232468	-2.512000E+00	  0.036232468	8.745500E+01	  0.036232468	1.469800E+01	  0.036232468	5.006300E+01
83	  0.036432866	-2.560000E+00	  0.036432866	8.540700E+01	  0.036432866	1.551800E+01	  0.036432866	5.171600E+01
84	  0.036633268	-2.609000E+00	  0.036633268	8.338100E+01	  0.036633268	1.639400E+01	  0.036633268	5.339200E+01
85	  0.036833670	-2.663000E+00	  0.036833670	8.133800E+01	  0.036833670	1.736700E+01	  0.036833670	5.511800E+01
86	  0.037034072	-2.721000E+00	  0.037034072	7.929400E+01	  0.037034072	1.843400E+01	  0.037034072	5.688100E+01
87	  0.037234470	-2.780000E+00	  0.037234470	7.724400E+01	  0.037234470	1.959400E+01	  0.037234470	5.869100E+01
88	  0.037434869	-2.840000E+00	  0.037434869	7.516100E+01	  0.037434869	2.086000E+01	  0.037434869	6.057800E+01
89	  0.037635271	-2.900000E+00	  0.037635271	7.306100E+01	  0.037635271	2.223500E+01	  0.037635271	6.253000E+01
90	  0.037835669	-2.961000E+00	  0.037835669	7.092500E+01	  0.037835669	2.375000E+01	  0.037835669	6.456300E+01
91	  0.038036071	-3.023000E+00	  0.038036071	6.876800E+01	  0.038036071	2.540000E+01	  0.038036071	6.667000E+01
92	  0.038236473	-3.084000E+00	  0.038236473	6.660500E+01	  0.038236473	2.719300E+01	  0.038236473	6.883600E+01
93	  0.038436871	-3.140000E+00	  0.038436871	6.445700E+01	  0.038436871	2.909900E+01	  0.038436871	7.105500E+01
94	  0.038637273	-3.195000E+00	  0.038637273	6.229700E+01	  0.038637273	3.116600E+01	  0.038637273	7.334800E+01
95	  0.038837675	-3.247000E+00	  0.038837675	6.016900E+01	  0.038837675	3.337700E+01	  0.038837675	7.566000E+01
96	  0.039038073	-3.294000E+00	  0.039038073	5.806500E+01	  0.039038073	3.571000E+01	  0.039038073	7.802500E+01
97	  0.039238475	-3.341000E+00	  0.039238475	5.599400E+01	  0.039238475	3.823200E+01	  0.039238475	8.038100E+01
98	  0.039438877	-3.389000E+00	  0.039438877	5.390800E+01	  0.039438877	4.100300E+01	  0.039438877	8.278700E+01
99	  0.039639279	-3.441000E+00	  0.039639279	5.187500E+01	  0.039639279	4.399600E+01	  0.039639279	8.511000E+01
100	  0.039839678	-3.499000E+00	  0.039839678	4.982700E+01	  0.039839678	4.734000E+01	  0.039839678	8.738800E+01
101	  0.040040080	-3.557000E+00	  0.040040080	4.774900E+01	  0.040040080	5.102400E+01	  0.040040080	8.967900E+01
102	  0.040240481	-3.619000E+00	  0.040240481	4.569600E+01	  0.040240481	5.503900E+01	  0.040240481	9.183400E+01
103	  0.040440880	-3.678000E+00	  0.040440880	4.360200E+01	  0.040440880	5.945400E+01	  0.040440880	9.399000E+01
104	  0.040641282	-3.738000E+00	  0.040641282	4.152200E+01	  0.040641282	6.425400E+01	  0.040641282	9.596900E+01
105	  0.040841684	-3.796000E+00	  0.040841684	3.944000E+01	  0.040841684	6.945300E+01	  0.040841684	9.780600E+01
106	  0.041042086	-3.852000E+00	  0.041042086	3.738400E+01	  0.041042086	7.501700E+01	  0.041042086	9.940800E+01
107	  0.041242484	-3.909000E+00	  0.041242484	3.529900E+01	  0.041242484	8.112500E+01	  0.041242484	1.007150E+02
108	  0.041442886	-3.964000E+00	  0.041442886	3.323400E+01	  0.041442886	8.763500E+01	  0.041442886	1.016650E+02
109	  0.041643288	-4.018000E+00	  0.041643288	3.114600E+01	  0.041643288	9.469500E+01	  0.041643288	1.021700E+02
110	  0.041843686	-4.072000E+00	  0.041843686	2.909300E+01	  0.041843686	1.020960E+02	  0.041843686	1.021100E+02
111	  0.042044088	-4.123000E+00	  0.042044088	2.703200E+01	  0.042044088	1.099580E+02	  0.042044088	1.014120E+02
112	  0.042244490	-4.174000E+00	  0.042244490	2.499800E+01	  0.042244490	1.180910E+02	  0.042244490	9.995500E+01
113	  0.042444889	-4.225000E+00	  0.042444889	2.298400E+01	  0.042444889	1.264300E+02	  0.042444889	9.758900E+01
114	  0.042645290	-4.274000E+00	  0.042645290	2.095900E+01	  0.042645290	1.349910E+02	  0.042645290	9.426400E+01
115	  0.042845692	-4.325000E+00	  0.042845692	1.896300E+01	  0.042845692	1.434430E+02	  0.042845692	8.985300E+01
116	  0.043046094	-4.373000E+00	  0.043046094	1.696800E+01	  0.043046094	1.517560E+02	  0.043046094	8.435400E+01
117	  0.043246493	-4.424000E+00	  0.043246493	1.495900E+01	  0.043246493	1.597160E+02	  0.043246493	7.754400E+01
118	  0.043446895	-4.473000E+00	  0.043446895	1.297300E+01	  0.043446895	1.670060E+02	  0.043446895	6.968300E+01
119	  0.043647297	-4.520000E+00	  0.043647297	1.099200E+01	  0.043647297	1.734780E+02	  0.043647297	6.077400E+01
120	  0.043847695	-4.569000E+00	  0.043847695	9.014000E+00	  0.043847695	1.788410E+02	  0.043847695	5.088300E+01
121	  0.044048097	-4.616000E+00	  0.044048097	7.041000E+00	  0.044048097	1.829970E+02	  0.044048097	4.028200E+01
122	  0.044248499	-4.665000E+00	  0.044248499	5.065000E+00	  0.044248499	1.857220E+02	  0.044248499	2.910600E+01
123	  0.044448901	-4.709000E+00	  0.044448901	3.125000E+00	  0.044448901	1.870860E+02	  0.044448901	1.792300E+01
124	  0.044649299	-4.755000E+00	  0.044649299	1.175000E+00	  0.044649299	1.869270E+02	  0.044649299	6.663000E+00
125	  0.044849701	-4.799000E+00	  0.044849701	-7.610000E-01	  0.044849701	1.854460E+02	  0.044849701	-4.242000E+00
126	  0.045050103	-4.840000E+00	  0.045050103	-2.692000E+00	  0.045050103	1.827820E+02	  0.045050103	-1.463800E+01
127	  0.045250501	-4.883000E+00	  0.045250501	-4.629000E+00	  0.045250501	1.789220E+02	  0.045250501	-2.437900E+01
128	  0.045450903	-4.925000E+00	  0.045450903	-6.527000E+00	  0.045450903	1.741990E+02	  0.045450903	-3.311300E+01
129	  0.045651305	-4.967000E+00	  0.045651305	-8.425000E+00	  0.045651305	1.687470E+02	  0.045651305	-4.095800E+01
130	  0.045851704	-5.007000E+00	  0.045851704	-1.031500E+01	  0.045851704	1.628260E+02	  0.045851704	-4.787600E+01
131	  0.046052106	-5.048000E+00	  0.046052106	-1.222300E+01	  0.046052106	1.564480E+02	  0.046052106	-5.390100E+01
132	  0.046252504	-5.084000E+00	  0.046252504	-1.409000E+01	  0.046252504	1.500710E+02	  0.046252504	-5.898900E+01
133	  0.046452906	-5.124000E+00	  0.046452906	-1.597200E+01	  0.046452906	1.434720E+02	  0.046452906	-6.319300E+01
134	  0.046653304	-5.157000E+00	  0.046653304	-1.783900E+01	  0.046653304	1.370290E+02	  0.046653304	-6.670300E+01
135	  0.046853706	-5.195000E+00	  0.046853706	-1.970100E+01	  0.046853706	1.306450E+02	  0.046853706	-6.942500E+01
136	  0.047054108	-5.227000E+00	  0.047054108	-2.155000E+01	  0.047054108	1.245110E+02	  0.047054108	-7.160000E+01
137	  0.047254506	-5.260000E+00	  0.047254506	-2.340000E+01	  0.047254506	1.185550E+02	  0.047254506	-7.318200E+01
138	  0.047454908	-5.291000E+00	  0.047454908	-2.521100E+01	  0.047454908	1.129630E+02	  0.047454908	-7.429500E+01
139	  0.047655310	-5.324000E+00	  0.047655310	-2.703600E+01	  0.047655310	1.075650E+02	  0.047655310	-7.497100E+01
140	  0.047855709	-5.353000E+00	  0.047855709	-2.881300E+01	  0.047855709	1.025710E+02	  0.047855709	-7.534300E+01
141	  0.048056111	-5.381000E+00	  0.048056111	-3.058100E+01	  0.048056111	9.784700E+01	  0.048056111	-7.542100E+01
142	  0.048256513	-5.412000E+00	  0.048256513	-3.233600E+01	  0.048256513	9.340100E+01	  0.048256513	-7.520300E+01
143	  0.048456915	-5.442000E+00	  0.048456915	-3.408100E+01	  0.048456915	8.922100E+01	  0.048456915	-7.480800E+01
144	  0.048657313	-5.471000E+00	  0.048657313	-3.583600E+01	  0.048657313	8.525300E+01	  0.048657313	-7.423600E+01
145	  0.048857715	-5.497000E+00	  0.048857715	-3.760100E+01	  0.048857715	8.148900E+01	  0.048857715	-7.355400E+01
146	  0.049058117	-5.524000E+00	  0.049058117	-3.934300E+01	  0.049058117	7.799000E+01	  0.049058117	-7.272800E+01
147	  0.049258515	-5.548000E+00	  0.049258515	-4.108000E+01	  0.049258515	7.469600E+01	  0.049258515	-7.185000E+01
148	  0.049458917	-5.574000E+00	  0.049458917	-4.279700E+01	  0.049458917	7.163300E+01	  0.049458917	-7.087200E+01
149	  0.049659319	-5.600000E+00	  0.049659319	-4.450800E+01	  0.049659319	6.876000E+01	  0.049659319	-6.981800E+01
150	  0.049859721	-5.624000E+00	  0.049859721	-4.621500E+01	  0.049859721	6.605300E+01	  0.049859721	-6.873900E+01
151	  0.050060119	-5.647000E+00	  0.050060119	-4.791800E+01	  0.050060119	6.350700E+01	  0.050060119	-6.762700E+01
152	  0.050260521	-5.668000E+00	  0.050260521	-4.962000E+01	  0.050260521	6.110000E+01	  0.050260521	-6.649700E+01
153	  0.050460923	-5.689000E+00	  0.050460923	-5.130700E+01	  0.050460923	5.885100E+01	  0.050460923	-6.534900E+01
154	  0.050661322	-5.705000E+00	  0.050661322	-5.299200E+01	  0.050661322	5.671000E+01	  0.050661322	-6.422700E+01
155	  0.050861724	-5.722000E+00	  0.050861724	-5.462800E+01	  0.050861724	5.475000E+01	  0.050861724	-6.310400E+01
156	  0.051062126	-5.732000E+00	  0.051062126	-5.630800E+01	  0.051062126	5.282100E+01	  0.051062126	-6.199100E+01
157	  0.051262524	-5.749000E+00	  0.051262524	-5.790400E+01	  0.051262524	5.111400E+01	  0.051262524	-6.086800E+01
158	  0.051462926	-5.766000E+00	  0.051462926	-5.948900E+01	  0.051462926	4.950300E+01	  0.051462926	-5.975500E+01
159	  0.051663328	-5.780000E+00	  0.051663328	-6.104100E+01	  0.051663328	4.799900E+01	  0.051663328	-5.867700E+01
160	  0.051863730	-5.791000E+00	  0.051863730	-6.260600E+01	  0.051863730	4.654200E+01	  0.051863730	-5.761400E+01
161	  0.052064128	-5.807000E+00	  0.052064128	-6.416200E+01	  0.052064128	4.519100E+01	  0.052064128	-5.652100E+01
162	  0.052264530	-5.823000E+00	  0.052264530	-6.569200E+01	  0.052264530	4.392400E+01	  0.052264530	-5.545700E+01
163	  0.052464932	-5.842000E+00	  0.052464932	-6.722400E+01	  0.052464932	4.273000E+01	  0.052464932	-5.438100E+01
164	  0.052665330	-5.855000E+00	  0.052665330	-6.877200E+01	  0.052665330	4.155900E+01	  0.052665330	-5.333300E+01
165	  0.052865732	-5.868000E+00	  0.052865732	-7.031300E+01	  0.052865732	4.044800E+01	  0.052865732	-5.229800E+01
166	  0.053066134	-5.887000E+00	  0.053066134	-7.184000E+01	  0.053066134	3.942300E+01	  0.053066134	-5.125300E+01
167	  0.053266536	-5.899000E+00	  0.053266536	-7.334800E+01	  0.053266536	3.843300E+01	  0.053266536	-5.026000E+01
168	  0.053466935	-5.911000E+00	  0.053466935	-7.489100E+01	  0.053466935	3.746700E+01	  0.053466935	-4.925300E+01
169	  0.053667337	-5.921000E+00	  0.053667337	-7.640000E+01	  0.053667337	3.655400E+01	  0.053667337	-4.829000E+01
170	  0.053867739	-5.928000E+00	  0.053867739	-7.790700E+01	  0.053867739	3.567300E+01	  0.053867739	-4.734700E+01
171	  0.054068137	-5.935000E+00	  0.054068137	-7.939200E+01	  0.054068137	3.484600E+01	  0.054068137	-4.642400E+01
172	  0.054268539	-5.941000E+00	  0.054268539	-8.088000E+01	  0.054268539	3.404900E+01	  0.054268539	-4.551000E+01
173	  0.054468941	-5.948000E+00	  0.054468941	-8.231500E+01	  0.054468941	3.331300E+01	  0.054468941	-4.463600E+01
174	  0.054669339	-5.953000E+00	  0.054669339	-8.375600E+01	  0.054669339	3.259900E+01	  0.054669339	-4.377300E+01
175	  0.054869737	-5.959000E+00	  0.054869737	-8.518400E+01	  0.054869737	3.192600E+01	  0.054869737	-4.292200E+01
176	  0.055070139	-5.968000E+00	  0.055070139	-8.657300E+01	  0.055070139	3.130900E+01	  0.055070139	-4.209200E+01
177	  0.055270538	-5.978000E+00	  0.055270538	-8.795900E+01	  0.055270538	3.072000E+01	  0.055270538	-4.127000E+01
178	  0.055470940	-5.984000E+00	  0.055470940	-8.935800E+01	  0.055470940	3.013800E+01	  0.055470940	-4.045900E+01
179	  0.055671342	-5.991000E+00	  0.055671342	-9.076300E+01	  0.055671342	2.957800E+01	  0.055671342	-3.965200E+01
180	  0.055871744	-5.999000E+00	  0.055871744	-9.215800E+01	  0.055871744	2.904400E+01	  0.055871744	-3.885800E+01
181	  0.056072142	-6.005000E+00	  0.056072142	-9.354400E+01	  0.056072142	2.853300E+01	  0.056072142	-3.807800E+01
182	  0.056272544	-6.012000E+00	  0.056272544	-9.494000E+01	  0.056272544	2.803700E+01	  0.056272544	-3.730200E+01
183	  0.056472946	-6.021000E+00	  0.056472946	-9.631900E+01	  0.056472946	2.757300E+01	  0.056472946	-3.653800E+01
184	  0.056673344	-6.028000E+00	  0.056673344	-9.768300E+01	  0.056673344	2.712800E+01	  0.056673344	-3.579300E+01
185	  0.056873746	-6.027000E+00	  0.056873746	-9.905500E+01	  0.056873746	2.666900E+01	  0.056873746	-3.506800E+01
186	  0.057074148	-6.028000E+00	  0.057074148	-1.004000E+02	  0.057074148	2.624200E+01	  0.057074148	-3.436000E+01
187	  0.057274550	-6.030000E+00	  0.057274550	-1.017930E+02	  0.057274550	2.581900E+01	  0.057274550	-3.363200E+01
188	  0.057474948	-6.027000E+00	  0.057474948	-1.031150E+02	  0.057474948	2.541400E+01	  0.057474948	-3.295800E+01
189	  0.057675350	-6.028000E+00	  0.057675350	-1.044300E+02	  0.057675350	2.503800E+01	  0.057675350	-3.228400E+01
190	  0.057875752	-6.026000E+00	  0.057875752	-1.057450E+02	  0.057875752	2.467000E+01	  0.057875752	-3.162000E+01
191	  0.058076151	-6.025000E+00	  0.058076151	-1.070490E+02	  0.058076151	2.431500E+01	  0.058076151	-3.096800E+01
192	  0.058276553	-6.026000E+00	  0.058276553	-1.083320E+02	  0.058276553	2.398600E+01	  0.058276553	-3.032700E+01
193	  0.058476955	-6.023000E+00	  0.058476955	-1.095660E+02	  0.058476955	2.366800E+01	  0.058476955	-2.972100E+01
194	  0.058677353	-6.024000E+00	  0.058677353	-1.108170E+02	  0.058677353	2.337000E+01	  0.058677353	-2.910500E+01
195	  0.058877755	-6.025000E+00	  0.058877755	-1.120970E+02	  0.058877755	2.307500E+01	  0.058877755	-2.848100E+01
196	  0.059078157	-6.023000E+00	  0.059078157	-1.133270E+02	  0.059078157	2.279100E+01	  0.059078157	-2.788900E+01
197	  0.059278559	-6.028000E+00	  0.059278559	-1.145940E+02	  0.059278559	2.253100E+01	  0.059278559	-2.727400E+01
198	  0.059478957	-6.028000E+00	  0.059478957	-1.158090E+02	  0.059478957	2.227300E+01	  0.059478957	-2.669700E+01
199	  0.059679359	-6.031000E+00	  0.059679359	-1.170670E+02	  0.059679359	2.202500E+01	  0.059679359	-2.609900E+01
200	  0.059879761	-6.032000E+00	  0.059879761	-1.182940E+02	  0.059879761	2.178700E+01	  0.059879761	-2.552200E+01
201	  0.060080159	-6.033000E+00	  0.060080159	-1.194920E+02	  0.060080159	2.156200E+01	  0.060080159	-2.496200E+01
202	  0.060280561	-6.035000E+00	  0.060280561	-1.207260E+02	  0.060280561	2.134000E+01	  0.060280561	-2.439000E+01
203	  0.060480963	-6.037000E+00	  0.060480963	-1.219360E+02	  0.060480963	2.112900E+01	  0.060480963	-2.383200E+01
204	  0.060681365	-6.035000E+00	  0.060681365	-1.231530E+02	  0.060681365	2.091500E+01	  0.060681365	-2.327800E+01
205	  0.060881764	-6.034000E+00	  0.060881764	-1.243610E+02	  0.060881764	2.070800E+01	  0.060881764	-2.273300E+01
206	  0.061082166	-6.034000E+00	  0.061082166	-1.255600E+02	  0.061082166	2.051400E+01	  0.061082166	-2.219300E+01
207	  0.061282568	-6.031000E+00	  0.061282568	-1.267530E+02	  0.061282568	2.031900E+01	  0.061282568	-2.166200E+01
208	  0.061482966	-6.032000E+00	  0.061482966	-1.279230E+02	  0.061482966	2.014600E+01	  0.061482966	-2.114000E+01
209	  0.061683368	-6.030000E+00	  0.061683368	-1.290700E+02	  0.061683368	1.997400E+01	  0.061683368	-2.063500E+01
210	  0.061883770	-6.030000E+00	  0.061883770	-1.302520E+02	  0.061883770	1.980400E+01	  0.061883770	-2.011600E+01
211	  0.062084168	-6.031000E+00	  0.062084168	-1.313930E+02	  0.062084168	1.965100E+01	  0.062084168	-1.961600E+01
212	  0.062284570	-6.030000E+00	  0.062284570	-1.325430E+02	  0.062284570	1.949800E+01	  0.062284570	-1.911600E+01
213	  0.062484972	-6.026000E+00	  0.062484972	-1.336540E+02	  0.062484972	1.934400E+01	  0.062484972	-1.863900E+01
214	  0.062685370	-6.026000E+00	  0.062685370	-1.347790E+02	  0.062685370	1.920400E+01	  0.062685370	-1.815500E+01
215	  0.062885776	-6.031000E+00	  0.062885776	-1.359090E+02	  0.062885776	1.908400E+01	  0.062885776	-1.766600E+01
216	  0.063086174	-6.030000E+00	  0.063086174	-1.370570E+02	  0.063086174	1.894700E+01	  0.063086174	-1.717800E+01
217	  0.063286573	-6.035000E+00	  0.063286573	-1.382190E+02	  0.063286573	1.883100E+01	  0.063286573	-1.668200E+01
218	  0.063486971	-6.038000E+00	  0.063486971	-1.393440E+02	  0.063486971	1.871800E+01	  0.063486971	-1.620500E+01
219	  0.063687377	-6.035000E+00	  0.063687377	-1.404640E+02	  0.063687377	1.859300E+01	  0.063687377	-1.573600E+01
220	  0.063887775	-6.032000E+00	  0.063887775	-1.416020E+02	  0.063887775	1.847200E+01	  0.063887775	-1.526200E+01
221	  0.064088173	-6.031000E+00	  0.064088173	-1.427120E+02	  0.064088173	1.836300E+01	  0.064088173	-1.480000E+01
222	  0.064288579	-6.030000E+00	  0.064288579	-1.438340E+02	  0.064288579	1.825500E+01	  0.064288579	-1.433500E+01
223	  0.064488977	-6.028000E+00	  0.064488977	-1.449400E+02	  0.064488977	1.815100E+01	  0.064488977	-1.387900E+01
224	  0.064689375	-6.031000E+00	  0.064689375	-1.460080E+02	  0.064689375	1.806400E+01	  0.064689375	-1.343900E+01
225	  0.064889781	-6.027000E+00	  0.064889781	-1.470740E+02	  0.064889781	1.796600E+01	  0.064889781	-1.300300E+01
226	  0.065090179	-6.024000E+00	  0.065090179	-1.481460E+02	  0.065090179	1.787300E+01	  0.065090179	-1.256700E+01
227	  0.065290578	-6.022000E+00	  0.065290578	-1.491810E+02	  0.065290578	1.778800E+01	  0.065290578	-1.214600E+01
228	  0.065490983	-6.022000E+00	  0.065490983	-1.502010E+02	  0.065490983	1.771200E+01	  0.065490983	-1.173100E+01
229	  0.065691382	-6.024000E+00	  0.065691382	-1.512220E+02	  0.065691382	1.764400E+01	  0.065691382	-1.131700E+01
230	  0.065891780	-6.016000E+00	  0.065891780	-1.522690E+02	  0.065891780	1.755100E+01	  0.065891780	-1.089800E+01
231	  0.066092186	-6.011000E+00	  0.066092186	-1.533100E+02	  0.066092186	1.747100E+01	  0.066092186	-1.048000E+01
232	  0.066292584	-6.014000E+00	  0.066292584	-1.542990E+02	  0.066292584	1.741700E+01	  0.066292584	-1.008200E+01
233	  0.066492982	-6.011000E+00	  0.066492982	-1.553020E+02	  0.066492982	1.734800E+01	  0.066492982	-9.682000E+00
234	  0.066693388	-6.004000E+00	  0.066693388	-1.563270E+02	  0.066693388	1.727100E+01	  0.066693388	-9.275000E+00
235	  0.066893786	-6.001000E+00	  0.066893786	-1.573390E+02	  0.066893786	1.720900E+01	  0.066893786	-8.872000E+00
236	  0.067094192	-5.997000E+00	  0.067094192	-1.583230E+02	  0.067094192	1.714600E+01	  0.067094192	-8.482000E+00
237	  0.067294590	-5.989000E+00	  0.067294590	-1.593730E+02	  0.067294590	1.707400E+01	  0.067294590	-8.067000E+00
238	  0.067494988	-5.988000E+00	  0.067494988	-1.603640E+02	  0.067494988	1.702500E+01	  0.067494988	-7.675000E+00
239	  0.067695394	-5.987000E+00	  0.067695394	-1.613830E+02	  0.067695394	1.697800E+01	  0.067695394	-7.272000E+00
240	  0.067895792	-5.975000E+00	  0.067895792	-1.623970E+02	  0.067895792	1.690300E+01	  0.067895792	-6.875000E+00
241	  0.068096191	-5.974000E+00	  0.068096191	-1.634120E+02	  0.068096191	1.686000E+01	  0.068096191	-6.475000E+00
242	  0.068296596	-5.974000E+00	  0.068296596	-1.644070E+02	  0.068296596	1.682500E+01	  0.068296596	-6.083000E+00
243	  0.068496995	-5.963000E+00	  0.068496995	-1.654300E+02	  0.068496995	1.676000E+01	  0.068496995	-5.683000E+00
244	  0.068697393	-5.958000E+00	  0.068697393	-1.664390E+02	  0.068697393	1.671500E+01	  0.068697393	-5.288000E+00
245	  0.068897791	-5.954000E+00	  0.068897791	-1.674210E+02	  0.068897791	1.667600E+01	  0.068897791	-4.903000E+00
246	  0.069098189	-5.949000E+00	  0.069098189	-1.684190E+02	  0.069098189	1.663500E+01	  0.069098189	-4.513000E+00
247	  0.069298595	-5.939000E+00	  0.069298595	-1.694140E+02	  0.069298595	1.658500E+01	  0.069298595	-4.126000E+00
248	  0.069498993	-5.941000E+00	  0.069498993	-1.703860E+02	  0.069498993	1.656700E+01	  0.069498993	-3.745000E+00
249	  0.069699399	-5.936000E+00	  0.069699399	-1.714320E+02	  0.069699399	1.653200E+01	  0.069699399	-3.337000E+00
250	  0.069899797	-5.933000E+00	  0.069899797	-1.724230E+02	  0.069899797	1.650700E+01	  0.069899797	-2.951000E+00
251	  0.070100196	-5.939000E+00	  0.070100196	-1.733700E+02	  0.070100196	1.650900E+01	  0.070100196	-2.581000E+00
252	  0.070300601	-5.929000E+00	  0.070300601	-1.743940E+02	  0.070300601	1.646800E+01	  0.070300601	-2.183000E+00
253	  0.070501000	-5.927000E+00	  0.070501000	-1.754110E+02	  0.070501000	1.645000E+01	  0.070501000	-1.786000E+00
254	  0.070701398	-5.925000E+00	  0.070701398	-1.763680E+02	  0.070701398	1.643800E+01	  0.070701398	-1.413000E+00
255	  0.070901804	-5.923000E+00	  0.070901804	-1.773390E+02	  0.070901804	1.642400E+01	  0.070901804	-1.035000E+00
256	  0.071102202	-5.920000E+00	  0.071102202	-1.783520E+02	  0.071102202	1.641200E+01	  0.071102202	-6.410000E-01
257	  0.071302600	-5.916000E+00	  0.071302600	-1.793130E+02	  0.071302600	1.640100E+01	  0.071302600	-2.670000E-01
258	  0.071503006	-5.919000E+00	  0.071503006	1.797050E+02	  0.071503006	1.640800E+01	  0.071503006	1.140000E-01
259	  0.071703404	-5.922000E+00	  0.071703404	1.787360E+02	  0.071703404	1.641800E+01	  0.071703404	4.910000E-01
260	  0.071903802	-5.921000E+00	  0.071903802	1.777560E+02	  0.071903802	1.641900E+01	  0.071903802	8.730000E-01
261	  0.072104208	-5.919000E+00	  0.072104208	1.768080E+02	  0.072104208	1.641900E+01	  0.072104208	1.242000E+00
262	  0.072304606	-5.922000E+00	  0.072304606	1.758670E+02	  0.072304606	1.643300E+01	  0.072304606	1.609000E+00
263	  0.072505005	-5.923000E+00	  0.072505005	1.748840E+02	  0.072505005	1.644700E+01	  0.072505005	1.992000E+00
264	  0.072705410	-5.921000E+00	  0.072705410	1.739220E+02	  0.072705410	1.645400E+01	  0.072705410	2.367000E+00
265	  0.072905809	-5.925000E+00	  0.072905809	1.729710E+02	  0.072905809	1.647800E+01	  0.072905809	2.738000E+00
266	  0.073106214	-5.924000E+00	  0.073106214	1.720440E+02	  0.073106214	1.649200E+01	  0.073106214	3.100000E+00
267	  0.073306613	-5.931000E+00	  0.073306613	1.710900E+02	  0.073306613	1.652600E+01	  0.073306613	3.472000E+00
268	  0.073507011	-5.933000E+00	  0.073507011	1.701370E+02	  0.073507011	1.655300E+01	  0.073507011	3.844000E+00
269	  0.073707417	-5.936000E+00	  0.073707417	1.691880E+02	  0.073707417	1.658300E+01	  0.073707417	4.214000E+00
270	  0.073907815	-5.939000E+00	  0.073907815	1.682640E+02	  0.073907815	1.661200E+01	  0.073907815	4.576000E+00
271	  0.074108213	-5.940000E+00	  0.074108213	1.673280E+02	  0.074108213	1.664300E+01	  0.074108213	4.943000E+00
272	  0.074308619	-5.944000E+00	  0.074308619	1.663930E+02	  0.074308619	1.668100E+01	  0.074308619	5.309000E+00
273	  0.074509017	-5.949000E+00	  0.074509017	1.654460E+02	  0.074509017	1.672300E+01	  0.074509017	5.680000E+00
274	  0.074709415	-5.954000E+00	  0.074709415	1.645080E+02	  0.074709415	1.676900E+01	  0.074709415	6.048000E+00
275	  0.074909821	-5.956000E+00	  0.074909821	1.635930E+02	  0.074909821	1.680800E+01	  0.074909821	6.408000E+00
276	  0.075110219	-5.964000E+00	  0.075110219	1.626690E+02	  0.075110219	1.686200E+01	  0.075110219	6.771000E+00
277	  0.075310618	-5.971000E+00	  0.075310618	1.617690E+02	  0.075310618	1.691900E+01	  0.075310618	7.124000E+00
278	  0.075511023	-5.978000E+00	  0.075511023	1.608710E+02	  0.075511023	1.697500E+01	  0.075511023	7.477000E+00
279	  0.075711422	-5.980000E+00	  0.075711422	1.599610E+02	  0.075711422	1.702300E+01	  0.075711422	7.837000E+00
280	  0.075911827	-5.988000E+00	  0.075911827	1.590830E+02	  0.075911827	1.708500E+01	  0.075911827	8.183000E+00
281	  0.076112226	-5.992000E+00	  0.076112226	1.581500E+02	  0.076112226	1.714300E+01	  0.076112226	8.552000E+00
282	  0.076312624	-6.001000E+00	  0.076312624	1.572710E+02	  0.076312624	1.721100E+01	  0.076312624	8.899000E+00
283	  0.076513030	-6.010000E+00	  0.076513030	1.563480E+02	  0.076513030	1.728700E+01	  0.076513030	9.264000E+00
284	  0.076713428	-6.018000E+00	  0.076713428	1.554400E+02	  0.076713428	1.736000E+01	  0.076713428	9.624000E+00
285	  0.076913826	-6.027000E+00	  0.076913826	1.545590E+02	  0.076913826	1.743400E+01	  0.076913826	9.973000E+00
286	  0.077114232	-6.032000E+00	  0.077114232	1.536640E+02	  0.077114232	1.750400E+01	  0.077114232	1.032900E+01
287	  0.077314630	-6.037000E+00	  0.077314630	1.528120E+02	  0.077314630	1.757300E+01	  0.077314630	1.067000E+01
288	  0.077515028	-6.043000E+00	  0.077515028	1.519350E+02	  0.077515028	1.764600E+01	  0.077515028	1.102100E+01
289	  0.077715434	-6.049000E+00	  0.077715434	1.510660E+02	  0.077715434	1.772100E+01	  0.077715434	1.136900E+01
290	  0.077915832	-6.059000E+00	  0.077915832	1.501930E+02	  0.077915832	1.781100E+01	  0.077915832	1.171700E+01
291	  0.078116231	-6.074000E+00	  0.078116231	1.493360E+02	  0.078116231	1.791400E+01	  0.078116231	1.205700E+01
292	  0.078316636	-6.082000E+00	  0.078316636	1.484780E+02	  0.078316636	1.800100E+01	  0.078316636	1.240200E+01
293	  0.078517035	-6.096000E+00	  0.078517035	1.475990E+02	  0.078517035	1.810900E+01	  0.078517035	1.275200E+01
294	  0.078717433	-6.108000E+00	  0.078717433	1.467360E+02	  0.078717433	1.821200E+01	  0.078717433	1.309700E+01
295	  0.078917839	-6.119000E+00	  0.078917839	1.458900E+02	  0.078917839	1.831400E+01	  0.078917839	1.343700E+01
296	  0.079118237	-6.134000E+00	  0.079118237	1.450540E+02	  0.079118237	1.842700E+01	  0.079118237	1.377100E+01
297	  0.079318643	-6.148000E+00	  0.079318643	1.441940E+02	  0.079318643	1.854200E+01	  0.079318643	1.411600E+01
298	  0.079519041	-6.163000E+00	  0.079519041	1.433460E+02	  0.079519041	1.866200E+01	  0.079519041	1.445600E+01
299	  0.079719439	-6.179000E+00	  0.079719439	1.424890E+02	  0.079719439	1.878600E+01	  0.079719439	1.479900E+01
300	  0.079919845	-6.196000E+00	  0.079919845	1.416540E+02	  0.079919845	1.891500E+01	  0.079919845	1.513400E+01
301	  0.080120243	-6.211000E+00	  0.080120243	1.407950E+02	  0.080120243	1.904400E+01	  0.080120243	1.547900E+01
302	  0.080320641	-6.222000E+00	  0.080320641	1.399430E+02	  0.080320641	1.916300E+01	  0.080320641	1.582500E+01
303	  0.080521047	-6.240000E+00	  0.080521047	1.391050E+02	  0.080521047	1.930400E+01	  0.080521047	1.616100E+01
304	  0.080721445	-6.254000E+00	  0.080721445	1.382400E+02	  0.080721445	1.943700E+01	  0.080721445	1.651200E+01
305	  0.080921844	-6.272000E+00	  0.080921844	1.374040E+02	  0.080921844	1.958200E+01	  0.080921844	1.684900E+01
306	  0.081122249	-6.293000E+00	  0.081122249	1.365740E+02	  0.081122249	1.973600E+01	  0.081122249	1.718100E+01
307	  0.081322648	-6.306000E+00	  0.081322648	1.357540E+02	  0.081322648	1.987000E+01	  0.081322648	1.751600E+01
308	  0.081523046	-6.325000E+00	  0.081523046	1.349110E+02	  0.081523046	2.002600E+01	  0.081523046	1.785600E+01
309	  0.081723452	-6.343000E+00	  0.081723452	1.341020E+02	  0.081723452	2.017800E+01	  0.081723452	1.818200E+01
310	  0.081923850	-6.358000E+00	  0.081923850	1.332570E+02	  0.081923850	2.033200E+01	  0.081923850	1.852700E+01
311	  0.082124248	-6.377000E+00	  0.082124248	1.324860E+02	  0.082124248	2.048700E+01	  0.082124248	1.883700E+01
312	  0.082324654	-6.396000E+00	  0.082324654	1.316620E+02	  0.082324654	2.065200E+01	  0.082324654	1.917100E+01
313	  0.082525052	-6.417000E+00	  0.082525052	1.308780E+02	  0.082525052	2.082100E+01	  0.082525052	1.948600E+01
314	  0.082725458	-6.437000E+00	  0.082725458	1.301160E+02	  0.082725458	2.098700E+01	  0.082725458	1.979300E+01
315	  0.082925856	-6.457000E+00	  0.082925856	1.293200E+02	  0.082925856	2.116200E+01	  0.082925856	2.011400E+01
316	  0.083126254	-6.484000E+00	  0.083126254	1.285230E+02	  0.083126254	2.135600E+01	  0.083126254	2.043000E+01
317	  0.083326660	-6.506000E+00	  0.083326660	1.277410E+02	  0.083326660	2.154100E+01	  0.083326660	2.074400E+01
318	  0.083527058	-6.525000E+00	  0.083527058	1.269290E+02	  0.083527058	2.172300E+01	  0.083527058	2.107400E+01
319	  0.083727457	-6.549000E+00	  0.083727457	1.261420E+02	  0.083727457	2.191900E+01	  0.083727457	2.138800E+01
320	  0.083927862	-6.570000E+00	  0.083927862	1.253610E+02	  0.083927862	2.210700E+01	  0.083927862	2.170300E+01
321	  0.084128261	-6.590000E+00	  0.084128261	1.246080E+02	  0.084128261	2.229100E+01	  0.084128261	2.200800E+01
322	  0.084328659	-6.616000E+00	  0.084328659	1.238330E+02	  0.084328659	2.250000E+01	  0.084328659	2.231500E+01
323	  0.084529065	-6.637000E+00	  0.084529065	1.231210E+02	  0.084529065	2.268600E+01	  0.084529065	2.260000E+01
324	  0.084729463	-6.660000E+00	  0.084729463	1.224010E+02	  0.084729463	2.288300E+01	  0.084729463	2.288600E+01
325	  0.084929861	-6.689000E+00	  0.084929861	1.216540E+02	  0.084929861	2.310500E+01	  0.084929861	2.317700E+01
326	  0.085130267	-6.707000E+00	  0.085130267	1.208820E+02	  0.085130267	2.330400E+01	  0.085130267	2.349200E+01
327	  0.085330658	-6.737000E+00	  0.085330658	1.201960E+02	  0.085330658	2.352100E+01	  0.085330658	2.375500E+01
328	  0.085531056	-6.765000E+00	  0.085531056	1.194880E+02	  0.085531056	2.374200E+01	  0.085531056	2.402900E+01
329	  0.085731462	-6.793000E+00	  0.085731462	1.187840E+02	  0.085731462	2.396500E+01	  0.085731462	2.430100E+01
330	  0.085931860	-6.822000E+00	  0.085931860	1.180850E+02	  0.085931860	2.419300E+01	  0.085931860	2.456800E+01
331	  0.086132258	-6.848000E+00	  0.086132258	1.173950E+02	  0.086132258	2.441200E+01	  0.086132258	2.483600E+01
332	  0.086332664	-6.881000E+00	  0.086332664	1.167380E+02	  0.086332664	2.464800E+01	  0.086332664	2.507900E+01
333	  0.086533062	-6.912000E+00	  0.086533062	1.160690E+02	  0.086533062	2.488400E+01	  0.086533062	2.532900E+01
334	  0.086733460	-6.942000E+00	  0.086733460	1.153850E+02	  0.086733460	2.512400E+01	  0.086733460	2.558600E+01
335	  0.086933866	-6.964000E+00	  0.086933866	1.147140E+02	  0.086933866	2.534000E+01	  0.086933866	2.584800E+01
336	  0.087134264	-6.989000E+00	  0.087134264	1.140340E+02	  0.087134264	2.557000E+01	  0.087134264	2.611000E+01
337	  0.087334670	-7.014000E+00	  0.087334670	1.133510E+02	  0.087334670	2.580200E+01	  0.087334670	2.637300E+01
338	  0.087535068	-7.038000E+00	  0.087535068	1.127060E+02	  0.087535068	2.602800E+01	  0.087535068	2.661900E+01
339	  0.087735467	-7.056000E+00	  0.087735467	1.120880E+02	  0.087735467	2.623100E+01	  0.087735467	2.686400E+01
340	  0.087935872	-7.078000E+00	  0.087935872	1.114120E+02	  0.087935872	2.646300E+01	  0.087935872	2.712700E+01
341	  0.088136271	-7.094000E+00	  0.088136271	1.107690E+02	  0.088136271	2.667400E+01	  0.088136271	2.738400E+01
342	  0.088336669	-7.116000E+00	  0.088336669	1.101380E+02	  0.088336669	2.689800E+01	  0.088336669	2.762700E+01
343	  0.088537075	-7.130000E+00	  0.088537075	1.094770E+02	  0.088537075	2.711200E+01	  0.088537075	2.789700E+01
344	  0.088737473	-7.141000E+00	  0.088737473	1.088010E+02	  0.088737473	2.732500E+01	  0.088737473	2.817700E+01
345	  0.088937871	-7.155000E+00	  0.088937871	1.081760E+02	  0.088937871	2.753500E+01	  0.088937871	2.843000E+01
346	  0.089138277	-7.166000E+00	  0.089138277	1.074860E+02	  0.089138277	2.775700E+01	  0.089138277	2.871800E+01
347	  0.089338675	-7.186000E+00	  0.089338675	1.068720E+02	  0.089338675	2.798900E+01	  0.089338675	2.895400E+01
348	  0.089539073	-7.203000E+00	  0.089539073	1.061850E+02	  0.089539073	2.823500E+01	  0.089539073	2.922900E+01
349	  0.089739479	-7.235000E+00	  0.089739479	1.055460E+02	  0.089739479	2.851400E+01	  0.089739479	2.945300E+01
350	  0.089939877	-7.251000E+00	  0.089939877	1.048410E+02	  0.089939877	2.877200E+01	  0.089939877	2.973500E+01
351	  0.090140276	-7.277000E+00	  0.090140276	1.041760E+02	  0.090140276	2.904700E+01	  0.090140276	2.998100E+01
352	  0.090340681	-7.300000E+00	  0.090340681	1.034840E+02	  0.090340681	2.932900E+01	  0.090340681	3.024200E+01
353	  0.090541080	-7.325000E+00	  0.090541080	1.028100E+02	  0.090541080	2.961100E+01	  0.090541080	3.049200E+01
354	  0.090741485	-7.358000E+00	  0.090741485	1.021420E+02	  0.090741485	2.992100E+01	  0.090741485	3.072000E+01
355	  0.090941884	-7.376000E+00	  0.090941884	1.014920E+02	  0.090941884	3.018500E+01	  0.090941884	3.096900E+01
356	  0.091142282	-7.412000E+00	  0.091142282	1.008300E+02	  0.091142282	3.050600E+01	  0.091142282	3.118700E+01
357	  0.091342688	-7.434000E+00	  0.091342688	1.001710E+02	  0.091342688	3.079200E+01	  0.091342688	3.143000E+01
358	  0.091543086	-7.470000E+00	  0.091543086	9.953700E+01	  0.091543086	3.111300E+01	  0.091543086	3.163000E+01
359	  0.091743484	-7.499000E+00	  0.091743484	9.889700E+01	  0.091743484	3.142000E+01	  0.091743484	3.184600E+01
360	  0.091943890	-7.526000E+00	  0.091943890	9.828000E+01	  0.091943890	3.171600E+01	  0.091943890	3.205400E+01
361	  0.092144288	-7.556000E+00	  0.092144288	9.762200E+01	  0.092144288	3.203900E+01	  0.092144288	3.227300E+01
362	  0.092344686	-7.583000E+00	  0.092344686	9.702100E+01	  0.092344686	3.233500E+01	  0.092344686	3.247300E+01
363	  0.092545092	-7.617000E+00	  0.092545092	9.642700E+01	  0.092545092	3.265400E+01	  0.092545092	3.264800E+01
364	  0.092745490	-7.649000E+00	  0.092745490	9.581700E+01	  0.092745490	3.297300E+01	  0.092745490	3.283500E+01
365	  0.092945889	-7.688000E+00	  0.092945889	9.522000E+01	  0.092945889	3.331100E+01	  0.092945889	3.299800E+01
366	  0.093146294	-7.721000E+00	  0.093146294	9.463700E+01	  0.093146294	3.363300E+01	  0.093146294	3.316300E+01
367	  0.093346693	-7.759000E+00	  0.093346693	9.405900E+01	  0.093346693	3.396600E+01	  0.093346693	3.331300E+01
368	  0.093547091	-7.787000E+00	  0.093547091	9.344100E+01	  0.093547091	3.429000E+01	  0.093547091	3.350500E+01
369	  0.093747497	-7.827000E+00	  0.093747497	9.286100E+01	  0.093747497	3.463700E+01	  0.093747497	3.364500E+01
370	  0.093947895	-7.855000E+00	  0.093947895	9.225300E+01	  0.093947895	3.496600E+01	  0.093947895	3.382600E+01
371	  0.094148301	-7.898000E+00	  0.094148301	9.170600E+01	  0.094148301	3.531200E+01	  0.094148301	3.394000E+01
372	  0.094348699	-7.926000E+00	  0.094348699	9.109100E+01	  0.094348699	3.564800E+01	  0.094348699	3.412000E+01
373	  0.094549097	-7.963000E+00	  0.094549097	9.052100E+01	  0.094549097	3.599400E+01	  0.094549097	3.425100E+01
374	  0.094749503	-7.999000E+00	  0.094749503	8.994700E+01	  0.094749503	3.634200E+01	  0.094749503	3.438600E+01
375	  0.094949901	-8.027000E+00	  0.094949901	8.941500E+01	  0.094949901	3.665000E+01	  0.094949901	3.452400E+01
376	  0.095150299	-8.056000E+00	  0.095150299	8.885300E+01	  0.095150299	3.697700E+01	  0.095150299	3.467000E+01
377	  0.095350705	-8.087000E+00	  0.095350705	8.830800E+01	  0.095350705	3.730700E+01	  0.095350705	3.479800E+01
378	  0.095551103	-8.112000E+00	  0.095551103	8.778600E+01	  0.095551103	3.761000E+01	  0.095551103	3.493400E+01
379	  0.095751502	-8.146000E+00	  0.095751502	8.725100E+01	  0.095751502	3.794800E+01	  0.095751502	3.504400E+01
380	  0.095951907	-8.177000E+00	  0.095951907	8.675100E+01	  0.095951907	3.826300E+01	  0.095951907	3.514800E+01
381	  0.096152306	-8.207000E+00	  0.096152306	8.625600E+01	  0.096152306	3.857400E+01	  0.096152306	3.525100E+01
382	  0.096352704	-8.241000E+00	  0.096352704	8.577500E+01	  0.096352704	3.889100E+01	  0.096352704	3.533300E+01
383	  0.096553110	-8.272000E+00	  0.096553110	8.529200E+01	  0.096553110	3.920400E+01	  0.096553110	3.542100E+01
384	  0.096753508	-8.296000E+00	  0.096753508	8.480600E+01	  0.096753508	3.950100E+01	  0.096753508	3.553200E+01
385	  0.096953906	-8.336000E+00	  0.096953906	8.436400E+01	  0.096953906	3.982100E+01	  0.096953906	3.557000E+01
386	  0.097154312	-8.361000E+00	  0.097154312	8.390700E+01	  0.097154312	4.010900E+01	  0.097154312	3.566300E+01
387	  0.097354710	-8.391000E+00	  0.097354710	8.345100E+01	  0.097354710	4.041300E+01	  0.097354710	3.573400E+01
388	  0.097555116	-8.421000E+00	  0.097555116	8.298200E+01	  0.097555116	4.072400E+01	  0.097555116	3.580800E+01
389	  0.097755514	-8.455000E+00	  0.097755514	8.254100E+01	  0.097755514	4.103200E+01	  0.097755514	3.585800E+01
390	  0.097955912	-8.483000E+00	  0.097955912	8.212800E+01	  0.097955912	4.131300E+01	  0.097955912	3.591100E+01
391	  0.098156318	-8.512000E+00	  0.098156318	8.166900E+01	  0.098156318	4.162000E+01	  0.098156318	3.597900E+01
392	  0.098356716	-8.538000E+00	  0.098356716	8.126800E+01	  0.098356716	4.189300E+01	  0.098356716	3.603200E+01
393	  0.098557115	-8.564000E+00	  0.098557115	8.087100E+01	  0.098557115	4.216400E+01	  0.098557115	3.608100E+01
394	  0.098757520	-8.590000E+00	  0.098757520	8.047200E+01	  0.098757520	4.243700E+01	  0.098757520	3.613100E+01
395	  0.098957919	-8.617000E+00	  0.098957919	8.004300E+01	  0.098957919	4.273100E+01	  0.098957919	3.618300E+01
396	  0.099158317	-8.644000E+00	  0.099158317	7.968500E+01	  0.099158317	4.298400E+01	  0.099158317	3.621200E+01
397	  0.099358723	-8.669000E+00	  0.099358723	7.926200E+01	  0.099358723	4.327100E+01	  0.099358723	3.626600E+01
398	  0.099559121	-8.695000E+00	  0.099559121	7.887600E+01	  0.099559121	4.354100E+01	  0.099559121	3.630300E+01
399	  0.099759519	-8.721000E+00	  0.099759519	7.853200E+01	  0.099759519	4.378900E+01	  0.099759519	3.632200E+01
400	  0.099959925	-8.743000E+00	  0.099959925	7.818100E+01	  0.099959925	4.403200E+01	  0.099959925	3.635800E+01
401	  0.100160323	-8.769000E+00	  0.100160323	7.779800E+01	  0.100160323	4.430300E+01	  0.100160323	3.638700E+01
402	  0.100360721	-8.793000E+00	  0.100360721	7.747600E+01	  0.100360721	4.453700E+01	  0.100360721	3.640000E+01
403	  0.100561127	-8.815000E+00	  0.100561127	7.706100E+01	  0.100561127	4.481800E+01	  0.100561127	3.645200E+01
404	  0.100761525	-8.830000E+00	  0.100761525	7.668200E+01	  0.100761525	4.506800E+01	  0.100761525	3.651200E+01
405	  0.100961931	-8.854000E+00	  0.100961931	7.631900E+01	  0.100961931	4.532600E+01	  0.100961931	3.653400E+01
406	  0.101162329	-8.869000E+00	  0.101162329	7.599800E+01	  0.101162329	4.554100E+01	  0.101162329	3.657900E+01
407	  0.101362728	-8.891000E+00	  0.101362728	7.564900E+01	  0.101362728	4.579000E+01	  0.101362728	3.660000E+01
408	  0.101563133	-8.902000E+00	  0.101563133	7.531000E+01	  0.101563133	4.601200E+01	  0.101563133	3.665900E+01
409	  0.101763532	-8.922000E+00	  0.101763532	7.492100E+01	  0.101763532	4.627900E+01	  0.101763532	3.670000E+01
410	  0.101963930	-8.928000E+00	  0.101963930	7.461100E+01	  0.101963930	4.647700E+01	  0.101963930	3.676700E+01
411	  0.102164336	-8.950000E+00	  0.102164336	7.421500E+01	  0.102164336	4.675600E+01	  0.102164336	3.679600E+01
412	  0.102364734	-8.958000E+00	  0.102364734	7.386000E+01	  0.102364734	4.698600E+01	  0.102364734	3.686500E+01
413	  0.102565132	-8.967000E+00	  0.102565132	7.348500E+01	  0.102565132	4.722900E+01	  0.102565132	3.694000E+01
414	  0.102765530	-8.970000E+00	  0.102765530	7.318500E+01	  0.102765530	4.741800E+01	  0.102765530	3.701300E+01
415	  0.102965929	-8.969000E+00	  0.102965929	7.288000E+01	  0.102965929	4.760500E+01	  0.102965929	3.710100E+01
416	  0.103166327	-8.977000E+00	  0.103166327	7.250400E+01	  0.103166327	4.785100E+01	  0.103166327	3.717600E+01
417	  0.103366733	-8.982000E+00	  0.103366733	7.217300E+01	  0.103366733	4.806700E+01	  0.103366733	3.724500E+01
418	  0.103567131	-8.973000E+00	  0.103567131	7.184000E+01	  0.103567131	4.826000E+01	  0.103567131	3.737200E+01
419	  0.103767529	-8.990000E+00	  0.103767529	7.151700E+01	  0.103767529	4.849400E+01	  0.103767529	3.739100E+01
420	  0.103967935	-8.983000E+00	  0.103967935	7.112800E+01	  0.103967935	4.872900E+01	  0.103967935	3.752500E+01
421	  0.104168333	-8.988000E+00	  0.104168333	7.076800E+01	  0.104168333	4.896900E+01	  0.104168333	3.759800E+01
422	  0.104368731	-8.983000E+00	  0.104368731	7.043500E+01	  0.104368731	4.917500E+01	  0.104368731	3.770800E+01
423	  0.104569137	-8.979000E+00	  0.104569137	7.010200E+01	  0.104569137	4.938400E+01	  0.104569137	3.781200E+01
424	  0.104769535	-8.977000E+00	  0.104769535	6.975700E+01	  0.104769535	4.960700E+01	  0.104769535	3.790900E+01
425	  0.104969934	-8.969000E+00	  0.104969934	6.942500E+01	  0.104969934	4.981100E+01	  0.104969934	3.803000E+01
426	  0.105170339	-8.965000E+00	  0.105170339	6.898200E+01	  0.105170339	5.009800E+01	  0.105170339	3.816300E+01
427	  0.105370738	-8.956000E+00	  0.105370738	6.865700E+01	  0.105370738	5.030100E+01	  0.105370738	3.828300E+01
428	  0.105571143	-8.952000E+00	  0.105571143	6.825900E+01	  0.105571143	5.056300E+01	  0.105571143	3.840100E+01
429	  0.105771542	-8.935000E+00	  0.105771542	6.784300E+01	  0.105771542	5.082000E+01	  0.105771542	3.857700E+01
430	  0.105971940	-8.917000E+00	  0.105971940	6.739200E+01	  0.105971940	5.110000E+01	  0.105971940	3.877100E+01
431	  0.106172346	-8.908000E+00	  0.106172346	6.696100E+01	  0.106172346	5.138600E+01	  0.106172346	3.891500E+01
432	  0.106372744	-8.895000E+00	  0.106372744	6.661600E+01	  0.106372744	5.160600E+01	  0.106372744	3.905800E+01
433	  0.106573142	-8.887000E+00	  0.106573142	6.614500E+01	  0.106573142	5.192800E+01	  0.106573142	3.920400E+01
434	  0.106773548	-8.873000E+00	  0.106773548	6.573400E+01	  0.106773548	5.220000E+01	  0.106773548	3.936600E+01
435	  0.106973946	-8.854000E+00	  0.106973946	6.527000E+01	  0.106973946	5.250500E+01	  0.106973946	3.956700E+01
436	  0.107174344	-8.844000E+00	  0.107174344	6.482600E+01	  0.107174344	5.281400E+01	  0.107174344	3.971300E+01
437	  0.107374750	-8.823000E+00	  0.107374750	6.430200E+01	  0.107374750	5.316900E+01	  0.107374750	3.993100E+01
438	  0.107575148	-8.809000E+00	  0.107575148	6.379500E+01	  0.107575148	5.352700E+01	  0.107575148	4.011000E+01
439	  0.107775547	-8.786000E+00	  0.107775547	6.328800E+01	  0.107775547	5.387600E+01	  0.107775547	4.033500E+01
440	  0.107975952	-8.770000E+00	  0.107975952	6.279300E+01	  0.107975952	5.423100E+01	  0.107975952	4.052200E+01
441	  0.108176351	-8.748000E+00	  0.108176351	6.227500E+01	  0.108176351	5.460200E+01	  0.108176351	4.073800E+01
442	  0.108376749	-8.728000E+00	  0.108376749	6.176500E+01	  0.108376749	5.497200E+01	  0.108376749	4.094900E+01
443	  0.108577155	-8.718000E+00	  0.108577155	6.120400E+01	  0.108577155	5.540200E+01	  0.108577155	4.111300E+01
444	  0.108777553	-8.697000E+00	  0.108777553	6.062100E+01	  0.108777553	5.584300E+01	  0.108777553	4.133500E+01
445	  0.108977959	-8.682000E+00	  0.108977959	6.008300E+01	  0.108977959	5.626000E+01	  0.108977959	4.151500E+01
446	  0.109178357	-8.653000E+00	  0.109178357	5.946700E+01	  0.109178357	5.673200E+01	  0.109178357	4.178400E+01
447	  0.109378755	-8.631000E+00	  0.109378755	5.892200E+01	  0.109378755	5.716000E+01	  0.109378755	4.200400E+01
448	  0.109579161	-8.608000E+00	  0.109579161	5.836900E+01	  0.109579161	5.760100E+01	  0.109579161	4.222200E+01
449	  0.109779559	-8.588000E+00	  0.109779559	5.774000E+01	  0.109779559	5.811600E+01	  0.109779559	4.244000E+01
450	  0.109979957	-8.574000E+00	  0.109979957	5.713100E+01	  0.109979957	5.862900E+01	  0.109979957	4.261900E+01
451	  0.110180363	-8.558000E+00	  0.110180363	5.657700E+01	  0.110180363	5.910100E+01	  0.110180363	4.279000E+01
452	  0.110380761	-8.534000E+00	  0.110380761	5.591000E+01	  0.110380761	5.967000E+01	  0.110380761	4.302900E+01
453	  0.110581160	-8.510000E+00	  0.110581160	5.524900E+01	  0.110581160	6.024600E+01	  0.110581160	4.326100E+01
454	  0.110781565	-8.501000E+00	  0.110781565	5.462600E+01	  0.110781565	6.080900E+01	  0.110781565	4.339200E+01
455	  0.110981964	-8.482000E+00	  0.110981964	5.399200E+01	  0.110981964	6.138300E+01	  0.110981964	4.357800E+01
456	  0.111182362	-8.460000E+00	  0.111182362	5.328400E+01	  0.111182362	6.203400E+01	  0.111182362	4.379000E+01
457	  0.111382768	-8.452000E+00	  0.111382768	5.264200E+01	  0.111382768	6.264200E+01	  0.111382768	4.389900E+01
458	  0.111583166	-8.446000E+00	  0.111583166	5.200300E+01	  0.111583166	6.325500E+01	  0.111583166	4.399400E+01
459	  0.111783572	-8.434000E+00	  0.111783572	5.127100E+01	  0.111783572	6.396500E+01	  0.111783572	4.412200E+01
460	  0.111983970	-8.418000E+00	  0.111983970	5.056900E+01	  0.111983970	6.465600E+01	  0.111983970	4.426300E+01
461	  0.112184368	-8.412000E+00	  0.112184368	4.985700E+01	  0.112184368	6.537000E+01	  0.112184368	4.433100E+01
462	  0.112384774	-8.402000E+00	  0.112384774	4.910900E+01	  0.112384774	6.613100E+01	  0.112384774	4.441700E+01
463	  0.112585172	-8.403000E+00	  0.112585172	4.837900E+01	  0.112585172	6.688300E+01	  0.112585172	4.441500E+01
464	  0.112785570	-8.393000E+00	  0.112785570	4.755400E+01	  0.112785570	6.774600E+01	  0.112785570	4.448200E+01
465	  0.112985976	-8.390000E+00	  0.112985976	4.680600E+01	  0.112985976	6.853800E+01	  0.112985976	4.447900E+01
466	  0.113186374	-8.387000E+00	  0.113186374	4.603300E+01	  0.113186374	6.936600E+01	  0.113186374	4.446500E+01
467	  0.113386773	-8.391000E+00	  0.113386773	4.520400E+01	  0.113386773	7.026200E+01	  0.113386773	4.437800E+01
468	  0.113587178	-8.387000E+00	  0.113587178	4.442600E+01	  0.113587178	7.111600E+01	  0.113587178	4.433300E+01
469	  0.113787577	-8.395000E+00	  0.113787577	4.356000E+01	  0.113787577	7.206800E+01	  0.113787577	4.417700E+01
470	  0.113987975	-8.396000E+00	  0.113987975	4.271200E+01	  0.113987975	7.301300E+01	  0.113987975	4.404500E+01
471	  0.114188381	-8.389000E+00	  0.114188381	4.184600E+01	  0.114188381	7.399900E+01	  0.114188381	4.395000E+01
472	  0.114388779	-8.394000E+00	  0.114388779	4.099000E+01	  0.114388779	7.496900E+01	  0.114388779	4.374600E+01
473	  0.114589177	-8.407000E+00	  0.114589177	4.011700E+01	  0.114589177	7.595200E+01	  0.114589177	4.344900E+01
474	  0.114789583	-8.410000E+00	  0.114789583	3.922400E+01	  0.114789583	7.698000E+01	  0.114789583	4.319900E+01
475	  0.114989981	-8.421000E+00	  0.114989981	3.838300E+01	  0.114989981	7.793700E+01	  0.114989981	4.287100E+01
476	  0.115190387	-8.425000E+00	  0.115190387	3.742700E+01	  0.115190387	7.904800E+01	  0.115190387	4.253300E+01
477	  0.115390785	-8.439000E+00	  0.115390785	3.650100E+01	  0.115390785	8.010400E+01	  0.115390785	4.209700E+01
478	  0.115591183	-8.449000E+00	  0.115591183	3.552000E+01	  0.115591183	8.123500E+01	  0.115591183	4.163500E+01
479	  0.115791589	-8.455000E+00	  0.115791589	3.461900E+01	  0.115791589	8.228100E+01	  0.115791589	4.119400E+01
480	  0.115991987	-8.469000E+00	  0.115991987	3.369900E+01	  0.115991987	8.332700E+01	  0.115991987	4.065900E+01
481	  0.116192386	-8.485000E+00	  0.116192386	3.271600E+01	  0.116192386	8.443500E+01	  0.116192386	4.003300E+01
482	  0.116392791	-8.509000E+00	  0.116392791	3.178200E+01	  0.116392791	8.544700E+01	  0.116392791	3.933800E+01
483	  0.116593190	-8.518000E+00	  0.116593190	3.077500E+01	  0.116593190	8.659100E+01	  0.116593190	3.867200E+01
484	  0.116793588	-8.535000E+00	  0.116793588	2.985800E+01	  0.116793588	8.759000E+01	  0.116793588	3.796400E+01
485	  0.116993994	-8.558000E+00	  0.116993994	2.880700E+01	  0.116993994	8.870100E+01	  0.116993994	3.707900E+01
486	  0.117194392	-8.584000E+00	  0.117194392	2.778500E+01	  0.117194392	8.974500E+01	  0.117194392	3.615300E+01
487	  0.117394790	-8.607000E+00	  0.117394790	2.675200E+01	  0.117394790	9.078600E+01	  0.117394790	3.518700E+01
488	  0.117595196	-8.632000E+00	  0.117595196	2.568800E+01	  0.117595196	9.182800E+01	  0.117595196	3.414400E+01
489	  0.117795594	-8.664000E+00	  0.117795594	2.462300E+01	  0.117795594	9.280300E+01	  0.117795594	3.301000E+01
490	  0.117995992	-8.703000E+00	  0.117995992	2.359600E+01	  0.117995992	9.365400E+01	  0.117995992	3.181400E+01
491	  0.118196398	-8.735000E+00	  0.118196398	2.254500E+01	  0.118196398	9.453400E+01	  0.118196398	3.061200E+01
492	  0.118396796	-8.777000E+00	  0.118396796	2.135200E+01	  0.118396796	9.544100E+01	  0.118396796	2.916300E+01
493	  0.118597202	-8.821000E+00	  0.118597202	2.022800E+01	  0.118597202	9.621500E+01	  0.118597202	2.773400E+01
494	  0.118797600	-8.867000E+00	  0.118797600	1.906900E+01	  0.118797600	9.694800E+01	  0.118797600	2.622600E+01
495	  0.118997999	-8.921000E+00	  0.118997999	1.786400E+01	  0.118997999	9.759200E+01	  0.118997999	2.458800E+01
496	  0.119198404	-8.972000E+00	  0.119198404	1.666800E+01	  0.119198404	9.818100E+01	  0.119198404	2.295400E+01
497	  0.119398803	-9.031000E+00	  0.119398803	1.541100E+01	  0.119398803	9.868300E+01	  0.119398803	2.119100E+01
498	  0.119599201	-9.103000E+00	  0.119599201	1.418200E+01	  0.119599201	9.897700E+01	  0.119599201	1.938900E+01
499	  0.119799607	-9.172000E+00	  0.119799607	1.293100E+01	  0.119799607	9.922100E+01	  0.119799607	1.757300E+01
500	  0.120000005	-9.239000E+00	  0.120000005	1.160000E+01	  0.120000005	9.944000E+01	  0.120000005	1.567100E+01
