! Anritsu VNA Master:             	Model: MS2036C/10/77
! SN:             	1601066
! /bd0/18may07/256.ew.m6.txt
! Existing Calibration Information:
! TYPE:             	Current Settings	Active Cal Settings
! TIME:             	05/07/2018 12:10:16 PM	05/07/2018 12:05:13 PM
! INTERNAL TEMP:    	54.0 C	53.5 C
! # POINTS:         	500	500
! START FREQ:       	20.000 MHz	20.000 MHz
! STOP FREQ:        	120.000 MHz	120.000 MHz
! SOURCE POWER:     	High	High
! IFBW:             	50 Hz	50 Hz
! AVG FACTOR:       	  1 	  1 
! REF PLANE 1:      	0 mm	0 mm
! REF PLANE 2:      	0 mm	0 mm
! CAL TYPE:         	Full S11	Full S11
! CAL METHOD:       	SOLT	SOLT
! CAL LINE TYPE:    	Coax	Coax
! DUT PORT 1:       	K-Conn(F)	K-Conn(F)
! DUT PORT 2:       	K-Conn(F)	K-Conn(F)
! CAL STATUS:       	OK: Accuracy High	--
! PROP-V:       	0.700
! CABLE LOSS:       	0.000 dB/m
! REF IMPEDANCE:       	50.0
! Trace Specific Parameters:	TR1	TR2	TR3	TR4
! TRACE.#.Y (GRAPH TYPE)	LOG MAG	PHASE	REAL IMPEDANCE	IMAGINARY IMPEDANCE
! TRACE.#.X 	FREQ.GHZ	FREQ.GHZ	FREQ.GHZ	FREQ.GHZ
! S-PARAMETER	S11	S11	S11	S11
! SMOOTH/APERTURE %	0	0	0	0
! WINDOW	NSL	NSL	NSL	NSL
! GATING	OFF	OFF	OFF	OFF
! FGTD	OFF	OFF	OFF	OFF
Marker Information per Trace:	TR1	TR2	TR3	TR4
!MK1	--	"MK1 TR2:  20.000 MHz,PH:-125.81°"	--	--
!MK2	--	--	"MK2 TR3:  70.100 200 MHz,Z:(16.336 ohm, -2.896 ohm)"	--
!MK3	--	--	--	--
!MK4	--	--	--	--
!MK5	--	--	--	--
!MK6	--	--	--	--
!MK7	--	--	--	--
!MK8	--	--	--	--
PNT	TR1.FREQ.GHZ	TR1.LOG MAG.dB	TR2.FREQ.GHZ	TR2.PHASE.deg	TR3.FREQ.GHZ	TR3.REAL IMPEDANCE.ohm	TR4.FREQ.GHZ	TR4.IMAGINARY IMPEDANCE.ohm
1	  0.020000000	-6.230000E-01	  0.020000000	-1.258090E+02	  0.020000000	2.261000E+00	  0.020000000	-2.553900E+01
2	  0.020200402	-6.210000E-01	  0.020200402	-1.272750E+02	  0.020200402	2.227000E+00	  0.020200402	-2.473900E+01
3	  0.020400802	-6.230000E-01	  0.020400802	-1.287290E+02	  0.020400802	2.205000E+00	  0.020400802	-2.395600E+01
4	  0.020601204	-6.240000E-01	  0.020601204	-1.302000E+02	  0.020601204	2.181000E+00	  0.020601204	-2.317200E+01
5	  0.020801604	-6.280000E-01	  0.020801604	-1.316980E+02	  0.020801604	2.171000E+00	  0.020801604	-2.238300E+01
6	  0.021002004	-6.350000E-01	  0.021002004	-1.332210E+02	  0.021002004	2.168000E+00	  0.021002004	-2.159100E+01
7	  0.021202406	-6.410000E-01	  0.021202406	-1.347460E+02	  0.021202406	2.164000E+00	  0.021202406	-2.080600E+01
8	  0.021402806	-6.480000E-01	  0.021402806	-1.362840E+02	  0.021402806	2.164000E+00	  0.021402806	-2.002400E+01
9	  0.021603208	-6.520000E-01	  0.021603208	-1.378180E+02	  0.021603208	2.157000E+00	  0.021603208	-1.925200E+01
10	  0.021803608	-6.580000E-01	  0.021803608	-1.393690E+02	  0.021803608	2.152000E+00	  0.021803608	-1.848000E+01
11	  0.022004008	-6.630000E-01	  0.022004008	-1.409000E+02	  0.022004008	2.149000E+00	  0.022004008	-1.772500E+01
12	  0.022204408	-6.690000E-01	  0.022204408	-1.424530E+02	  0.022204408	2.147000E+00	  0.022204408	-1.696700E+01
13	  0.022404809	-6.740000E-01	  0.022404809	-1.440310E+02	  0.022404809	2.143000E+00	  0.022404809	-1.620300E+01
14	  0.022605211	-6.800000E-01	  0.022605211	-1.456200E+02	  0.022605211	2.144000E+00	  0.022605211	-1.544100E+01
15	  0.022805611	-6.860000E-01	  0.022805611	-1.472180E+02	  0.022805611	2.145000E+00	  0.022805611	-1.468200E+01
16	  0.023006011	-6.900000E-01	  0.023006011	-1.488110E+02	  0.023006011	2.141000E+00	  0.023006011	-1.393100E+01
17	  0.023206413	-6.920000E-01	  0.023206413	-1.503920E+02	  0.023206413	2.129000E+00	  0.023206413	-1.319100E+01
18	  0.023406813	-6.940000E-01	  0.023406813	-1.519790E+02	  0.023406813	2.121000E+00	  0.023406813	-1.245400E+01
19	  0.023607215	-6.970000E-01	  0.023607215	-1.535720E+02	  0.023607215	2.117000E+00	  0.023607215	-1.171900E+01
20	  0.023807615	-7.060000E-01	  0.023807615	-1.551770E+02	  0.023807615	2.129000E+00	  0.023807615	-1.098400E+01
21	  0.024008015	-7.160000E-01	  0.024008015	-1.567880E+02	  0.024008015	2.146000E+00	  0.024008015	-1.025000E+01
22	  0.024208417	-7.260000E-01	  0.024208417	-1.584210E+02	  0.024208417	2.165000E+00	  0.024208417	-9.511000E+00
23	  0.024408817	-7.350000E-01	  0.024408817	-1.600670E+02	  0.024408817	2.180000E+00	  0.024408817	-8.769000E+00
24	  0.024609219	-7.440000E-01	  0.024609219	-1.617100E+02	  0.024609219	2.197000E+00	  0.024609219	-8.033000E+00
25	  0.024809619	-7.550000E-01	  0.024809619	-1.633580E+02	  0.024809619	2.219000E+00	  0.024809619	-7.298000E+00
26	  0.025010020	-7.660000E-01	  0.025010020	-1.650050E+02	  0.025010020	2.242000E+00	  0.025010020	-6.567000E+00
27	  0.025210422	-7.800000E-01	  0.025210422	-1.666680E+02	  0.025210422	2.274000E+00	  0.025210422	-5.831000E+00
28	  0.025410822	-7.930000E-01	  0.025410822	-1.683540E+02	  0.025410822	2.306000E+00	  0.025410822	-5.087000E+00
29	  0.025611224	-8.070000E-01	  0.025611224	-1.700410E+02	  0.025611224	2.341000E+00	  0.025611224	-4.346000E+00
30	  0.025811624	-8.210000E-01	  0.025811624	-1.717560E+02	  0.025811624	2.374000E+00	  0.025811624	-3.595000E+00
31	  0.026012026	-8.340000E-01	  0.026012026	-1.734770E+02	  0.026012026	2.407000E+00	  0.026012026	-2.842000E+00
32	  0.026212426	-8.430000E-01	  0.026212426	-1.752030E+02	  0.026212426	2.429000E+00	  0.026212426	-2.089000E+00
33	  0.026412826	-8.570000E-01	  0.026412826	-1.769270E+02	  0.026412826	2.467000E+00	  0.026412826	-1.337000E+00
34	  0.026613226	-8.730000E-01	  0.026613226	-1.786820E+02	  0.026613226	2.513000E+00	  0.026613226	-5.730000E-01
35	  0.026813626	-8.890000E-01	  0.026813626	1.795530E+02	  0.026813626	2.557000E+00	  0.026813626	1.940000E-01
36	  0.027014028	-9.070000E-01	  0.027014028	1.777820E+02	  0.027014028	2.609000E+00	  0.027014028	9.650000E-01
37	  0.027214428	-9.240000E-01	  0.027214428	1.759970E+02	  0.027214428	2.661000E+00	  0.027214428	1.742000E+00
38	  0.027414829	-9.420000E-01	  0.027414829	1.742030E+02	  0.027414829	2.718000E+00	  0.027414829	2.523000E+00
39	  0.027615231	-9.590000E-01	  0.027615231	1.724040E+02	  0.027615231	2.770000E+00	  0.027615231	3.308000E+00
40	  0.027815631	-9.800000E-01	  0.027815631	1.705880E+02	  0.027815631	2.837000E+00	  0.027815631	4.102000E+00
41	  0.028016033	-1.000000E+00	  0.028016033	1.687580E+02	  0.028016033	2.904000E+00	  0.028016033	4.904000E+00
42	  0.028216433	-1.023000E+00	  0.028216433	1.669200E+02	  0.028216433	2.980000E+00	  0.028216433	5.711000E+00
43	  0.028416833	-1.045000E+00	  0.028416833	1.650870E+02	  0.028416833	3.058000E+00	  0.028416833	6.519000E+00
44	  0.028617235	-1.066000E+00	  0.028617235	1.632550E+02	  0.028617235	3.131000E+00	  0.028617235	7.330000E+00
45	  0.028817635	-1.086000E+00	  0.028817635	1.614140E+02	  0.028817635	3.205000E+00	  0.028817635	8.148000E+00
46	  0.029018037	-1.108000E+00	  0.029018037	1.596010E+02	  0.029018037	3.289000E+00	  0.029018037	8.957000E+00
47	  0.029218437	-1.128000E+00	  0.029218437	1.577780E+02	  0.029218437	3.368000E+00	  0.029218437	9.776000E+00
48	  0.029418837	-1.152000E+00	  0.029418837	1.559640E+02	  0.029418837	3.461000E+00	  0.029418837	1.059500E+01
49	  0.029619239	-1.179000E+00	  0.029619239	1.541250E+02	  0.029619239	3.566000E+00	  0.029619239	1.143000E+01
50	  0.029819639	-1.208000E+00	  0.029819639	1.522580E+02	  0.029819639	3.682000E+00	  0.029819639	1.228300E+01
51	  0.030020041	-1.239000E+00	  0.030020041	1.503720E+02	  0.030020041	3.809000E+00	  0.030020041	1.315100E+01
52	  0.030220442	-1.269000E+00	  0.030220442	1.484710E+02	  0.030220442	3.936000E+00	  0.030220442	1.403300E+01
53	  0.030420844	-1.299000E+00	  0.030420844	1.465530E+02	  0.030420844	4.068000E+00	  0.030420844	1.493100E+01
54	  0.030621244	-1.329000E+00	  0.030621244	1.446560E+02	  0.030621244	4.205000E+00	  0.030621244	1.582700E+01
55	  0.030821644	-1.362000E+00	  0.030821644	1.427570E+02	  0.030821644	4.353000E+00	  0.030821644	1.673200E+01
56	  0.031022044	-1.396000E+00	  0.031022044	1.408450E+02	  0.031022044	4.512000E+00	  0.031022044	1.765200E+01
57	  0.031222444	-1.427000E+00	  0.031222444	1.389310E+02	  0.031222444	4.671000E+00	  0.031222444	1.858400E+01
58	  0.031422846	-1.464000E+00	  0.031422846	1.369700E+02	  0.031422846	4.853000E+00	  0.031422846	1.954900E+01
59	  0.031623244	-1.501000E+00	  0.031623244	1.349830E+02	  0.031623244	5.045000E+00	  0.031623244	2.053800E+01
60	  0.031823646	-1.537000E+00	  0.031823646	1.329830E+02	  0.031823646	5.242000E+00	  0.031823646	2.154700E+01
61	  0.032024048	-1.572000E+00	  0.032024048	1.309870E+02	  0.032024048	5.442000E+00	  0.032024048	2.256900E+01
62	  0.032224450	-1.608000E+00	  0.032224450	1.289880E+02	  0.032224450	5.657000E+00	  0.032224450	2.360500E+01
63	  0.032424849	-1.644000E+00	  0.032424849	1.269760E+02	  0.032424849	5.881000E+00	  0.032424849	2.466400E+01
64	  0.032625251	-1.679000E+00	  0.032625251	1.249990E+02	  0.032625251	6.108000E+00	  0.032625251	2.572200E+01
65	  0.032825653	-1.716000E+00	  0.032825653	1.230030E+02	  0.032825653	6.356000E+00	  0.032825653	2.680500E+01
66	  0.033026051	-1.757000E+00	  0.033026051	1.210200E+02	  0.033026051	6.630000E+00	  0.033026051	2.789800E+01
67	  0.033226453	-1.798000E+00	  0.033226453	1.190190E+02	  0.033226453	6.922000E+00	  0.033226453	2.902000E+01
68	  0.033426855	-1.847000E+00	  0.033426855	1.170390E+02	  0.033426855	7.254000E+00	  0.033426855	3.014500E+01
69	  0.033627257	-1.899000E+00	  0.033627257	1.150170E+02	  0.033627257	7.617000E+00	  0.033627257	3.131400E+01
70	  0.033827655	-1.953000E+00	  0.033827655	1.129870E+02	  0.033827655	8.007000E+00	  0.033827655	3.250800E+01
71	  0.034028057	-2.001000E+00	  0.034028057	1.109240E+02	  0.034028057	8.401000E+00	  0.034028057	3.374900E+01
72	  0.034228459	-2.054000E+00	  0.034228459	1.088180E+02	  0.034228459	8.836000E+00	  0.034228459	3.504000E+01
73	  0.034428857	-2.103000E+00	  0.034428857	1.066950E+02	  0.034428857	9.284000E+00	  0.034428857	3.637100E+01
74	  0.034629259	-2.154000E+00	  0.034629259	1.045600E+02	  0.034629259	9.772000E+00	  0.034629259	3.773800E+01
75	  0.034829661	-2.195000E+00	  0.034829661	1.024260E+02	  0.034829661	1.024000E+01	  0.034829661	3.914700E+01
76	  0.035030060	-2.242000E+00	  0.035030060	1.003140E+02	  0.035030060	1.076300E+01	  0.035030060	4.056800E+01
77	  0.035230462	-2.288000E+00	  0.035230462	9.822100E+01	  0.035230462	1.131100E+01	  0.035230462	4.201200E+01
78	  0.035430863	-2.329000E+00	  0.035430863	9.609800E+01	  0.035430863	1.188100E+01	  0.035430863	4.351800E+01
79	  0.035631265	-2.372000E+00	  0.035631265	9.403600E+01	  0.035631265	1.247900E+01	  0.035631265	4.501700E+01
80	  0.035831664	-2.414000E+00	  0.035831664	9.194700E+01	  0.035831664	1.312000E+01	  0.035831664	4.657700E+01
81	  0.036032066	-2.458000E+00	  0.036032066	8.989200E+01	  0.036032066	1.381000E+01	  0.036032066	4.814800E+01
82	  0.036232468	-2.504000E+00	  0.036232468	8.782800E+01	  0.036232468	1.456100E+01	  0.036232468	4.976600E+01
83	  0.036432866	-2.554000E+00	  0.036432866	8.580000E+01	  0.036432866	1.537200E+01	  0.036432866	5.139000E+01
84	  0.036633268	-2.604000E+00	  0.036633268	8.377000E+01	  0.036633268	1.624700E+01	  0.036633268	5.305800E+01
85	  0.036833670	-2.659000E+00	  0.036833670	8.171900E+01	  0.036833670	1.721700E+01	  0.036833670	5.478000E+01
86	  0.037034072	-2.715000E+00	  0.037034072	7.966900E+01	  0.037034072	1.826400E+01	  0.037034072	5.654200E+01
87	  0.037234470	-2.776000E+00	  0.037234470	7.760700E+01	  0.037234470	1.942600E+01	  0.037234470	5.835000E+01
88	  0.037434869	-2.836000E+00	  0.037434869	7.552800E+01	  0.037434869	2.067100E+01	  0.037434869	6.022400E+01
89	  0.037635271	-2.895000E+00	  0.037635271	7.341200E+01	  0.037635271	2.203200E+01	  0.037635271	6.218400E+01
90	  0.037835669	-2.957000E+00	  0.037835669	7.128400E+01	  0.037835669	2.352700E+01	  0.037835669	6.419800E+01
91	  0.038036071	-3.017000E+00	  0.038036071	6.911600E+01	  0.038036071	2.515600E+01	  0.038036071	6.631000E+01
92	  0.038236473	-3.079000E+00	  0.038236473	6.695600E+01	  0.038236473	2.692800E+01	  0.038236473	6.846100E+01
93	  0.038436871	-3.138000E+00	  0.038436871	6.479700E+01	  0.038436871	2.883800E+01	  0.038436871	7.066900E+01
94	  0.038637273	-3.192000E+00	  0.038637273	6.266900E+01	  0.038637273	3.084800E+01	  0.038637273	7.291600E+01
95	  0.038837675	-3.243000E+00	  0.038837675	6.050800E+01	  0.038837675	3.304500E+01	  0.038837675	7.526400E+01
96	  0.039038073	-3.290000E+00	  0.039038073	5.842800E+01	  0.039038073	3.533000E+01	  0.039038073	7.758600E+01
97	  0.039238475	-3.337000E+00	  0.039238475	5.634100E+01	  0.039238475	3.783000E+01	  0.039238475	7.995500E+01
98	  0.039438877	-3.387000E+00	  0.039438877	5.428100E+01	  0.039438877	4.054500E+01	  0.039438877	8.230600E+01
99	  0.039639279	-3.438000E+00	  0.039639279	5.222000E+01	  0.039639279	4.352300E+01	  0.039639279	8.466400E+01
100	  0.039839678	-3.497000E+00	  0.039839678	5.017800E+01	  0.039839678	4.681700E+01	  0.039839678	8.692500E+01
101	  0.040040080	-3.558000E+00	  0.040040080	4.809800E+01	  0.040040080	5.047300E+01	  0.040040080	8.919400E+01
102	  0.040240481	-3.618000E+00	  0.040240481	4.602700E+01	  0.040240481	5.444400E+01	  0.040240481	9.139700E+01
103	  0.040440880	-3.678000E+00	  0.040440880	4.393700E+01	  0.040440880	5.880500E+01	  0.040440880	9.353400E+01
104	  0.040641282	-3.739000E+00	  0.040641282	4.185700E+01	  0.040641282	6.354200E+01	  0.040641282	9.551800E+01
105	  0.040841684	-3.796000E+00	  0.040841684	3.977500E+01	  0.040841684	6.866200E+01	  0.040841684	9.738500E+01
106	  0.041042086	-3.854000E+00	  0.041042086	3.771100E+01	  0.041042086	7.418500E+01	  0.041042086	9.898900E+01
107	  0.041242484	-3.911000E+00	  0.041242484	3.561800E+01	  0.041242484	8.023200E+01	  0.041242484	1.003440E+02
108	  0.041442886	-3.965000E+00	  0.041442886	3.356000E+01	  0.041442886	8.663500E+01	  0.041442886	1.013390E+02
109	  0.041643288	-4.020000E+00	  0.041643288	3.146100E+01	  0.041643288	9.364400E+01	  0.041643288	1.019130E+02
110	  0.041843686	-4.074000E+00	  0.041843686	2.938600E+01	  0.041843686	1.010420E+02	  0.041843686	1.019310E+02
111	  0.042044088	-4.122000E+00	  0.042044088	2.733300E+01	  0.042044088	1.087910E+02	  0.042044088	1.013880E+02
112	  0.042244490	-4.173000E+00	  0.042244490	2.530400E+01	  0.042244490	1.168390E+02	  0.042244490	1.000530E+02
113	  0.042444889	-4.223000E+00	  0.042444889	2.328100E+01	  0.042444889	1.251650E+02	  0.042444889	9.784600E+01
114	  0.042645290	-4.274000E+00	  0.042645290	2.126500E+01	  0.042645290	1.336380E+02	  0.042645290	9.463000E+01
115	  0.042845692	-4.323000E+00	  0.042845692	1.926300E+01	  0.042845692	1.421130E+02	  0.042845692	9.041800E+01
116	  0.043046094	-4.375000E+00	  0.043046094	1.726400E+01	  0.043046094	1.504050E+02	  0.043046094	8.497800E+01
117	  0.043246493	-4.421000E+00	  0.043246493	1.526800E+01	  0.043246493	1.584380E+02	  0.043246493	7.853400E+01
118	  0.043446895	-4.471000E+00	  0.043446895	1.328300E+01	  0.043446895	1.657800E+02	  0.043446895	7.082200E+01
119	  0.043647297	-4.518000E+00	  0.043647297	1.129600E+01	  0.043647297	1.724220E+02	  0.043647297	6.209200E+01
120	  0.043847695	-4.567000E+00	  0.043847695	9.312000E+00	  0.043847695	1.779470E+02	  0.043847695	5.231300E+01
121	  0.044048097	-4.616000E+00	  0.044048097	7.340000E+00	  0.044048097	1.822200E+02	  0.044048097	4.180700E+01
122	  0.044248499	-4.662000E+00	  0.044248499	5.364000E+00	  0.044248499	1.852550E+02	  0.044248499	3.076600E+01
123	  0.044448901	-4.708000E+00	  0.044448901	3.421000E+00	  0.044448901	1.867750E+02	  0.044448901	1.958900E+01
124	  0.044649299	-4.751000E+00	  0.044649299	1.466000E+00	  0.044649299	1.869310E+02	  0.044649299	8.324000E+00
125	  0.044849701	-4.797000E+00	  0.044849701	-4.790000E-01	  0.044849701	1.855700E+02	  0.044849701	-2.672000E+00
126	  0.045050103	-4.839000E+00	  0.045050103	-2.422000E+00	  0.045050103	1.830750E+02	  0.045050103	-1.319500E+01
127	  0.045250501	-4.880000E+00	  0.045250501	-4.356000E+00	  0.045250501	1.794160E+02	  0.045250501	-2.302300E+01
128	  0.045450903	-4.919000E+00	  0.045450903	-6.266000E+00	  0.045450903	1.749200E+02	  0.045450903	-3.197500E+01
129	  0.045651305	-4.958000E+00	  0.045651305	-8.173000E+00	  0.045651305	1.696200E+02	  0.045651305	-4.003300E+01
130	  0.045851704	-4.997000E+00	  0.045851704	-1.006500E+01	  0.045851704	1.637590E+02	  0.045851704	-4.710200E+01
131	  0.046052106	-5.036000E+00	  0.046052106	-1.195800E+01	  0.046052106	1.574930E+02	  0.046052106	-5.324700E+01
132	  0.046252504	-5.073000E+00	  0.046252504	-1.384200E+01	  0.046252504	1.510520E+02	  0.046252504	-5.849100E+01
133	  0.046452906	-5.110000E+00	  0.046452906	-1.571000E+01	  0.046452906	1.445270E+02	  0.046452906	-6.282800E+01
134	  0.046653304	-5.143000E+00	  0.046653304	-1.757800E+01	  0.046653304	1.380560E+02	  0.046653304	-6.645100E+01
135	  0.046853706	-5.177000E+00	  0.046853706	-1.944800E+01	  0.046853706	1.316510E+02	  0.046853706	-6.936400E+01
136	  0.047054108	-5.209000E+00	  0.047054108	-2.129100E+01	  0.047054108	1.254870E+02	  0.047054108	-7.160900E+01
137	  0.047254506	-5.238000E+00	  0.047254506	-2.313400E+01	  0.047254506	1.195270E+02	  0.047254506	-7.333800E+01
138	  0.047454908	-5.273000E+00	  0.047454908	-2.495300E+01	  0.047454908	1.138230E+02	  0.047454908	-7.443600E+01
139	  0.047655310	-5.297000E+00	  0.047655310	-2.676400E+01	  0.047655310	1.084450E+02	  0.047655310	-7.531200E+01
140	  0.047855709	-5.326000E+00	  0.047855709	-2.853800E+01	  0.047855709	1.033910E+02	  0.047855709	-7.572000E+01
141	  0.048056111	-5.353000E+00	  0.048056111	-3.029400E+01	  0.048056111	9.863900E+01	  0.048056111	-7.583700E+01
142	  0.048256513	-5.382000E+00	  0.048256513	-3.205400E+01	  0.048256513	9.411900E+01	  0.048256513	-7.567800E+01
143	  0.048456915	-5.410000E+00	  0.048456915	-3.378800E+01	  0.048456915	8.990400E+01	  0.048456915	-7.530100E+01
144	  0.048657313	-5.439000E+00	  0.048657313	-3.554000E+01	  0.048657313	8.588500E+01	  0.048657313	-7.474300E+01
145	  0.048857715	-5.465000E+00	  0.048857715	-3.728400E+01	  0.048857715	8.211000E+01	  0.048857715	-7.406400E+01
146	  0.049058117	-5.489000E+00	  0.049058117	-3.902200E+01	  0.049058117	7.856000E+01	  0.049058117	-7.329200E+01
147	  0.049258515	-5.511000E+00	  0.049258515	-4.077000E+01	  0.049258515	7.519000E+01	  0.049258515	-7.242600E+01
148	  0.049458917	-5.534000E+00	  0.049458917	-4.246300E+01	  0.049458917	7.211900E+01	  0.049458917	-7.147800E+01
149	  0.049659319	-5.559000E+00	  0.049659319	-4.417100E+01	  0.049659319	6.920600E+01	  0.049659319	-7.042700E+01
150	  0.049859721	-5.587000E+00	  0.049859721	-4.587500E+01	  0.049859721	6.647400E+01	  0.049859721	-6.930300E+01
151	  0.050060119	-5.606000E+00	  0.050060119	-4.755900E+01	  0.050060119	6.390600E+01	  0.050060119	-6.822300E+01
152	  0.050260521	-5.632000E+00	  0.050260521	-4.925000E+01	  0.050260521	6.149700E+01	  0.050260521	-6.704500E+01
153	  0.050460923	-5.652000E+00	  0.050460923	-5.094400E+01	  0.050460923	5.920100E+01	  0.050460923	-6.588800E+01
154	  0.050661322	-5.670000E+00	  0.050661322	-5.262500E+01	  0.050661322	5.704100E+01	  0.050661322	-6.474200E+01
155	  0.050861724	-5.684000E+00	  0.050861724	-5.428000E+01	  0.050861724	5.501900E+01	  0.050861724	-6.362100E+01
156	  0.051062126	-5.699000E+00	  0.051062126	-5.593800E+01	  0.051062126	5.310900E+01	  0.051062126	-6.247400E+01
157	  0.051262524	-5.715000E+00	  0.051262524	-5.752900E+01	  0.051262524	5.137900E+01	  0.051262524	-6.135400E+01
158	  0.051462926	-5.728000E+00	  0.051462926	-5.911000E+01	  0.051462926	4.973900E+01	  0.051462926	-6.025300E+01
159	  0.051663328	-5.743000E+00	  0.051663328	-6.067700E+01	  0.051663328	4.820300E+01	  0.051663328	-5.915100E+01
160	  0.051863730	-5.758000E+00	  0.051863730	-6.223000E+01	  0.051863730	4.675700E+01	  0.051863730	-5.805900E+01
161	  0.052064128	-5.773000E+00	  0.052064128	-6.378500E+01	  0.052064128	4.538300E+01	  0.052064128	-5.696600E+01
162	  0.052264530	-5.788000E+00	  0.052264530	-6.530700E+01	  0.052264530	4.410700E+01	  0.052264530	-5.589900E+01
163	  0.052464932	-5.806000E+00	  0.052464932	-6.684400E+01	  0.052464932	4.288800E+01	  0.052464932	-5.481800E+01
164	  0.052665330	-5.821000E+00	  0.052665330	-6.840000E+01	  0.052665330	4.170600E+01	  0.052665330	-5.374400E+01
165	  0.052865732	-5.838000E+00	  0.052865732	-6.992200E+01	  0.052865732	4.061500E+01	  0.052865732	-5.269000E+01
166	  0.053066134	-5.854000E+00	  0.053066134	-7.143900E+01	  0.053066134	3.957400E+01	  0.053066134	-5.165600E+01
167	  0.053266536	-5.865000E+00	  0.053266536	-7.296800E+01	  0.053266536	3.855100E+01	  0.053266536	-5.064900E+01
168	  0.053466935	-5.877000E+00	  0.053466935	-7.446900E+01	  0.053466935	3.760000E+01	  0.053466935	-4.966100E+01
169	  0.053667337	-5.887000E+00	  0.053667337	-7.597200E+01	  0.053667337	3.668200E+01	  0.053667337	-4.869200E+01
170	  0.053867739	-5.892000E+00	  0.053867739	-7.745300E+01	  0.053867739	3.579900E+01	  0.053867739	-4.776200E+01
171	  0.054068137	-5.895000E+00	  0.054068137	-7.893800E+01	  0.054068137	3.494400E+01	  0.054068137	-4.684700E+01
172	  0.054268539	-5.900000E+00	  0.054268539	-8.041500E+01	  0.054268539	3.413900E+01	  0.054268539	-4.593700E+01
173	  0.054468941	-5.910000E+00	  0.054468941	-8.181600E+01	  0.054468941	3.342800E+01	  0.054468941	-4.506100E+01
174	  0.054669339	-5.917000E+00	  0.054669339	-8.324400E+01	  0.054669339	3.271600E+01	  0.054669339	-4.419300E+01
175	  0.054869737	-5.922000E+00	  0.054869737	-8.466400E+01	  0.054869737	3.203300E+01	  0.054869737	-4.334300E+01
176	  0.055070139	-5.930000E+00	  0.055070139	-8.604600E+01	  0.055070139	3.141000E+01	  0.055070139	-4.251100E+01
177	  0.055270538	-5.937000E+00	  0.055270538	-8.740800E+01	  0.055270538	3.081200E+01	  0.055270538	-4.170500E+01
178	  0.055470940	-5.945000E+00	  0.055470940	-8.880300E+01	  0.055470940	3.022800E+01	  0.055470940	-4.088500E+01
179	  0.055671342	-5.953000E+00	  0.055671342	-9.018300E+01	  0.055671342	2.967600E+01	  0.055671342	-4.008000E+01
180	  0.055871744	-5.955000E+00	  0.055871744	-9.155600E+01	  0.055871744	2.912200E+01	  0.055871744	-3.930600E+01
181	  0.056072142	-5.963000E+00	  0.056072142	-9.295900E+01	  0.056072142	2.860300E+01	  0.056072142	-3.850600E+01
182	  0.056272544	-5.970000E+00	  0.056272544	-9.433000E+01	  0.056272544	2.811000E+01	  0.056272544	-3.773600E+01
183	  0.056472946	-5.976000E+00	  0.056472946	-9.571400E+01	  0.056472946	2.762900E+01	  0.056472946	-3.696800E+01
184	  0.056673344	-5.983000E+00	  0.056673344	-9.708100E+01	  0.056673344	2.717500E+01	  0.056673344	-3.621500E+01
185	  0.056873746	-5.987000E+00	  0.056873746	-9.846200E+01	  0.056873746	2.672300E+01	  0.056873746	-3.547000E+01
186	  0.057074148	-5.985000E+00	  0.057074148	-9.981000E+01	  0.057074148	2.627800E+01	  0.057074148	-3.476100E+01
187	  0.057274550	-5.986000E+00	  0.057274550	-1.011920E+02	  0.057274550	2.585100E+01	  0.057274550	-3.403300E+01
188	  0.057474948	-5.981000E+00	  0.057474948	-1.025190E+02	  0.057474948	2.543200E+01	  0.057474948	-3.335400E+01
189	  0.057675350	-5.978000E+00	  0.057675350	-1.038540E+02	  0.057675350	2.503400E+01	  0.057675350	-3.267100E+01
190	  0.057875752	-5.977000E+00	  0.057875752	-1.051660E+02	  0.057875752	2.466200E+01	  0.057875752	-3.200300E+01
191	  0.058076151	-5.976000E+00	  0.058076151	-1.064850E+02	  0.058076151	2.430200E+01	  0.058076151	-3.133600E+01
192	  0.058276553	-5.976000E+00	  0.058276553	-1.077550E+02	  0.058276553	2.397200E+01	  0.058276553	-3.069700E+01
193	  0.058476955	-5.972000E+00	  0.058476955	-1.090340E+02	  0.058476955	2.363600E+01	  0.058476955	-3.006600E+01
194	  0.058677353	-5.973000E+00	  0.058677353	-1.102570E+02	  0.058677353	2.333800E+01	  0.058677353	-2.946100E+01
195	  0.058877755	-5.973000E+00	  0.058877755	-1.115240E+02	  0.058877755	2.304000E+01	  0.058877755	-2.883900E+01
196	  0.059078157	-5.972000E+00	  0.059078157	-1.127720E+02	  0.059078157	2.275200E+01	  0.059078157	-2.823300E+01
197	  0.059278559	-5.972000E+00	  0.059278559	-1.140080E+02	  0.059278559	2.248200E+01	  0.059278559	-2.763500E+01
198	  0.059478957	-5.971000E+00	  0.059478957	-1.152460E+02	  0.059478957	2.221400E+01	  0.059478957	-2.704200E+01
199	  0.059679359	-5.974000E+00	  0.059679359	-1.164810E+02	  0.059679359	2.196800E+01	  0.059679359	-2.645000E+01
200	  0.059879761	-5.974000E+00	  0.059879761	-1.177200E+02	  0.059879761	2.172000E+01	  0.059879761	-2.586500E+01
201	  0.060080159	-5.976000E+00	  0.060080159	-1.189370E+02	  0.060080159	2.149100E+01	  0.060080159	-2.529200E+01
202	  0.060280561	-5.973000E+00	  0.060280561	-1.201430E+02	  0.060280561	2.125700E+01	  0.060280561	-2.473400E+01
203	  0.060480963	-5.977000E+00	  0.060480963	-1.213540E+02	  0.060480963	2.105000E+01	  0.060480963	-2.417000E+01
204	  0.060681365	-5.977000E+00	  0.060681365	-1.225560E+02	  0.060681365	2.084000E+01	  0.060681365	-2.361700E+01
205	  0.060881764	-5.974000E+00	  0.060881764	-1.237510E+02	  0.060881764	2.063000E+01	  0.060881764	-2.307400E+01
206	  0.061082166	-5.975000E+00	  0.061082166	-1.249430E+02	  0.061082166	2.043700E+01	  0.061082166	-2.253300E+01
207	  0.061282568	-5.971000E+00	  0.061282568	-1.261350E+02	  0.061282568	2.023900E+01	  0.061282568	-2.200000E+01
208	  0.061482966	-5.969000E+00	  0.061482966	-1.272830E+02	  0.061482966	2.005500E+01	  0.061482966	-2.148800E+01
209	  0.061683368	-5.970000E+00	  0.061683368	-1.284460E+02	  0.061683368	1.988800E+01	  0.061683368	-2.096900E+01
210	  0.061883770	-5.969000E+00	  0.061883770	-1.296000E+02	  0.061883770	1.971800E+01	  0.061883770	-2.045900E+01
211	  0.062084168	-5.967000E+00	  0.062084168	-1.307470E+02	  0.062084168	1.955400E+01	  0.062084168	-1.995600E+01
212	  0.062284570	-5.971000E+00	  0.062284570	-1.318610E+02	  0.062284570	1.941800E+01	  0.062284570	-1.946400E+01
213	  0.062484972	-5.964000E+00	  0.062484972	-1.329440E+02	  0.062484972	1.925600E+01	  0.062484972	-1.899800E+01
214	  0.062685370	-5.965000E+00	  0.062685370	-1.340800E+02	  0.062685370	1.911600E+01	  0.062685370	-1.850500E+01
215	  0.062885776	-5.971000E+00	  0.062885776	-1.352230E+02	  0.062885776	1.899300E+01	  0.062885776	-1.800800E+01
216	  0.063086174	-5.974000E+00	  0.063086174	-1.363260E+02	  0.063086174	1.887400E+01	  0.063086174	-1.753200E+01
217	  0.063286573	-5.981000E+00	  0.063286573	-1.375150E+02	  0.063286573	1.875900E+01	  0.063286573	-1.702000E+01
218	  0.063486971	-5.982000E+00	  0.063486971	-1.386260E+02	  0.063486971	1.863800E+01	  0.063486971	-1.654800E+01
219	  0.063687377	-5.977000E+00	  0.063687377	-1.397560E+02	  0.063687377	1.850500E+01	  0.063687377	-1.607300E+01
220	  0.063887775	-5.978000E+00	  0.063887775	-1.408670E+02	  0.063887775	1.839600E+01	  0.063887775	-1.560500E+01
221	  0.064088173	-5.979000E+00	  0.064088173	-1.419900E+02	  0.064088173	1.828900E+01	  0.064088173	-1.513400E+01
222	  0.064288579	-5.977000E+00	  0.064288579	-1.430960E+02	  0.064288579	1.817700E+01	  0.064288579	-1.467400E+01
223	  0.064488977	-5.975000E+00	  0.064488977	-1.441890E+02	  0.064488977	1.807100E+01	  0.064488977	-1.422200E+01
224	  0.064689375	-5.976000E+00	  0.064689375	-1.452720E+02	  0.064689375	1.798000E+01	  0.064689375	-1.377200E+01
225	  0.064889781	-5.975000E+00	  0.064889781	-1.463220E+02	  0.064889781	1.788800E+01	  0.064889781	-1.334000E+01
226	  0.065090179	-5.975000E+00	  0.065090179	-1.474010E+02	  0.065090179	1.779800E+01	  0.065090179	-1.289700E+01
227	  0.065290578	-5.970000E+00	  0.065290578	-1.484170E+02	  0.065290578	1.770600E+01	  0.065290578	-1.248400E+01
228	  0.065490983	-5.969000E+00	  0.065490983	-1.494470E+02	  0.065490983	1.762500E+01	  0.065490983	-1.206400E+01
229	  0.065691382	-5.963000E+00	  0.065691382	-1.504980E+02	  0.065691382	1.753300E+01	  0.065691382	-1.163900E+01
230	  0.065891780	-5.963000E+00	  0.065891780	-1.515120E+02	  0.065891780	1.746000E+01	  0.065891780	-1.122800E+01
231	  0.066092186	-5.958000E+00	  0.066092186	-1.525620E+02	  0.066092186	1.737900E+01	  0.066092186	-1.080500E+01
232	  0.066292584	-5.957000E+00	  0.066292584	-1.535810E+02	  0.066292584	1.731100E+01	  0.066292584	-1.039400E+01
233	  0.066492982	-5.950000E+00	  0.066492982	-1.545770E+02	  0.066492982	1.723100E+01	  0.066492982	-9.996000E+00
234	  0.066693388	-5.948000E+00	  0.066693388	-1.555790E+02	  0.066693388	1.716700E+01	  0.066693388	-9.594000E+00
235	  0.066893786	-5.939000E+00	  0.066893786	-1.565830E+02	  0.066893786	1.708600E+01	  0.066893786	-9.196000E+00
236	  0.067094192	-5.934000E+00	  0.067094192	-1.576140E+02	  0.067094192	1.701800E+01	  0.067094192	-8.785000E+00
237	  0.067294590	-5.929000E+00	  0.067294590	-1.586080E+02	  0.067294590	1.695300E+01	  0.067294590	-8.391000E+00
238	  0.067494988	-5.923000E+00	  0.067494988	-1.596160E+02	  0.067494988	1.689000E+01	  0.067494988	-7.991000E+00
239	  0.067695394	-5.918000E+00	  0.067695394	-1.606180E+02	  0.067695394	1.683000E+01	  0.067695394	-7.595000E+00
240	  0.067895792	-5.912000E+00	  0.067895792	-1.616350E+02	  0.067895792	1.677000E+01	  0.067895792	-7.193000E+00
241	  0.068096191	-5.905000E+00	  0.068096191	-1.626550E+02	  0.068096191	1.671000E+01	  0.068096191	-6.791000E+00
242	  0.068296596	-5.905000E+00	  0.068296596	-1.636570E+02	  0.068296596	1.667200E+01	  0.068296596	-6.395000E+00
243	  0.068496995	-5.897000E+00	  0.068496995	-1.646360E+02	  0.068496995	1.661700E+01	  0.068496995	-6.010000E+00
244	  0.068697393	-5.893000E+00	  0.068697393	-1.656490E+02	  0.068697393	1.657200E+01	  0.068697393	-5.612000E+00
245	  0.068897791	-5.891000E+00	  0.068897791	-1.666570E+02	  0.068897791	1.653500E+01	  0.068897791	-5.216000E+00
246	  0.069098189	-5.884000E+00	  0.069098189	-1.676480E+02	  0.069098189	1.648800E+01	  0.069098189	-4.828000E+00
247	  0.069298595	-5.878000E+00	  0.069298595	-1.686310E+02	  0.069298595	1.644700E+01	  0.069298595	-4.442000E+00
248	  0.069498993	-5.872000E+00	  0.069498993	-1.696120E+02	  0.069498993	1.640700E+01	  0.069498993	-4.058000E+00
249	  0.069699399	-5.872000E+00	  0.069699399	-1.706300E+02	  0.069699399	1.638400E+01	  0.069699399	-3.659000E+00
250	  0.069899797	-5.869000E+00	  0.069899797	-1.716430E+02	  0.069899797	1.635500E+01	  0.069899797	-3.263000E+00
251	  0.070100196	-5.867000E+00	  0.070100196	-1.725840E+02	  0.070100196	1.633600E+01	  0.070100196	-2.895000E+00
252	  0.070300601	-5.871000E+00	  0.070300601	-1.735800E+02	  0.070300601	1.633100E+01	  0.070300601	-2.505000E+00
253	  0.070501000	-5.865000E+00	  0.070501000	-1.745910E+02	  0.070501000	1.630200E+01	  0.070501000	-2.111000E+00
254	  0.070701398	-5.858000E+00	  0.070701398	-1.755840E+02	  0.070701398	1.627300E+01	  0.070701398	-1.723000E+00
255	  0.070901804	-5.859000E+00	  0.070901804	-1.765380E+02	  0.070901804	1.626700E+01	  0.070901804	-1.350000E+00
256	  0.071102202	-5.853000E+00	  0.071102202	-1.775260E+02	  0.071102202	1.624400E+01	  0.071102202	-9.650000E-01
257	  0.071302600	-5.860000E+00	  0.071302600	-1.785240E+02	  0.071302600	1.625800E+01	  0.071302600	-5.750000E-01
258	  0.071503006	-5.858000E+00	  0.071503006	-1.794650E+02	  0.071503006	1.625100E+01	  0.071503006	-2.080000E-01
259	  0.071703404	-5.858000E+00	  0.071703404	1.795840E+02	  0.071703404	1.625100E+01	  0.071703404	1.620000E-01
260	  0.071903802	-5.862000E+00	  0.071903802	1.786010E+02	  0.071903802	1.626300E+01	  0.071903802	5.450000E-01
261	  0.072104208	-5.858000E+00	  0.072104208	1.776380E+02	  0.072104208	1.625700E+01	  0.072104208	9.210000E-01
262	  0.072304606	-5.863000E+00	  0.072304606	1.766880E+02	  0.072304606	1.627600E+01	  0.072304606	1.292000E+00
263	  0.072505005	-5.863000E+00	  0.072505005	1.757380E+02	  0.072505005	1.628400E+01	  0.072505005	1.663000E+00
264	  0.072705410	-5.863000E+00	  0.072705410	1.748180E+02	  0.072705410	1.629200E+01	  0.072705410	2.022000E+00
265	  0.072905809	-5.867000E+00	  0.072905809	1.738490E+02	  0.072905809	1.631400E+01	  0.072905809	2.401000E+00
266	  0.073106214	-5.869000E+00	  0.073106214	1.729000E+02	  0.073106214	1.633400E+01	  0.073106214	2.771000E+00
267	  0.073306613	-5.872000E+00	  0.073306613	1.719490E+02	  0.073306613	1.635800E+01	  0.073306613	3.143000E+00
268	  0.073507011	-5.878000E+00	  0.073507011	1.710440E+02	  0.073507011	1.639000E+01	  0.073507011	3.496000E+00
269	  0.073707417	-5.882000E+00	  0.073707417	1.701100E+02	  0.073707417	1.642100E+01	  0.073707417	3.862000E+00
270	  0.073907815	-5.888000E+00	  0.073907815	1.691760E+02	  0.073907815	1.645700E+01	  0.073907815	4.227000E+00
271	  0.074108213	-5.886000E+00	  0.074108213	1.682500E+02	  0.074108213	1.647700E+01	  0.074108213	4.591000E+00
272	  0.074308619	-5.895000E+00	  0.074308619	1.673290E+02	  0.074308619	1.652400E+01	  0.074308619	4.951000E+00
273	  0.074509017	-5.898000E+00	  0.074509017	1.663570E+02	  0.074509017	1.656100E+01	  0.074509017	5.333000E+00
274	  0.074709415	-5.905000E+00	  0.074709415	1.654760E+02	  0.074709415	1.660800E+01	  0.074709415	5.678000E+00
275	  0.074909821	-5.912000E+00	  0.074909821	1.645390E+02	  0.074909821	1.665700E+01	  0.074909821	6.046000E+00
276	  0.075110219	-5.923000E+00	  0.075110219	1.636190E+02	  0.075110219	1.672000E+01	  0.075110219	6.406000E+00
277	  0.075310618	-5.927000E+00	  0.075310618	1.627110E+02	  0.075310618	1.676600E+01	  0.075310618	6.763000E+00
278	  0.075511023	-5.936000E+00	  0.075511023	1.618120E+02	  0.075511023	1.682500E+01	  0.075511023	7.117000E+00
279	  0.075711422	-5.940000E+00	  0.075711422	1.609250E+02	  0.075711422	1.687500E+01	  0.075711422	7.466000E+00
280	  0.075911827	-5.947000E+00	  0.075911827	1.600190E+02	  0.075911827	1.693300E+01	  0.075911827	7.824000E+00
281	  0.076112226	-5.954000E+00	  0.076112226	1.591050E+02	  0.076112226	1.699500E+01	  0.076112226	8.185000E+00
282	  0.076312624	-5.962000E+00	  0.076312624	1.582000E+02	  0.076312624	1.706100E+01	  0.076312624	8.542000E+00
283	  0.076513030	-5.974000E+00	  0.076513030	1.572770E+02	  0.076513030	1.714100E+01	  0.076513030	8.906000E+00
284	  0.076713428	-5.979000E+00	  0.076713428	1.563750E+02	  0.076713428	1.720200E+01	  0.076713428	9.265000E+00
285	  0.076913826	-5.988000E+00	  0.076913826	1.554710E+02	  0.076913826	1.727800E+01	  0.076913826	9.623000E+00
286	  0.077114232	-5.991000E+00	  0.077114232	1.545930E+02	  0.077114232	1.733900E+01	  0.077114232	9.973000E+00
287	  0.077314630	-5.999000E+00	  0.077314630	1.537100E+02	  0.077314630	1.741300E+01	  0.077314630	1.032500E+01
288	  0.077515028	-6.001000E+00	  0.077515028	1.528390E+02	  0.077515028	1.747400E+01	  0.077515028	1.067500E+01
289	  0.077715434	-6.009000E+00	  0.077715434	1.519790E+02	  0.077715434	1.755400E+01	  0.077715434	1.101800E+01
290	  0.077915832	-6.017000E+00	  0.077915832	1.510950E+02	  0.077915832	1.763300E+01	  0.077915832	1.137200E+01
291	  0.078116231	-6.030000E+00	  0.078116231	1.502310E+02	  0.078116231	1.773200E+01	  0.078116231	1.171500E+01
292	  0.078316636	-6.038000E+00	  0.078316636	1.493500E+02	  0.078316636	1.781800E+01	  0.078316636	1.206900E+01
293	  0.078517035	-6.047000E+00	  0.078517035	1.485010E+02	  0.078517035	1.790700E+01	  0.078517035	1.241000E+01
294	  0.078717433	-6.058000E+00	  0.078717433	1.476330E+02	  0.078717433	1.800400E+01	  0.078717433	1.275800E+01
295	  0.078917839	-6.072000E+00	  0.078917839	1.467750E+02	  0.078917839	1.811300E+01	  0.078917839	1.310100E+01
296	  0.079118237	-6.082000E+00	  0.079118237	1.459690E+02	  0.079118237	1.820600E+01	  0.079118237	1.342600E+01
297	  0.079318643	-6.098000E+00	  0.079318643	1.451080E+02	  0.079318643	1.832400E+01	  0.079318643	1.377000E+01
298	  0.079519041	-6.114000E+00	  0.079519041	1.442510E+02	  0.079519041	1.844400E+01	  0.079519041	1.411300E+01
299	  0.079719439	-6.125000E+00	  0.079719439	1.434150E+02	  0.079719439	1.855100E+01	  0.079719439	1.445100E+01
300	  0.079919845	-6.139000E+00	  0.079919845	1.425900E+02	  0.079919845	1.866900E+01	  0.079919845	1.478300E+01
301	  0.080120243	-6.160000E+00	  0.080120243	1.417330E+02	  0.080120243	1.880900E+01	  0.080120243	1.512400E+01
302	  0.080320641	-6.167000E+00	  0.080320641	1.408920E+02	  0.080320641	1.891300E+01	  0.080320641	1.546900E+01
303	  0.080521047	-6.186000E+00	  0.080521047	1.400530E+02	  0.080521047	1.905200E+01	  0.080521047	1.580500E+01
304	  0.080721445	-6.204000E+00	  0.080721445	1.392400E+02	  0.080721445	1.918900E+01	  0.080721445	1.613100E+01
305	  0.080921844	-6.221000E+00	  0.080921844	1.383890E+02	  0.080921844	1.932800E+01	  0.080921844	1.647500E+01
306	  0.081122249	-6.238000E+00	  0.081122249	1.375860E+02	  0.081122249	1.946700E+01	  0.081122249	1.679800E+01
307	  0.081322648	-6.256000E+00	  0.081322648	1.367490E+02	  0.081322648	1.961400E+01	  0.081322648	1.713600E+01
308	  0.081523046	-6.278000E+00	  0.081523046	1.359280E+02	  0.081523046	1.977100E+01	  0.081523046	1.746400E+01
309	  0.081723452	-6.296000E+00	  0.081723452	1.351140E+02	  0.081723452	1.992000E+01	  0.081723452	1.779400E+01
310	  0.081923850	-6.316000E+00	  0.081923850	1.343080E+02	  0.081923850	2.007700E+01	  0.081923850	1.811800E+01
311	  0.082124248	-6.332000E+00	  0.082124248	1.335070E+02	  0.082124248	2.022700E+01	  0.082124248	1.844300E+01
312	  0.082324654	-6.359000E+00	  0.082324654	1.327000E+02	  0.082324654	2.040700E+01	  0.082324654	1.876300E+01
313	  0.082525052	-6.379000E+00	  0.082525052	1.319250E+02	  0.082525052	2.056900E+01	  0.082525052	1.907500E+01
314	  0.082725458	-6.403000E+00	  0.082725458	1.311640E+02	  0.082725458	2.074200E+01	  0.082725458	1.937700E+01
315	  0.082925856	-6.428000E+00	  0.082925856	1.303690E+02	  0.082925856	2.092500E+01	  0.082925856	1.969400E+01
316	  0.083126254	-6.454000E+00	  0.083126254	1.295900E+02	  0.083126254	2.111400E+01	  0.083126254	2.000100E+01
317	  0.083326660	-6.480000E+00	  0.083326660	1.287160E+02	  0.083326660	2.131600E+01	  0.083326660	2.035100E+01
318	  0.083527058	-6.503000E+00	  0.083527058	1.279570E+02	  0.083527058	2.149700E+01	  0.083527058	2.065400E+01
319	  0.083727457	-6.524000E+00	  0.083727457	1.271310E+02	  0.083727457	2.168800E+01	  0.083727457	2.098800E+01
320	  0.083927862	-6.551000E+00	  0.083927862	1.263730E+02	  0.083927862	2.188700E+01	  0.083927862	2.128600E+01
321	  0.084128261	-6.574000E+00	  0.084128261	1.256070E+02	  0.084128261	2.207700E+01	  0.084128261	2.159200E+01
322	  0.084328659	-6.595000E+00	  0.084328659	1.248370E+02	  0.084328659	2.226700E+01	  0.084328659	2.190300E+01
323	  0.084529065	-6.621000E+00	  0.084529065	1.240910E+02	  0.084529065	2.247100E+01	  0.084529065	2.219600E+01
324	  0.084729463	-6.646000E+00	  0.084729463	1.233560E+02	  0.084729463	2.267200E+01	  0.084729463	2.248700E+01
325	  0.084929861	-6.674000E+00	  0.084929861	1.226140E+02	  0.084929861	2.288400E+01	  0.084929861	2.277700E+01
326	  0.085130267	-6.695000E+00	  0.085130267	1.218780E+02	  0.085130267	2.308200E+01	  0.085130267	2.307100E+01
327	  0.085330658	-6.723000E+00	  0.085330658	1.211640E+02	  0.085330658	2.329500E+01	  0.085330658	2.334900E+01
328	  0.085531056	-6.749000E+00	  0.085531056	1.204690E+02	  0.085531056	2.350400E+01	  0.085531056	2.361900E+01
329	  0.085731462	-6.782000E+00	  0.085731462	1.197740E+02	  0.085731462	2.373500E+01	  0.085731462	2.388100E+01
330	  0.085931860	-6.813000E+00	  0.085931860	1.190860E+02	  0.085931860	2.396100E+01	  0.085931860	2.414200E+01
331	  0.086132258	-6.836000E+00	  0.086132258	1.184120E+02	  0.086132258	2.416500E+01	  0.086132258	2.440600E+01
332	  0.086332664	-6.869000E+00	  0.086332664	1.177520E+02	  0.086332664	2.439800E+01	  0.086332664	2.465000E+01
333	  0.086533062	-6.900000E+00	  0.086533062	1.170940E+02	  0.086533062	2.462700E+01	  0.086533062	2.489500E+01
334	  0.086733460	-6.923000E+00	  0.086733460	1.164050E+02	  0.086733460	2.484300E+01	  0.086733460	2.516500E+01
335	  0.086933866	-6.954000E+00	  0.086933866	1.157620E+02	  0.086933866	2.507300E+01	  0.086933866	2.540200E+01
336	  0.087134264	-6.980000E+00	  0.087134264	1.150890E+02	  0.087134264	2.530000E+01	  0.087134264	2.565900E+01
337	  0.087334670	-7.003000E+00	  0.087334670	1.144520E+02	  0.087334670	2.551200E+01	  0.087334670	2.590500E+01
338	  0.087535068	-7.028000E+00	  0.087535068	1.138180E+02	  0.087535068	2.573300E+01	  0.087535068	2.614500E+01
339	  0.087735467	-7.044000E+00	  0.087735467	1.132030E+02	  0.087735467	2.592700E+01	  0.087735467	2.639000E+01
340	  0.087935872	-7.069000E+00	  0.087935872	1.125820E+02	  0.087935872	2.614800E+01	  0.087935872	2.662500E+01
341	  0.088136271	-7.085000E+00	  0.088136271	1.119150E+02	  0.088136271	2.635800E+01	  0.088136271	2.689300E+01
342	  0.088336669	-7.103000E+00	  0.088336669	1.112570E+02	  0.088336669	2.657400E+01	  0.088336669	2.715500E+01
343	  0.088537075	-7.116000E+00	  0.088537075	1.106080E+02	  0.088537075	2.677800E+01	  0.088537075	2.741900E+01
344	  0.088737473	-7.129000E+00	  0.088737473	1.100110E+02	  0.088737473	2.697100E+01	  0.088737473	2.766100E+01
345	  0.088937871	-7.144000E+00	  0.088937871	1.093130E+02	  0.088937871	2.719600E+01	  0.088937871	2.794600E+01
346	  0.089138277	-7.160000E+00	  0.089138277	1.086310E+02	  0.089138277	2.742600E+01	  0.089138277	2.821900E+01
347	  0.089338675	-7.182000E+00	  0.089338675	1.080070E+02	  0.089338675	2.766200E+01	  0.089338675	2.845600E+01
348	  0.089539073	-7.203000E+00	  0.089539073	1.073100E+02	  0.089539073	2.791400E+01	  0.089539073	2.872800E+01
349	  0.089739479	-7.225000E+00	  0.089739479	1.066540E+02	  0.089739479	2.816700E+01	  0.089739479	2.897700E+01
350	  0.089939877	-7.250000E+00	  0.089939877	1.059610E+02	  0.089939877	2.843800E+01	  0.089939877	2.923900E+01
351	  0.090140276	-7.273000E+00	  0.090140276	1.052770E+02	  0.090140276	2.870700E+01	  0.090140276	2.949700E+01
352	  0.090340681	-7.300000E+00	  0.090340681	1.046180E+02	  0.090340681	2.898300E+01	  0.090340681	2.973700E+01
353	  0.090541080	-7.324000E+00	  0.090541080	1.038750E+02	  0.090541080	2.927700E+01	  0.090541080	3.002000E+01
354	  0.090741485	-7.353000E+00	  0.090741485	1.032070E+02	  0.090741485	2.957000E+01	  0.090741485	3.025600E+01
355	  0.090941884	-7.375000E+00	  0.090941884	1.025430E+02	  0.090941884	2.984400E+01	  0.090941884	3.050500E+01
356	  0.091142282	-7.406000E+00	  0.091142282	1.018900E+02	  0.091142282	3.014300E+01	  0.091142282	3.073000E+01
357	  0.091342688	-7.433000E+00	  0.091342688	1.012550E+02	  0.091342688	3.042800E+01	  0.091342688	3.095200E+01
358	  0.091543086	-7.462000E+00	  0.091543086	1.005860E+02	  0.091543086	3.073400E+01	  0.091543086	3.118500E+01
359	  0.091743484	-7.492000E+00	  0.091743484	9.993200E+01	  0.091743484	3.104200E+01	  0.091743484	3.140600E+01
360	  0.091943890	-7.520000E+00	  0.091943890	9.933600E+01	  0.091943890	3.132900E+01	  0.091943890	3.160400E+01
361	  0.092144288	-7.553000E+00	  0.092144288	9.869800E+01	  0.092144288	3.164800E+01	  0.092144288	3.180800E+01
362	  0.092344686	-7.578000E+00	  0.092344686	9.808900E+01	  0.092344686	3.193400E+01	  0.092344686	3.201700E+01
363	  0.092545092	-7.613000E+00	  0.092545092	9.746900E+01	  0.092545092	3.225800E+01	  0.092545092	3.220400E+01
364	  0.092745490	-7.638000E+00	  0.092745490	9.689300E+01	  0.092745490	3.254000E+01	  0.092745490	3.239500E+01
365	  0.092945889	-7.680000E+00	  0.092945889	9.632400E+01	  0.092945889	3.287200E+01	  0.092945889	3.253800E+01
366	  0.093146294	-7.710000E+00	  0.093146294	9.574200E+01	  0.093146294	3.317400E+01	  0.093146294	3.271600E+01
367	  0.093346693	-7.750000E+00	  0.093346693	9.516400E+01	  0.093346693	3.351000E+01	  0.093346693	3.286300E+01
368	  0.093547091	-7.787000E+00	  0.093547091	9.459500E+01	  0.093547091	3.383500E+01	  0.093547091	3.301200E+01
369	  0.093747497	-7.825000E+00	  0.093747497	9.402200E+01	  0.093747497	3.416600E+01	  0.093747497	3.315800E+01
370	  0.093947895	-7.853000E+00	  0.093947895	9.340900E+01	  0.093947895	3.448900E+01	  0.093947895	3.334300E+01
371	  0.094148301	-7.891000E+00	  0.094148301	9.283300E+01	  0.094148301	3.482700E+01	  0.094148301	3.348600E+01
372	  0.094348699	-7.929000E+00	  0.094348699	9.227700E+01	  0.094348699	3.516100E+01	  0.094348699	3.361400E+01
373	  0.094549097	-7.970000E+00	  0.094549097	9.173300E+01	  0.094549097	3.549900E+01	  0.094549097	3.372900E+01
374	  0.094749503	-8.004000E+00	  0.094749503	9.118900E+01	  0.094749503	3.582000E+01	  0.094749503	3.386000E+01
375	  0.094949901	-8.033000E+00	  0.094949901	9.063200E+01	  0.094949901	3.613700E+01	  0.094949901	3.400700E+01
376	  0.095150299	-8.073000E+00	  0.095150299	9.011600E+01	  0.095150299	3.646600E+01	  0.095150299	3.410600E+01
377	  0.095350705	-8.105000E+00	  0.095350705	8.960000E+01	  0.095350705	3.677800E+01	  0.095350705	3.422300E+01
378	  0.095551103	-8.137000E+00	  0.095551103	8.904900E+01	  0.095551103	3.710700E+01	  0.095551103	3.435100E+01
379	  0.095751502	-8.169000E+00	  0.095751502	8.851900E+01	  0.095751502	3.742900E+01	  0.095751502	3.446900E+01
380	  0.095951907	-8.205000E+00	  0.095951907	8.803900E+01	  0.095951907	3.774100E+01	  0.095951907	3.455100E+01
381	  0.096152306	-8.241000E+00	  0.096152306	8.755000E+01	  0.096152306	3.805700E+01	  0.096152306	3.463700E+01
382	  0.096352704	-8.274000E+00	  0.096352704	8.707800E+01	  0.096352704	3.836100E+01	  0.096352704	3.472100E+01
383	  0.096553110	-8.306000E+00	  0.096553110	8.658100E+01	  0.096553110	3.867500E+01	  0.096553110	3.481600E+01
384	  0.096753508	-8.335000E+00	  0.096753508	8.608900E+01	  0.096753508	3.898100E+01	  0.096753508	3.491600E+01
385	  0.096953906	-8.367000E+00	  0.096953906	8.565200E+01	  0.096953906	3.927100E+01	  0.096953906	3.498100E+01
386	  0.097154312	-8.403000E+00	  0.097154312	8.519100E+01	  0.097154312	3.958300E+01	  0.097154312	3.504100E+01
387	  0.097354710	-8.436000E+00	  0.097354710	8.472500E+01	  0.097354710	3.989100E+01	  0.097354710	3.511100E+01
388	  0.097555116	-8.460000E+00	  0.097555116	8.427300E+01	  0.097555116	4.017400E+01	  0.097555116	3.519900E+01
389	  0.097755514	-8.495000E+00	  0.097755514	8.379500E+01	  0.097755514	4.049400E+01	  0.097755514	3.526400E+01
390	  0.097955912	-8.519000E+00	  0.097955912	8.335200E+01	  0.097955912	4.077600E+01	  0.097955912	3.534400E+01
391	  0.098156318	-8.547000E+00	  0.098156318	8.293000E+01	  0.098156318	4.105600E+01	  0.098156318	3.540300E+01
392	  0.098356716	-8.575000E+00	  0.098356716	8.253100E+01	  0.098356716	4.132500E+01	  0.098356716	3.545400E+01
393	  0.098557115	-8.600000E+00	  0.098557115	8.212200E+01	  0.098557115	4.159400E+01	  0.098557115	3.551400E+01
394	  0.098757520	-8.623000E+00	  0.098757520	8.170000E+01	  0.098757520	4.186500E+01	  0.098757520	3.558700E+01
395	  0.098957919	-8.647000E+00	  0.098957919	8.130900E+01	  0.098957919	4.212600E+01	  0.098957919	3.563900E+01
396	  0.099158317	-8.672000E+00	  0.099158317	8.088700E+01	  0.099158317	4.240500E+01	  0.099158317	3.569800E+01
397	  0.099358723	-8.700000E+00	  0.099358723	8.051700E+01	  0.099358723	4.266300E+01	  0.099358723	3.572900E+01
398	  0.099559121	-8.722000E+00	  0.099559121	8.014300E+01	  0.099559121	4.291300E+01	  0.099559121	3.577800E+01
399	  0.099759519	-8.743000E+00	  0.099759519	7.977900E+01	  0.099759519	4.315600E+01	  0.099759519	3.582500E+01
400	  0.099959925	-8.762000E+00	  0.099959925	7.946800E+01	  0.099959925	4.336500E+01	  0.099959925	3.586200E+01
401	  0.100160323	-8.786000E+00	  0.100160323	7.904300E+01	  0.100160323	4.364900E+01	  0.100160323	3.591600E+01
402	  0.100360721	-8.809000E+00	  0.100360721	7.874000E+01	  0.100360721	4.386600E+01	  0.100360721	3.593100E+01
403	  0.100561127	-8.830000E+00	  0.100561127	7.834000E+01	  0.100561127	4.413100E+01	  0.100561127	3.598600E+01
404	  0.100761525	-8.850000E+00	  0.100761525	7.798900E+01	  0.100761525	4.436700E+01	  0.100761525	3.602600E+01
405	  0.100961931	-8.867000E+00	  0.100961931	7.762000E+01	  0.100961931	4.461000E+01	  0.100961931	3.608100E+01
406	  0.101162329	-8.886000E+00	  0.101162329	7.728300E+01	  0.101162329	4.484100E+01	  0.101162329	3.611300E+01
407	  0.101362728	-8.909000E+00	  0.101362728	7.691600E+01	  0.101362728	4.509500E+01	  0.101362728	3.614300E+01
408	  0.101563133	-8.931000E+00	  0.101563133	7.655600E+01	  0.101563133	4.534600E+01	  0.101563133	3.617000E+01
409	  0.101763532	-8.931000E+00	  0.101763532	7.618600E+01	  0.101763532	4.555900E+01	  0.101763532	3.628200E+01
410	  0.101963930	-8.945000E+00	  0.101963930	7.585800E+01	  0.101963930	4.577700E+01	  0.101963930	3.632800E+01
411	  0.102164336	-8.962000E+00	  0.102164336	7.543300E+01	  0.102164336	4.605700E+01	  0.102164336	3.639000E+01
412	  0.102364734	-8.977000E+00	  0.102364734	7.510200E+01	  0.102364734	4.628000E+01	  0.102364734	3.643200E+01
413	  0.102565132	-8.979000E+00	  0.102565132	7.472400E+01	  0.102565132	4.650800E+01	  0.102565132	3.653200E+01
414	  0.102765530	-8.991000E+00	  0.102765530	7.442400E+01	  0.102765530	4.670900E+01	  0.102765530	3.657400E+01
415	  0.102965929	-8.991000E+00	  0.102965929	7.404200E+01	  0.102965929	4.693900E+01	  0.102965929	3.668300E+01
416	  0.103166327	-9.000000E+00	  0.103166327	7.374200E+01	  0.103166327	4.713600E+01	  0.103166327	3.673400E+01
417	  0.103366733	-8.998000E+00	  0.103366733	7.341100E+01	  0.103366733	4.733300E+01	  0.103366733	3.683400E+01
418	  0.103567131	-9.006000E+00	  0.103567131	7.301300E+01	  0.103567131	4.759100E+01	  0.103567131	3.691400E+01
419	  0.103767529	-9.009000E+00	  0.103767529	7.266200E+01	  0.103767529	4.781300E+01	  0.103767529	3.699800E+01
420	  0.103967935	-9.011000E+00	  0.103967935	7.224400E+01	  0.103967935	4.807600E+01	  0.103967935	3.710600E+01
421	  0.104168333	-9.006000E+00	  0.104168333	7.189600E+01	  0.104168333	4.828300E+01	  0.104168333	3.722300E+01
422	  0.104368731	-9.009000E+00	  0.104368731	7.153500E+01	  0.104368731	4.851600E+01	  0.104368731	3.730800E+01
423	  0.104569137	-9.006000E+00	  0.104569137	7.115700E+01	  0.104569137	4.875100E+01	  0.104569137	3.741900E+01
424	  0.104769535	-9.002000E+00	  0.104769535	7.078300E+01	  0.104769535	4.898300E+01	  0.104769535	3.753500E+01
425	  0.104969934	-8.988000E+00	  0.104969934	7.042000E+01	  0.104969934	4.919200E+01	  0.104969934	3.769300E+01
426	  0.105170339	-8.997000E+00	  0.105170339	7.002600E+01	  0.105170339	4.946400E+01	  0.105170339	3.775400E+01
427	  0.105370738	-8.974000E+00	  0.105370738	6.967400E+01	  0.105370738	4.965600E+01	  0.105370738	3.794500E+01
428	  0.105571143	-8.972000E+00	  0.105571143	6.928300E+01	  0.105571143	4.991000E+01	  0.105571143	3.805400E+01
429	  0.105771542	-8.958000E+00	  0.105771542	6.886100E+01	  0.105771542	5.016700E+01	  0.105771542	3.822400E+01
430	  0.105971940	-8.956000E+00	  0.105971940	6.843500E+01	  0.105971940	5.045100E+01	  0.105971940	3.833800E+01
431	  0.106172346	-8.936000E+00	  0.106172346	6.803500E+01	  0.106172346	5.068900E+01	  0.106172346	3.852800E+01
432	  0.106372744	-8.923000E+00	  0.106372744	6.760200E+01	  0.106372744	5.096600E+01	  0.106372744	3.868900E+01
433	  0.106573142	-8.910000E+00	  0.106573142	6.717100E+01	  0.106573142	5.124300E+01	  0.106573142	3.885400E+01
434	  0.106773548	-8.900000E+00	  0.106773548	6.673800E+01	  0.106773548	5.152900E+01	  0.106773548	3.900500E+01
435	  0.106973946	-8.888000E+00	  0.106973946	6.634600E+01	  0.106973946	5.178600E+01	  0.106973946	3.915600E+01
436	  0.107174344	-8.874000E+00	  0.107174344	6.592800E+01	  0.107174344	5.206200E+01	  0.107174344	3.931900E+01
437	  0.107374750	-8.851000E+00	  0.107374750	6.542600E+01	  0.107374750	5.238800E+01	  0.107374750	3.954400E+01
438	  0.107575148	-8.839000E+00	  0.107575148	6.486700E+01	  0.107575148	5.277600E+01	  0.107575148	3.972800E+01
439	  0.107775547	-8.827000E+00	  0.107775547	6.442700E+01	  0.107775547	5.308300E+01	  0.107775547	3.988500E+01
440	  0.107975952	-8.802000E+00	  0.107975952	6.396800E+01	  0.107975952	5.338800E+01	  0.107975952	4.010600E+01
441	  0.108176351	-8.786000E+00	  0.108176351	6.347600E+01	  0.108176351	5.373400E+01	  0.108176351	4.029400E+01
442	  0.108376749	-8.770000E+00	  0.108376749	6.296000E+01	  0.108376749	5.410300E+01	  0.108376749	4.048800E+01
443	  0.108577155	-8.752000E+00	  0.108577155	6.243200E+01	  0.108577155	5.448600E+01	  0.108577155	4.068600E+01
444	  0.108777553	-8.740000E+00	  0.108777553	6.188900E+01	  0.108777553	5.489100E+01	  0.108777553	4.086100E+01
445	  0.108977959	-8.723000E+00	  0.108977959	6.130400E+01	  0.108977959	5.533000E+01	  0.108977959	4.106300E+01
446	  0.109178357	-8.706000E+00	  0.109178357	6.070100E+01	  0.109178357	5.579000E+01	  0.109178357	4.127000E+01
447	  0.109378755	-8.678000E+00	  0.109378755	6.018700E+01	  0.109378755	5.617100E+01	  0.109378755	4.151800E+01
448	  0.109579161	-8.664000E+00	  0.109579161	5.955600E+01	  0.109579161	5.667100E+01	  0.109579161	4.170900E+01
449	  0.109779559	-8.654000E+00	  0.109779559	5.896400E+01	  0.109779559	5.715200E+01	  0.109779559	4.186600E+01
450	  0.109979957	-8.626000E+00	  0.109979957	5.836400E+01	  0.109979957	5.762500E+01	  0.109979957	4.212300E+01
451	  0.110180363	-8.613000E+00	  0.110180363	5.776000E+01	  0.110180363	5.812600E+01	  0.110180363	4.229400E+01
452	  0.110380761	-8.583000E+00	  0.110380761	5.713100E+01	  0.110380761	5.863800E+01	  0.110380761	4.256400E+01
453	  0.110581160	-8.568000E+00	  0.110581160	5.646500E+01	  0.110581160	5.920900E+01	  0.110581160	4.274800E+01
454	  0.110781565	-8.556000E+00	  0.110781565	5.582500E+01	  0.110781565	5.976600E+01	  0.110781565	4.290900E+01
455	  0.110981964	-8.538000E+00	  0.110981964	5.517300E+01	  0.110981964	6.033900E+01	  0.110981964	4.310100E+01
456	  0.111182362	-8.519000E+00	  0.111182362	5.451000E+01	  0.111182362	6.093000E+01	  0.111182362	4.329500E+01
457	  0.111382768	-8.504000E+00	  0.111382768	5.380000E+01	  0.111382768	6.157800E+01	  0.111382768	4.346500E+01
458	  0.111583166	-8.491000E+00	  0.111583166	5.315300E+01	  0.111583166	6.217800E+01	  0.111583166	4.361200E+01
459	  0.111783572	-8.479000E+00	  0.111783572	5.247400E+01	  0.111783572	6.281800E+01	  0.111783572	4.374700E+01
460	  0.111983970	-8.461000E+00	  0.111983970	5.177500E+01	  0.111983970	6.348400E+01	  0.111983970	4.391400E+01
461	  0.112184368	-8.445000E+00	  0.112184368	5.100700E+01	  0.112184368	6.423100E+01	  0.112184368	4.406200E+01
462	  0.112384774	-8.440000E+00	  0.112384774	5.027800E+01	  0.112384774	6.495400E+01	  0.112384774	4.413100E+01
463	  0.112585172	-8.432000E+00	  0.112585172	4.952700E+01	  0.112585172	6.570800E+01	  0.112585172	4.420800E+01
464	  0.112785570	-8.416000E+00	  0.112785570	4.877900E+01	  0.112785570	6.647100E+01	  0.112785570	4.432500E+01
465	  0.112985976	-8.413000E+00	  0.112985976	4.798200E+01	  0.112985976	6.729600E+01	  0.112985976	4.434500E+01
466	  0.113186374	-8.410000E+00	  0.113186374	4.721900E+01	  0.113186374	6.809600E+01	  0.113186374	4.435600E+01
467	  0.113386773	-8.404000E+00	  0.113386773	4.645800E+01	  0.113386773	6.890500E+01	  0.113386773	4.436200E+01
468	  0.113587178	-8.401000E+00	  0.113587178	4.565400E+01	  0.113587178	6.976900E+01	  0.113587178	4.433800E+01
469	  0.113787577	-8.402000E+00	  0.113787577	4.484100E+01	  0.113787577	7.065100E+01	  0.113787577	4.426600E+01
470	  0.113987975	-8.405000E+00	  0.113987975	4.400100E+01	  0.113987975	7.157100E+01	  0.113987975	4.415600E+01
471	  0.114188381	-8.398000E+00	  0.114188381	4.320500E+01	  0.114188381	7.246000E+01	  0.114188381	4.410400E+01
472	  0.114388779	-8.410000E+00	  0.114388779	4.234400E+01	  0.114388779	7.341300E+01	  0.114388779	4.388400E+01
473	  0.114589177	-8.408000E+00	  0.114589177	4.148600E+01	  0.114589177	7.438400E+01	  0.114589177	4.374000E+01
474	  0.114789583	-8.420000E+00	  0.114789583	4.061200E+01	  0.114789583	7.536400E+01	  0.114789583	4.346700E+01
475	  0.114989981	-8.430000E+00	  0.114989981	3.972200E+01	  0.114989981	7.637000E+01	  0.114989981	4.318100E+01
476	  0.115190387	-8.441000E+00	  0.115190387	3.882300E+01	  0.115190387	7.738800E+01	  0.115190387	4.285200E+01
477	  0.115390785	-8.453000E+00	  0.115390785	3.792700E+01	  0.115390785	7.840100E+01	  0.115390785	4.248100E+01
478	  0.115591183	-8.463000E+00	  0.115591183	3.695300E+01	  0.115591183	7.951600E+01	  0.115591183	4.208000E+01
479	  0.115791589	-8.481000E+00	  0.115791589	3.602800E+01	  0.115791589	8.055100E+01	  0.115791589	4.158800E+01
480	  0.115991987	-8.493000E+00	  0.115991987	3.506500E+01	  0.115991987	8.164800E+01	  0.115991987	4.110200E+01
481	  0.116192386	-8.508000E+00	  0.116192386	3.408100E+01	  0.116192386	8.275500E+01	  0.116192386	4.054000E+01
482	  0.116392791	-8.532000E+00	  0.116392791	3.309900E+01	  0.116392791	8.382600E+01	  0.116392791	3.987300E+01
483	  0.116593190	-8.552000E+00	  0.116593190	3.213900E+01	  0.116593190	8.487000E+01	  0.116593190	3.920200E+01
484	  0.116793588	-8.566000E+00	  0.116793588	3.114800E+01	  0.116793588	8.596600E+01	  0.116793588	3.852700E+01
485	  0.116993994	-8.590000E+00	  0.116993994	3.007500E+01	  0.116993994	8.710300E+01	  0.116993994	3.768300E+01
486	  0.117194392	-8.621000E+00	  0.117194392	2.902800E+01	  0.117194392	8.816000E+01	  0.117194392	3.675600E+01
487	  0.117394790	-8.638000E+00	  0.117394790	2.795400E+01	  0.117394790	8.929100E+01	  0.117394790	3.587500E+01
488	  0.117595196	-8.675000E+00	  0.117595196	2.691700E+01	  0.117595196	9.025400E+01	  0.117595196	3.482100E+01
489	  0.117795594	-8.704000E+00	  0.117795594	2.580900E+01	  0.117795594	9.130900E+01	  0.117795594	3.373300E+01
490	  0.117995992	-8.737000E+00	  0.117995992	2.471200E+01	  0.117995992	9.229000E+01	  0.117995992	3.257600E+01
491	  0.118196398	-8.769000E+00	  0.118196398	2.360400E+01	  0.118196398	9.324900E+01	  0.118196398	3.137400E+01
492	  0.118396796	-8.810000E+00	  0.118396796	2.244600E+01	  0.118396796	9.416100E+01	  0.118396796	3.002500E+01
493	  0.118597202	-8.855000E+00	  0.118597202	2.123900E+01	  0.118597202	9.503500E+01	  0.118597202	2.855600E+01
494	  0.118797600	-8.896000E+00	  0.118797600	2.007100E+01	  0.118797600	9.584500E+01	  0.118797600	2.711800E+01
495	  0.118997999	-8.944000E+00	  0.118997999	1.890200E+01	  0.118997999	9.654700E+01	  0.118997999	2.560200E+01
496	  0.119198404	-8.991000E+00	  0.119198404	1.765100E+01	  0.119198404	9.725500E+01	  0.119198404	2.397000E+01
497	  0.119398803	-9.050000E+00	  0.119398803	1.646800E+01	  0.119398803	9.774600E+01	  0.119398803	2.232800E+01
498	  0.119599201	-9.119000E+00	  0.119599201	1.519700E+01	  0.119599201	9.815500E+01	  0.119599201	2.052400E+01
499	  0.119799607	-9.182000E+00	  0.119799607	1.395100E+01	  0.119799607	9.849800E+01	  0.119799607	1.876600E+01
500	  0.120000005	-9.250000E+00	  0.120000005	1.262400E+01	  0.120000005	9.877600E+01	  0.120000005	1.689200E+01
