! Anritsu VNA Master:             	Model: MS2036C/10/77
! SN:             	1601066
! /bd0/18may10/255.ns.m1.txt
! Existing Calibration Information:
! TYPE:             	Current Settings	Active Cal Settings
! TIME:             	05/10/2018 02:18:08 PM	05/10/2018 02:13:17 PM
! INTERNAL TEMP:    	58.0 C	57.5 C
! # POINTS:         	492	492
! START FREQ:       	20.000 MHz	20.000 MHz
! STOP FREQ:        	118.396 793 MHz	118.396 793 MHz
! SOURCE POWER:     	High	High
! IFBW:             	50 Hz	50 Hz
! AVG FACTOR:       	  1 	  1 
! REF PLANE 1:      	0 mm	0 mm
! REF PLANE 2:      	0 mm	0 mm
! CAL TYPE:         	Full S22	Full S22
! CAL METHOD:       	SOLT	SOLT
! CAL LINE TYPE:    	Coax	Coax
! DUT PORT 1:       	K-Conn(M)	K-Conn(M)
! DUT PORT 2:       	K-Conn(M)	K-Conn(M)
! CAL STATUS:       	OK: Accuracy High	--
! PROP-V:       	0.700
! CABLE LOSS:       	0.000 dB/m
! REF IMPEDANCE:       	50.0
! Trace Specific Parameters:	TR1	TR2	TR3	TR4
! TRACE.#.Y (GRAPH TYPE)	LOG MAG	PHASE	REAL IMPEDANCE	IMAGINARY IMPEDANCE
! TRACE.#.X 	FREQ.GHZ	FREQ.GHZ	FREQ.GHZ	FREQ.GHZ
! S-PARAMETER	S22	S22	S22	S22
! SMOOTH/APERTURE %	0	0	0	0
! WINDOW	NSL	NSL	NSL	NSL
! GATING	OFF	OFF	OFF	OFF
! FGTD	OFF	OFF	OFF	OFF
Marker Information per Trace:	TR1	TR2	TR3	TR4
!MK1	--	"MK1 TR2:  20.000 MHz,PH:-125.38°"	--	--
!MK2	--	--	"MK2 TR3:  70.100 200 MHz,Z:(17.260 ohm, -1.683 ohm)"	--
!MK3	--	--	--	--
!MK4	--	--	--	--
!MK5	--	--	--	--
!MK6	--	--	--	--
!MK7	--	--	--	--
!MK8	--	--	--	--
PNT	TR1.FREQ.GHZ	TR1.LOG MAG.dB	TR2.FREQ.GHZ	TR2.PHASE.deg	TR3.FREQ.GHZ	TR3.REAL IMPEDANCE.ohm	TR4.FREQ.GHZ	TR4.IMAGINARY IMPEDANCE.ohm
1	  0.020000000	-6.380000E-01	  0.020000000	-1.253800E+02	  0.020000000	2.324000E+00	  0.020000000	-2.577300E+01
2	  0.020200402	-6.410000E-01	  0.020200402	-1.268270E+02	  0.020200402	2.307000E+00	  0.020200402	-2.498000E+01
3	  0.020400802	-6.430000E-01	  0.020400802	-1.282800E+02	  0.020400802	2.285000E+00	  0.020400802	-2.419400E+01
4	  0.020601204	-6.470000E-01	  0.020601204	-1.297600E+02	  0.020601204	2.270000E+00	  0.020601204	-2.340200E+01
5	  0.020801604	-6.510000E-01	  0.020801604	-1.312540E+02	  0.020801604	2.257000E+00	  0.020801604	-2.261300E+01
6	  0.021002004	-6.530000E-01	  0.021002004	-1.327700E+02	  0.021002004	2.238000E+00	  0.021002004	-2.182300E+01
7	  0.021202406	-6.560000E-01	  0.021202406	-1.342790E+02	  0.021202406	2.222000E+00	  0.021202406	-2.104400E+01
8	  0.021402806	-6.570000E-01	  0.021402806	-1.357950E+02	  0.021402806	2.203000E+00	  0.021402806	-2.027100E+01
9	  0.021603208	-6.610000E-01	  0.021603208	-1.373000E+02	  0.021603208	2.194000E+00	  0.021603208	-1.951100E+01
10	  0.021803608	-6.640000E-01	  0.021803608	-1.388120E+02	  0.021803608	2.180000E+00	  0.021803608	-1.875600E+01
11	  0.022004008	-6.660000E-01	  0.022004008	-1.403360E+02	  0.022004008	2.167000E+00	  0.022004008	-1.800200E+01
12	  0.022204408	-6.740000E-01	  0.022204408	-1.418780E+02	  0.022204408	2.171000E+00	  0.022204408	-1.724600E+01
13	  0.022404809	-6.800000E-01	  0.022404809	-1.434360E+02	  0.022404809	2.169000E+00	  0.022404809	-1.649000E+01
14	  0.022605211	-6.790000E-01	  0.022605211	-1.450180E+02	  0.022605211	2.149000E+00	  0.022605211	-1.572900E+01
15	  0.022805611	-6.820000E-01	  0.022805611	-1.465940E+02	  0.022805611	2.138000E+00	  0.022805611	-1.497800E+01
16	  0.023006011	-6.860000E-01	  0.023006011	-1.481770E+02	  0.023006011	2.134000E+00	  0.023006011	-1.422900E+01
17	  0.023206413	-6.910000E-01	  0.023206413	-1.497440E+02	  0.023206413	2.133000E+00	  0.023206413	-1.349300E+01
18	  0.023406813	-6.960000E-01	  0.023406813	-1.513070E+02	  0.023406813	2.133000E+00	  0.023406813	-1.276600E+01
19	  0.023607215	-7.020000E-01	  0.023607215	-1.528940E+02	  0.023607215	2.137000E+00	  0.023607215	-1.203200E+01
20	  0.023807615	-7.080000E-01	  0.023807615	-1.544980E+02	  0.023807615	2.143000E+00	  0.023807615	-1.129400E+01
21	  0.024008015	-7.170000E-01	  0.024008015	-1.561290E+02	  0.024008015	2.156000E+00	  0.024008015	-1.055000E+01
22	  0.024208417	-7.230000E-01	  0.024208417	-1.577690E+02	  0.024208417	2.160000E+00	  0.024208417	-9.805000E+00
23	  0.024408817	-7.300000E-01	  0.024408817	-1.594140E+02	  0.024408817	2.170000E+00	  0.024408817	-9.063000E+00
24	  0.024609219	-7.360000E-01	  0.024609219	-1.610640E+02	  0.024609219	2.176000E+00	  0.024609219	-8.322000E+00
25	  0.024809619	-7.440000E-01	  0.024809619	-1.627230E+02	  0.024809619	2.190000E+00	  0.024809619	-7.581000E+00
26	  0.025010020	-7.540000E-01	  0.025010020	-1.643880E+02	  0.025010020	2.209000E+00	  0.025010020	-6.840000E+00
27	  0.025210422	-7.640000E-01	  0.025210422	-1.660580E+02	  0.025210422	2.231000E+00	  0.025210422	-6.101000E+00
28	  0.025410822	-7.750000E-01	  0.025410822	-1.677500E+02	  0.025410822	2.256000E+00	  0.025410822	-5.354000E+00
29	  0.025611224	-7.860000E-01	  0.025611224	-1.694490E+02	  0.025611224	2.282000E+00	  0.025611224	-4.606000E+00
30	  0.025811624	-7.980000E-01	  0.025811624	-1.711610E+02	  0.025811624	2.310000E+00	  0.025811624	-3.856000E+00
31	  0.026012026	-8.090000E-01	  0.026012026	-1.728890E+02	  0.026012026	2.338000E+00	  0.026012026	-3.099000E+00
32	  0.026212426	-8.190000E-01	  0.026212426	-1.746260E+02	  0.026212426	2.362000E+00	  0.026212426	-2.340000E+00
33	  0.026412826	-8.340000E-01	  0.026412826	-1.763590E+02	  0.026412826	2.401000E+00	  0.026412826	-1.585000E+00
34	  0.026613226	-8.470000E-01	  0.026613226	-1.781120E+02	  0.026613226	2.439000E+00	  0.026613226	-8.210000E-01
35	  0.026813626	-8.630000E-01	  0.026813626	-1.798690E+02	  0.026813626	2.481000E+00	  0.026813626	-5.600000E-02
36	  0.027014028	-8.790000E-01	  0.027014028	1.783650E+02	  0.027014028	2.528000E+00	  0.027014028	7.110000E-01
37	  0.027214428	-8.960000E-01	  0.027214428	1.765950E+02	  0.027214428	2.580000E+00	  0.027214428	1.481000E+00
38	  0.027414829	-9.110000E-01	  0.027414829	1.748210E+02	  0.027414829	2.625000E+00	  0.027414829	2.254000E+00
39	  0.027615231	-9.290000E-01	  0.027615231	1.730310E+02	  0.027615231	2.681000E+00	  0.027615231	3.035000E+00
40	  0.027815631	-9.460000E-01	  0.027815631	1.712390E+02	  0.027815631	2.738000E+00	  0.027815631	3.818000E+00
41	  0.028016033	-9.650000E-01	  0.028016033	1.694190E+02	  0.028016033	2.799000E+00	  0.028016033	4.615000E+00
42	  0.028216433	-9.850000E-01	  0.028216433	1.676070E+02	  0.028216433	2.865000E+00	  0.028216433	5.410000E+00
43	  0.028416833	-1.005000E+00	  0.028416833	1.657800E+02	  0.028416833	2.935000E+00	  0.028416833	6.215000E+00
44	  0.028617235	-1.026000E+00	  0.028617235	1.639550E+02	  0.028617235	3.010000E+00	  0.028617235	7.021000E+00
45	  0.028817635	-1.048000E+00	  0.028817635	1.621350E+02	  0.028817635	3.087000E+00	  0.028817635	7.829000E+00
46	  0.029018037	-1.071000E+00	  0.029018037	1.603060E+02	  0.029018037	3.172000E+00	  0.029018037	8.644000E+00
47	  0.029218437	-1.095000E+00	  0.029218437	1.584600E+02	  0.029218437	3.263000E+00	  0.029218437	9.471000E+00
48	  0.029418837	-1.122000E+00	  0.029418837	1.566010E+02	  0.029418837	3.364000E+00	  0.029418837	1.030800E+01
49	  0.029619239	-1.148000E+00	  0.029619239	1.547390E+02	  0.029619239	3.464000E+00	  0.029619239	1.115300E+01
50	  0.029819639	-1.175000E+00	  0.029819639	1.528690E+02	  0.029819639	3.573000E+00	  0.029819639	1.200500E+01
51	  0.030020041	-1.203000E+00	  0.030020041	1.509810E+02	  0.030020041	3.689000E+00	  0.030020041	1.287300E+01
52	  0.030220442	-1.232000E+00	  0.030220442	1.491000E+02	  0.030220442	3.809000E+00	  0.030220442	1.374400E+01
53	  0.030420844	-1.260000E+00	  0.030420844	1.472170E+02	  0.030420844	3.932000E+00	  0.030420844	1.462300E+01
54	  0.030621244	-1.292000E+00	  0.030621244	1.453350E+02	  0.030621244	4.073000E+00	  0.030621244	1.550900E+01
55	  0.030821642	-1.327000E+00	  0.030821642	1.434450E+02	  0.030821642	4.225000E+00	  0.030821642	1.640700E+01
56	  0.031022044	-1.359000E+00	  0.031022044	1.415300E+02	  0.031022044	4.375000E+00	  0.031022044	1.732600E+01
57	  0.031222444	-1.387000E+00	  0.031222444	1.396210E+02	  0.031222444	4.521000E+00	  0.031222444	1.825300E+01
58	  0.031422846	-1.422000E+00	  0.031422846	1.376710E+02	  0.031422846	4.693000E+00	  0.031422846	1.920900E+01
59	  0.031623244	-1.460000E+00	  0.031623244	1.357180E+02	  0.031623244	4.882000E+00	  0.031623244	2.017700E+01
60	  0.031823646	-1.494000E+00	  0.031823646	1.337490E+02	  0.031823646	5.065000E+00	  0.031823646	2.116700E+01
61	  0.032024048	-1.532000E+00	  0.032024048	1.317910E+02	  0.032024048	5.270000E+00	  0.032024048	2.216200E+01
62	  0.032224450	-1.571000E+00	  0.032224450	1.298190E+02	  0.032224450	5.490000E+00	  0.032224450	2.317900E+01
63	  0.032424849	-1.608000E+00	  0.032424849	1.278440E+02	  0.032424849	5.711000E+00	  0.032424849	2.421200E+01
64	  0.032625251	-1.647000E+00	  0.032625251	1.258540E+02	  0.032625251	5.950000E+00	  0.032625251	2.526800E+01
65	  0.032825653	-1.685000E+00	  0.032825653	1.238310E+02	  0.032825653	6.194000E+00	  0.032825653	2.636000E+01
66	  0.033026051	-1.723000E+00	  0.033026051	1.218060E+02	  0.033026051	6.456000E+00	  0.033026051	2.747000E+01
67	  0.033226453	-1.764000E+00	  0.033226453	1.197840E+02	  0.033226453	6.739000E+00	  0.033226453	2.859700E+01
68	  0.033426855	-1.799000E+00	  0.033426855	1.177600E+02	  0.033426855	7.014000E+00	  0.033426855	2.974800E+01
69	  0.033627257	-1.842000E+00	  0.033627257	1.157570E+02	  0.033627257	7.334000E+00	  0.033627257	3.090400E+01
70	  0.033827655	-1.881000E+00	  0.033827655	1.137370E+02	  0.033827655	7.654000E+00	  0.033827655	3.209400E+01
71	  0.034028057	-1.921000E+00	  0.034028057	1.117020E+02	  0.034028057	7.999000E+00	  0.034028057	3.331600E+01
72	  0.034228459	-1.966000E+00	  0.034228459	1.096680E+02	  0.034228459	8.380000E+00	  0.034228459	3.456000E+01
73	  0.034428857	-2.011000E+00	  0.034428857	1.076270E+02	  0.034428857	8.784000E+00	  0.034428857	3.583500E+01
74	  0.034629259	-2.051000E+00	  0.034629259	1.055830E+02	  0.034629259	9.192000E+00	  0.034629259	3.714200E+01
75	  0.034829661	-2.095000E+00	  0.034829661	1.035350E+02	  0.034829661	9.642000E+00	  0.034829661	3.847900E+01
76	  0.035030060	-2.143000E+00	  0.035030060	1.014830E+02	  0.035030060	1.013500E+01	  0.035030060	3.984600E+01
77	  0.035230462	-2.190000E+00	  0.035230462	9.943700E+01	  0.035230462	1.065700E+01	  0.035230462	4.124200E+01
78	  0.035430863	-2.241000E+00	  0.035430863	9.739800E+01	  0.035430863	1.122700E+01	  0.035430863	4.266100E+01
79	  0.035631265	-2.290000E+00	  0.035631265	9.535500E+01	  0.035631265	1.182100E+01	  0.035631265	4.412000E+01
80	  0.035831664	-2.340000E+00	  0.035831664	9.328700E+01	  0.035831664	1.246800E+01	  0.035831664	4.563300E+01
81	  0.036032066	-2.393000E+00	  0.036032066	9.123500E+01	  0.036032066	1.316500E+01	  0.036032066	4.716900E+01
82	  0.036232468	-2.445000E+00	  0.036232468	8.917800E+01	  0.036232468	1.390900E+01	  0.036232468	4.874800E+01
83	  0.036432866	-2.496000E+00	  0.036432866	8.711100E+01	  0.036432866	1.470100E+01	  0.036432866	5.037900E+01
84	  0.036633268	-2.550000E+00	  0.036633268	8.505300E+01	  0.036633268	1.556200E+01	  0.036633268	5.204000E+01
85	  0.036833670	-2.608000E+00	  0.036833670	8.297800E+01	  0.036833670	1.650800E+01	  0.036833670	5.375400E+01
86	  0.037034072	-2.664000E+00	  0.037034072	8.089200E+01	  0.037034072	1.752200E+01	  0.037034072	5.552500E+01
87	  0.037234470	-2.722000E+00	  0.037234470	7.881600E+01	  0.037234470	1.862100E+01	  0.037234470	5.732900E+01
88	  0.037434869	-2.779000E+00	  0.037434869	7.672200E+01	  0.037434869	1.979800E+01	  0.037434869	5.920300E+01
89	  0.037635271	-2.838000E+00	  0.037635271	7.463700E+01	  0.037635271	2.108300E+01	  0.037635271	6.111000E+01
90	  0.037835669	-2.901000E+00	  0.037835669	7.254400E+01	  0.037835669	2.249700E+01	  0.037835669	6.306100E+01
91	  0.038036071	-2.959000E+00	  0.038036071	7.044300E+01	  0.038036071	2.399300E+01	  0.038036071	6.508800E+01
92	  0.038236473	-3.017000E+00	  0.038236473	6.831400E+01	  0.038236473	2.563100E+01	  0.038236473	6.719300E+01
93	  0.038436871	-3.081000E+00	  0.038436871	6.618600E+01	  0.038436871	2.745200E+01	  0.038436871	6.932400E+01
94	  0.038637273	-3.140000E+00	  0.038637273	6.405300E+01	  0.038637273	2.939500E+01	  0.038637273	7.152700E+01
95	  0.038837675	-3.199000E+00	  0.038837675	6.195200E+01	  0.038837675	3.147900E+01	  0.038837675	7.374200E+01
96	  0.039038073	-3.258000E+00	  0.039038073	5.984900E+01	  0.039038073	3.374500E+01	  0.039038073	7.599800E+01
97	  0.039238475	-3.314000E+00	  0.039238475	5.775600E+01	  0.039238475	3.618200E+01	  0.039238475	7.828800E+01
98	  0.039438877	-3.371000E+00	  0.039438877	5.566300E+01	  0.039438877	3.884500E+01	  0.039438877	8.060200E+01
99	  0.039639279	-3.426000E+00	  0.039639279	5.356500E+01	  0.039639279	4.174000E+01	  0.039639279	8.295400E+01
100	  0.039839678	-3.483000E+00	  0.039839678	5.146400E+01	  0.039839678	4.492000E+01	  0.039839678	8.529800E+01
101	  0.040040080	-3.536000E+00	  0.040040080	4.937600E+01	  0.040040080	4.832700E+01	  0.040040080	8.765800E+01
102	  0.040240481	-3.587000E+00	  0.040240481	4.730400E+01	  0.040240481	5.201100E+01	  0.040240481	8.998100E+01
103	  0.040440880	-3.640000E+00	  0.040440880	4.524000E+01	  0.040440880	5.604400E+01	  0.040440880	9.221300E+01
104	  0.040641282	-3.692000E+00	  0.040641282	4.320000E+01	  0.040641282	6.037500E+01	  0.040641282	9.435000E+01
105	  0.040841684	-3.744000E+00	  0.040841684	4.116000E+01	  0.040841684	6.508800E+01	  0.040841684	9.636600E+01
106	  0.041042086	-3.797000E+00	  0.041042086	3.915500E+01	  0.041042086	7.014200E+01	  0.041042086	9.815400E+01
107	  0.041242484	-3.852000E+00	  0.041242484	3.713300E+01	  0.041242484	7.567400E+01	  0.041242484	9.969900E+01
108	  0.041442886	-3.903000E+00	  0.041442886	3.510900E+01	  0.041442886	8.162800E+01	  0.041442886	1.010230E+02
109	  0.041643288	-3.956000E+00	  0.041643288	3.310700E+01	  0.041643288	8.798600E+01	  0.041643288	1.019330E+02
110	  0.041843686	-4.008000E+00	  0.041843686	3.108800E+01	  0.041843686	9.484200E+01	  0.041843686	1.024480E+02
111	  0.042044088	-4.057000E+00	  0.042044088	2.909000E+01	  0.042044088	1.020670E+02	  0.042044088	1.024690E+02
112	  0.042244490	-4.110000E+00	  0.042244490	2.710600E+01	  0.042244490	1.096600E+02	  0.042244490	1.017430E+02
113	  0.042444889	-4.164000E+00	  0.042444889	2.513500E+01	  0.042444889	1.175420E+02	  0.042444889	1.002530E+02
114	  0.042645290	-4.219000E+00	  0.042645290	2.315200E+01	  0.042645290	1.257330E+02	  0.042645290	9.786500E+01
115	  0.042845692	-4.273000E+00	  0.042845692	2.119800E+01	  0.042845692	1.339440E+02	  0.042845692	9.458000E+01
116	  0.043046094	-4.325000E+00	  0.043046094	1.916500E+01	  0.043046094	1.425270E+02	  0.043046094	9.017600E+01
117	  0.043246493	-4.381000E+00	  0.043246493	1.717000E+01	  0.043246493	1.507330E+02	  0.043246493	8.458800E+01
118	  0.043446895	-4.431000E+00	  0.043446895	1.519700E+01	  0.043446895	1.585490E+02	  0.043446895	7.803500E+01
119	  0.043647297	-4.482000E+00	  0.043647297	1.321100E+01	  0.043647297	1.658210E+02	  0.043647297	7.027700E+01
120	  0.043847695	-4.534000E+00	  0.043847695	1.123400E+01	  0.043847695	1.721980E+02	  0.043847695	6.143100E+01
121	  0.044048097	-4.584000E+00	  0.044048097	9.249000E+00	  0.044048097	1.776500E+02	  0.044048097	5.167200E+01
122	  0.044248499	-4.635000E+00	  0.044248499	7.285000E+00	  0.044248499	1.817500E+02	  0.044248499	4.120400E+01
123	  0.044448901	-4.685000E+00	  0.044448901	5.313000E+00	  0.044448901	1.845200E+02	  0.044448901	3.018600E+01
124	  0.044649299	-4.732000E+00	  0.044649299	3.348000E+00	  0.044649299	1.859640E+02	  0.044649299	1.897900E+01
125	  0.044849701	-4.778000E+00	  0.044849701	1.379000E+00	  0.044849701	1.859770E+02	  0.044849701	7.741000E+00
126	  0.045050103	-4.823000E+00	  0.045050103	-5.820000E-01	  0.045050103	1.846210E+02	  0.045050103	-3.211000E+00
127	  0.045250501	-4.865000E+00	  0.045250501	-2.553000E+00	  0.045250501	1.820340E+02	  0.045250501	-1.374400E+01
128	  0.045450903	-4.907000E+00	  0.045450903	-4.490000E+00	  0.045450903	1.783330E+02	  0.045450903	-2.344700E+01
129	  0.045651305	-4.949000E+00	  0.045651305	-6.446000E+00	  0.045651305	1.736270E+02	  0.045651305	-3.242500E+01
130	  0.045851704	-4.985000E+00	  0.045851704	-8.373000E+00	  0.045851704	1.683740E+02	  0.045851704	-4.045600E+01
131	  0.046052102	-5.027000E+00	  0.046052102	-1.029200E+01	  0.046052102	1.624000E+02	  0.046052102	-4.743800E+01
132	  0.046252504	-5.062000E+00	  0.046252504	-1.218600E+01	  0.046252504	1.562580E+02	  0.046252504	-5.351800E+01
133	  0.046452906	-5.098000E+00	  0.046452906	-1.406200E+01	  0.046452906	1.498930E+02	  0.046452906	-5.862700E+01
134	  0.046653304	-5.132000E+00	  0.046653304	-1.594600E+01	  0.046653304	1.434120E+02	  0.046653304	-6.294500E+01
135	  0.046853706	-5.166000E+00	  0.046853706	-1.782500E+01	  0.046853706	1.369600E+02	  0.046853706	-6.649900E+01
136	  0.047054108	-5.195000E+00	  0.047054108	-1.967700E+01	  0.047054108	1.307170E+02	  0.047054108	-6.937700E+01
137	  0.047254506	-5.227000E+00	  0.047254506	-2.154600E+01	  0.047254506	1.245180E+02	  0.047254506	-7.157800E+01
138	  0.047454908	-5.256000E+00	  0.047454908	-2.336800E+01	  0.047454908	1.186810E+02	  0.047454908	-7.323000E+01
139	  0.047655310	-5.285000E+00	  0.047655310	-2.519400E+01	  0.047655310	1.130490E+02	  0.047655310	-7.441500E+01
140	  0.047855709	-5.314000E+00	  0.047855709	-2.697700E+01	  0.047855709	1.077730E+02	  0.047855709	-7.512800E+01
141	  0.048056111	-5.345000E+00	  0.048056111	-2.874200E+01	  0.048056111	1.027830E+02	  0.048056111	-7.545600E+01
142	  0.048256513	-5.375000E+00	  0.048256513	-3.051600E+01	  0.048256513	9.802600E+01	  0.048256513	-7.551600E+01
143	  0.048456915	-5.405000E+00	  0.048456915	-3.229000E+01	  0.048456915	9.351800E+01	  0.048456915	-7.531800E+01
144	  0.048657313	-5.432000E+00	  0.048657313	-3.403900E+01	  0.048657313	8.931700E+01	  0.048657313	-7.496000E+01
145	  0.048857715	-5.458000E+00	  0.048857715	-3.579200E+01	  0.048857715	8.534000E+01	  0.048857715	-7.442300E+01
146	  0.049058117	-5.486000E+00	  0.049058117	-3.754700E+01	  0.049058117	8.158700E+01	  0.049058117	-7.370800E+01
147	  0.049258515	-5.511000E+00	  0.049258515	-3.927100E+01	  0.049258515	7.810500E+01	  0.049258515	-7.292700E+01
148	  0.049458917	-5.540000E+00	  0.049458917	-4.100100E+01	  0.049458917	7.482600E+01	  0.049458917	-7.197400E+01
149	  0.049659319	-5.569000E+00	  0.049659319	-4.270800E+01	  0.049659319	7.177700E+01	  0.049659319	-7.096400E+01
150	  0.049859721	-5.594000E+00	  0.049859721	-4.441100E+01	  0.049859721	6.890400E+01	  0.049859721	-6.993400E+01
151	  0.050060119	-5.621000E+00	  0.050060119	-4.610800E+01	  0.050060119	6.621300E+01	  0.050060119	-6.882800E+01
152	  0.050260521	-5.642000E+00	  0.050260521	-4.781400E+01	  0.050260521	6.364700E+01	  0.050260521	-6.772900E+01
153	  0.050460923	-5.668000E+00	  0.050460923	-4.950900E+01	  0.050460923	6.125900E+01	  0.050460923	-6.655600E+01
154	  0.050661322	-5.688000E+00	  0.050661322	-5.122000E+01	  0.050661322	5.896500E+01	  0.050661322	-6.540800E+01
155	  0.050861724	-5.709000E+00	  0.050861724	-5.290200E+01	  0.050861724	5.684100E+01	  0.050861724	-6.424300E+01
156	  0.051062126	-5.729000E+00	  0.051062126	-5.459300E+01	  0.051062126	5.482300E+01	  0.051062126	-6.306500E+01
157	  0.051262524	-5.752000E+00	  0.051262524	-5.623100E+01	  0.051262524	5.299000E+01	  0.051262524	-6.188900E+01
158	  0.051462926	-5.773000E+00	  0.051462926	-5.789800E+01	  0.051462926	5.121700E+01	  0.051462926	-6.070300E+01
159	  0.051663328	-5.789000E+00	  0.051663328	-5.953800E+01	  0.051663328	4.954800E+01	  0.051663328	-5.956900E+01
160	  0.051863730	-5.806000E+00	  0.051863730	-6.118000E+01	  0.051863730	4.797200E+01	  0.051863730	-5.842000E+01
161	  0.052064128	-5.819000E+00	  0.052064128	-6.281100E+01	  0.052064128	4.647200E+01	  0.052064128	-5.730700E+01
162	  0.052264530	-5.831000E+00	  0.052264530	-6.443100E+01	  0.052264530	4.505200E+01	  0.052264530	-5.621000E+01
163	  0.052464932	-5.844000E+00	  0.052464932	-6.603400E+01	  0.052464932	4.372000E+01	  0.052464932	-5.512500E+01
164	  0.052665330	-5.855000E+00	  0.052665330	-6.762300E+01	  0.052665330	4.246300E+01	  0.052665330	-5.405800E+01
165	  0.052865732	-5.867000E+00	  0.052865732	-6.920300E+01	  0.052865732	4.127700E+01	  0.052865732	-5.300100E+01
166	  0.053066134	-5.879000E+00	  0.053066134	-7.075200E+01	  0.053066134	4.017200E+01	  0.053066134	-5.196800E+01
167	  0.053266536	-5.890000E+00	  0.053266536	-7.229000E+01	  0.053266536	3.912000E+01	  0.053266536	-5.095800E+01
168	  0.053466935	-5.904000E+00	  0.053466935	-7.383200E+01	  0.053466935	3.813200E+01	  0.053466935	-4.993600E+01
169	  0.053667337	-5.915000E+00	  0.053667337	-7.534700E+01	  0.053667337	3.719000E+01	  0.053667337	-4.895800E+01
170	  0.053867739	-5.922000E+00	  0.053867739	-7.686200E+01	  0.053867739	3.627700E+01	  0.053867739	-4.800300E+01
171	  0.054068137	-5.935000E+00	  0.054068137	-7.837300E+01	  0.054068137	3.542900E+01	  0.054068137	-4.703800E+01
172	  0.054268539	-5.941000E+00	  0.054268539	-7.984800E+01	  0.054268539	3.461500E+01	  0.054268539	-4.612700E+01
173	  0.054468941	-5.956000E+00	  0.054468941	-8.132900E+01	  0.054468941	3.386300E+01	  0.054468941	-4.519300E+01
174	  0.054669335	-5.968000E+00	  0.054669335	-8.278200E+01	  0.054669335	3.315000E+01	  0.054669335	-4.429400E+01
175	  0.054869737	-5.977000E+00	  0.054869737	-8.424900E+01	  0.054869737	3.245000E+01	  0.054869737	-4.340500E+01
176	  0.055070139	-5.992000E+00	  0.055070139	-8.566500E+01	  0.055070139	3.182500E+01	  0.055070139	-4.253900E+01
177	  0.055270538	-6.000000E+00	  0.055270538	-8.712300E+01	  0.055270538	3.117900E+01	  0.055270538	-4.168000E+01
178	  0.055470940	-6.012000E+00	  0.055470940	-8.854500E+01	  0.055470940	3.059200E+01	  0.055470940	-4.083800E+01
179	  0.055671342	-6.023000E+00	  0.055671342	-8.998000E+01	  0.055671342	3.002000E+01	  0.055671342	-4.000100E+01
180	  0.055871744	-6.033000E+00	  0.055871744	-9.143000E+01	  0.055871744	2.945900E+01	  0.055871744	-3.917000E+01
181	  0.056072142	-6.044000E+00	  0.056072142	-9.285400E+01	  0.056072142	2.893600E+01	  0.056072142	-3.835900E+01
182	  0.056272544	-6.051000E+00	  0.056272544	-9.428000E+01	  0.056272544	2.842000E+01	  0.056272544	-3.756400E+01
183	  0.056472946	-6.064000E+00	  0.056472946	-9.568100E+01	  0.056472946	2.795400E+01	  0.056472946	-3.677800E+01
184	  0.056673344	-6.070000E+00	  0.056673344	-9.709900E+01	  0.056673344	2.747700E+01	  0.056673344	-3.600700E+01
185	  0.056873746	-6.080000E+00	  0.056873746	-9.846000E+01	  0.056873746	2.704700E+01	  0.056873746	-3.526700E+01
186	  0.057074148	-6.086000E+00	  0.057074148	-9.985200E+01	  0.057074148	2.661400E+01	  0.057074148	-3.452600E+01
187	  0.057274550	-6.092000E+00	  0.057274550	-1.012620E+02	  0.057274550	2.619100E+01	  0.057274550	-3.378200E+01
188	  0.057474948	-6.100000E+00	  0.057474948	-1.026440E+02	  0.057474948	2.580100E+01	  0.057474948	-3.305500E+01
189	  0.057675350	-6.099000E+00	  0.057675350	-1.040180E+02	  0.057675350	2.539600E+01	  0.057675350	-3.235800E+01
190	  0.057875752	-6.105000E+00	  0.057875752	-1.054030E+02	  0.057875752	2.502300E+01	  0.057875752	-3.165000E+01
191	  0.058076151	-6.112000E+00	  0.058076151	-1.067590E+02	  0.058076151	2.468000E+01	  0.058076151	-3.096000E+01
192	  0.058276553	-6.112000E+00	  0.058276553	-1.081080E+02	  0.058276553	2.432500E+01	  0.058276553	-3.029200E+01
193	  0.058476955	-6.115000E+00	  0.058476955	-1.094360E+02	  0.058476955	2.399900E+01	  0.058476955	-2.963500E+01
194	  0.058677353	-6.114000E+00	  0.058677353	-1.107670E+02	  0.058677353	2.367300E+01	  0.058677353	-2.898800E+01
195	  0.058877755	-6.116000E+00	  0.058877755	-1.120850E+02	  0.058877755	2.336900E+01	  0.058877755	-2.834800E+01
196	  0.059078157	-6.111000E+00	  0.059078157	-1.133810E+02	  0.059078157	2.305700E+01	  0.059078157	-2.773400E+01
197	  0.059278559	-6.113000E+00	  0.059278559	-1.146590E+02	  0.059278559	2.278400E+01	  0.059278559	-2.712200E+01
198	  0.059478957	-6.111000E+00	  0.059478957	-1.159520E+02	  0.059478957	2.250500E+01	  0.059478957	-2.651400E+01
199	  0.059679359	-6.113000E+00	  0.059679359	-1.172290E+02	  0.059679359	2.224900E+01	  0.059679359	-2.591300E+01
200	  0.059879761	-6.110000E+00	  0.059879761	-1.184970E+02	  0.059879761	2.198900E+01	  0.059879761	-2.532700E+01
201	  0.060080159	-6.109000E+00	  0.060080159	-1.197200E+02	  0.060080159	2.175200E+01	  0.060080159	-2.476200E+01
202	  0.060280561	-6.112000E+00	  0.060280561	-1.209630E+02	  0.060280561	2.153100E+01	  0.060280561	-2.418800E+01
203	  0.060480963	-6.114000E+00	  0.060480963	-1.222070E+02	  0.060480963	2.131400E+01	  0.060480963	-2.361900E+01
204	  0.060681365	-6.113000E+00	  0.060681365	-1.234150E+02	  0.060681365	2.110100E+01	  0.060681365	-2.307300E+01
205	  0.060881764	-6.114000E+00	  0.060881764	-1.246130E+02	  0.060881764	2.090400E+01	  0.060881764	-2.253300E+01
206	  0.061082166	-6.114000E+00	  0.061082166	-1.258320E+02	  0.061082166	2.070800E+01	  0.061082166	-2.198700E+01
207	  0.061282568	-6.117000E+00	  0.061282568	-1.270420E+02	  0.061282568	2.052800E+01	  0.061282568	-2.144600E+01
208	  0.061482966	-6.120000E+00	  0.061482966	-1.282290E+02	  0.061482966	2.035800E+01	  0.061482966	-2.091900E+01
209	  0.061683368	-6.125000E+00	  0.061683368	-1.294260E+02	  0.061683368	2.019700E+01	  0.061683368	-2.038900E+01
210	  0.061883770	-6.131000E+00	  0.061883770	-1.306020E+02	  0.061883770	2.004700E+01	  0.061883770	-1.987000E+01
211	  0.062084168	-6.136000E+00	  0.062084168	-1.317730E+02	  0.062084168	1.990200E+01	  0.062084168	-1.935700E+01
212	  0.062284570	-6.140000E+00	  0.062284570	-1.329450E+02	  0.062284570	1.975700E+01	  0.062284570	-1.884800E+01
213	  0.062484972	-6.133000E+00	  0.062484972	-1.341020E+02	  0.062484972	1.959100E+01	  0.062484972	-1.835800E+01
214	  0.062685370	-6.138000E+00	  0.062685370	-1.353200E+02	  0.062685370	1.945400E+01	  0.062685370	-1.783400E+01
215	  0.062885776	-6.148000E+00	  0.062885776	-1.364680E+02	  0.062885776	1.934400E+01	  0.062885776	-1.733800E+01
216	  0.063086174	-6.152000E+00	  0.063086174	-1.376710E+02	  0.063086174	1.921700E+01	  0.063086174	-1.682700E+01
217	  0.063286573	-6.157000E+00	  0.063286573	-1.388460E+02	  0.063286573	1.910200E+01	  0.063286573	-1.632900E+01
218	  0.063486971	-6.163000E+00	  0.063486971	-1.400060E+02	  0.063486971	1.899400E+01	  0.063486971	-1.584000E+01
219	  0.063687377	-6.161000E+00	  0.063687377	-1.411710E+02	  0.063687377	1.886900E+01	  0.063687377	-1.535600E+01
220	  0.063887775	-6.167000E+00	  0.063887775	-1.423290E+02	  0.063887775	1.877100E+01	  0.063887775	-1.487300E+01
221	  0.064088173	-6.169000E+00	  0.064088173	-1.435090E+02	  0.064088173	1.866400E+01	  0.064088173	-1.438500E+01
222	  0.064288579	-6.176000E+00	  0.064288579	-1.446750E+02	  0.064288579	1.857300E+01	  0.064288579	-1.390200E+01
223	  0.064488977	-6.179000E+00	  0.064488977	-1.458520E+02	  0.064488977	1.847900E+01	  0.064488977	-1.341800E+01
224	  0.064689375	-6.181000E+00	  0.064689375	-1.470130E+02	  0.064689375	1.838500E+01	  0.064689375	-1.294400E+01
225	  0.064889781	-6.183000E+00	  0.064889781	-1.481770E+02	  0.064889781	1.829600E+01	  0.064889781	-1.247100E+01
226	  0.065090179	-6.187000E+00	  0.065090179	-1.493280E+02	  0.065090179	1.821800E+01	  0.065090179	-1.200300E+01
227	  0.065290578	-6.185000E+00	  0.065290578	-1.504520E+02	  0.065290578	1.812800E+01	  0.065290578	-1.155200E+01
228	  0.065490983	-6.189000E+00	  0.065490983	-1.515690E+02	  0.065490983	1.805800E+01	  0.065490983	-1.110100E+01
229	  0.065691382	-6.187000E+00	  0.065691382	-1.526890E+02	  0.065691382	1.797700E+01	  0.065691382	-1.065400E+01
230	  0.065891780	-6.191000E+00	  0.065891780	-1.538130E+02	  0.065891780	1.791300E+01	  0.065891780	-1.020300E+01
231	  0.066092186	-6.190000E+00	  0.066092186	-1.549100E+02	  0.066092186	1.784300E+01	  0.066092186	-9.767000E+00
232	  0.066292584	-6.188000E+00	  0.066292584	-1.560070E+02	  0.066292584	1.777200E+01	  0.066292584	-9.333000E+00
233	  0.066492982	-6.193000E+00	  0.066492982	-1.571140E+02	  0.066492982	1.772200E+01	  0.066492982	-8.893000E+00
234	  0.066693388	-6.195000E+00	  0.066693388	-1.581960E+02	  0.066693388	1.767000E+01	  0.066693388	-8.465000E+00
235	  0.066893786	-6.199000E+00	  0.066893786	-1.592550E+02	  0.066893786	1.762800E+01	  0.066893786	-8.046000E+00
236	  0.067094192	-6.198000E+00	  0.067094192	-1.603010E+02	  0.067094192	1.757300E+01	  0.067094192	-7.635000E+00
237	  0.067294590	-6.201000E+00	  0.067294590	-1.613580E+02	  0.067294590	1.753300E+01	  0.067294590	-7.220000E+00
238	  0.067494988	-6.202000E+00	  0.067494988	-1.624110E+02	  0.067494988	1.749100E+01	  0.067494988	-6.807000E+00
239	  0.067695394	-6.200000E+00	  0.067695394	-1.634870E+02	  0.067695394	1.744100E+01	  0.067695394	-6.388000E+00
240	  0.067895792	-6.207000E+00	  0.067895792	-1.644930E+02	  0.067895792	1.742200E+01	  0.067895792	-5.994000E+00
241	  0.068096191	-6.215000E+00	  0.068096191	-1.655590E+02	  0.068096191	1.740400E+01	  0.068096191	-5.577000E+00
242	  0.068296596	-6.210000E+00	  0.068296596	-1.665840E+02	  0.068296596	1.735800E+01	  0.068296596	-5.180000E+00
243	  0.068496995	-6.218000E+00	  0.068496995	-1.676130E+02	  0.068496995	1.734800E+01	  0.068496995	-4.779000E+00
244	  0.068697393	-6.225000E+00	  0.068697393	-1.686090E+02	  0.068697393	1.733900E+01	  0.068697393	-4.392000E+00
245	  0.068897791	-6.225000E+00	  0.068897791	-1.696190E+02	  0.068897791	1.731400E+01	  0.068897791	-4.000000E+00
246	  0.069098189	-6.226000E+00	  0.069098189	-1.706480E+02	  0.069098189	1.729300E+01	  0.069098189	-3.603000E+00
247	  0.069298595	-6.230000E+00	  0.069298595	-1.716560E+02	  0.069298595	1.728100E+01	  0.069298595	-3.213000E+00
248	  0.069498993	-6.234000E+00	  0.069498993	-1.726620E+02	  0.069498993	1.727300E+01	  0.069498993	-2.824000E+00
249	  0.069699399	-6.237000E+00	  0.069699399	-1.736790E+02	  0.069699399	1.726500E+01	  0.069699399	-2.432000E+00
250	  0.069899797	-6.244000E+00	  0.069899797	-1.746610E+02	  0.069899797	1.727000E+01	  0.069899797	-2.053000E+00
251	  0.070100196	-6.244000E+00	  0.070100196	-1.756240E+02	  0.070100196	1.725900E+01	  0.070100196	-1.682000E+00
252	  0.070300601	-6.247000E+00	  0.070300601	-1.766460E+02	  0.070300601	1.725700E+01	  0.070300601	-1.289000E+00
253	  0.070501000	-6.249000E+00	  0.070501000	-1.776020E+02	  0.070501000	1.725600E+01	  0.070501000	-9.210000E-01
254	  0.070701398	-6.246000E+00	  0.070701398	-1.785730E+02	  0.070701398	1.724400E+01	  0.070701398	-5.480000E-01
255	  0.070901804	-6.250000E+00	  0.070901804	-1.795240E+02	  0.070901804	1.725300E+01	  0.070901804	-1.820000E-01
256	  0.071102202	-6.253000E+00	  0.071102202	1.794610E+02	  0.071102202	1.726000E+01	  0.071102202	2.060000E-01
257	  0.071302600	-6.260000E+00	  0.071302600	1.785240E+02	  0.071302600	1.728000E+01	  0.071302600	5.670000E-01
258	  0.071503006	-6.262000E+00	  0.071503006	1.775580E+02	  0.071503006	1.728800E+01	  0.071503006	9.370000E-01
259	  0.071703404	-6.267000E+00	  0.071703404	1.766500E+02	  0.071703404	1.730700E+01	  0.071703404	1.286000E+00
260	  0.071903802	-6.270000E+00	  0.071903802	1.757030E+02	  0.071903802	1.732400E+01	  0.071903802	1.650000E+00
261	  0.072104208	-6.273000E+00	  0.072104208	1.747670E+02	  0.072104208	1.734200E+01	  0.072104208	2.010000E+00
262	  0.072304606	-6.276000E+00	  0.072304606	1.738400E+02	  0.072304606	1.736200E+01	  0.072304606	2.366000E+00
263	  0.072505005	-6.281000E+00	  0.072505005	1.729090E+02	  0.072505005	1.738800E+01	  0.072505005	2.724000E+00
264	  0.072705410	-6.286000E+00	  0.072705410	1.719890E+02	  0.072705410	1.741900E+01	  0.072705410	3.077000E+00
265	  0.072905809	-6.297000E+00	  0.072905809	1.710680E+02	  0.072905809	1.746400E+01	  0.072905809	3.430000E+00
266	  0.073106214	-6.302000E+00	  0.073106214	1.701290E+02	  0.073106214	1.749800E+01	  0.073106214	3.792000E+00
267	  0.073306613	-6.310000E+00	  0.073306613	1.692490E+02	  0.073306613	1.753800E+01	  0.073306613	4.130000E+00
268	  0.073507011	-6.319000E+00	  0.073507011	1.683310E+02	  0.073507011	1.758600E+01	  0.073507011	4.482000E+00
269	  0.073707417	-6.329000E+00	  0.073707417	1.673870E+02	  0.073707417	1.763900E+01	  0.073707417	4.844000E+00
270	  0.073907815	-6.339000E+00	  0.073907815	1.664920E+02	  0.073907815	1.769200E+01	  0.073907815	5.188000E+00
271	  0.074108213	-6.347000E+00	  0.074108213	1.655770E+02	  0.074108213	1.774300E+01	  0.074108213	5.540000E+00
272	  0.074308619	-6.355000E+00	  0.074308619	1.646580E+02	  0.074308619	1.779600E+01	  0.074308619	5.894000E+00
273	  0.074509017	-6.368000E+00	  0.074509017	1.637200E+02	  0.074509017	1.786400E+01	  0.074509017	6.254000E+00
274	  0.074709415	-6.377000E+00	  0.074709415	1.628080E+02	  0.074709415	1.792500E+01	  0.074709415	6.605000E+00
275	  0.074909821	-6.389000E+00	  0.074909821	1.618860E+02	  0.074909821	1.799400E+01	  0.074909821	6.960000E+00
276	  0.075110219	-6.403000E+00	  0.075110219	1.609630E+02	  0.075110219	1.807200E+01	  0.075110219	7.314000E+00
277	  0.075310618	-6.412000E+00	  0.075310618	1.600370E+02	  0.075310618	1.813700E+01	  0.075310618	7.672000E+00
278	  0.075511023	-6.428000E+00	  0.075511023	1.591070E+02	  0.075511023	1.822500E+01	  0.075511023	8.028000E+00
279	  0.075711422	-6.433000E+00	  0.075711422	1.581970E+02	  0.075711422	1.828500E+01	  0.075711422	8.382000E+00
280	  0.075911827	-6.443000E+00	  0.075911827	1.572870E+02	  0.075911827	1.836100E+01	  0.075911827	8.733000E+00
281	  0.076112226	-6.454000E+00	  0.076112226	1.563440E+02	  0.076112226	1.844400E+01	  0.076112226	9.098000E+00
282	  0.076312624	-6.467000E+00	  0.076312624	1.554490E+02	  0.076312624	1.853100E+01	  0.076312624	9.443000E+00
283	  0.076513030	-6.477000E+00	  0.076513030	1.545100E+02	  0.076513030	1.861400E+01	  0.076513030	9.808000E+00
284	  0.076713428	-6.487000E+00	  0.076713428	1.535970E+02	  0.076713428	1.870100E+01	  0.076713428	1.016200E+01
285	  0.076913826	-6.495000E+00	  0.076913826	1.526950E+02	  0.076913826	1.878300E+01	  0.076913826	1.051300E+01
286	  0.077114232	-6.506000E+00	  0.077114232	1.518000E+02	  0.077114232	1.887400E+01	  0.077114232	1.086200E+01
287	  0.077314630	-6.511000E+00	  0.077314630	1.509050E+02	  0.077314630	1.895300E+01	  0.077314630	1.121300E+01
288	  0.077515028	-6.517000E+00	  0.077515028	1.500200E+02	  0.077515028	1.903600E+01	  0.077515028	1.156000E+01
289	  0.077715434	-6.523000E+00	  0.077715434	1.491360E+02	  0.077715434	1.912000E+01	  0.077715434	1.190800E+01
290	  0.077915832	-6.533000E+00	  0.077915832	1.482710E+02	  0.077915832	1.921600E+01	  0.077915832	1.224600E+01
291	  0.078116231	-6.543000E+00	  0.078116231	1.474050E+02	  0.078116231	1.931400E+01	  0.078116231	1.258600E+01
292	  0.078316636	-6.545000E+00	  0.078316636	1.465250E+02	  0.078316636	1.939600E+01	  0.078316636	1.293600E+01
293	  0.078517035	-6.557000E+00	  0.078517035	1.456750E+02	  0.078517035	1.950200E+01	  0.078517035	1.327000E+01
294	  0.078717433	-6.562000E+00	  0.078717433	1.448350E+02	  0.078717433	1.959300E+01	  0.078717433	1.360300E+01
295	  0.078917839	-6.575000E+00	  0.078917839	1.440420E+02	  0.078917839	1.970200E+01	  0.078917839	1.391400E+01
296	  0.079118237	-6.582000E+00	  0.079118237	1.432390E+02	  0.079118237	1.980000E+01	  0.079118237	1.423300E+01
297	  0.079318643	-6.597000E+00	  0.079318643	1.424530E+02	  0.079318643	1.991600E+01	  0.079318643	1.454100E+01
298	  0.079519041	-6.605000E+00	  0.079519041	1.416510E+02	  0.079519041	2.002200E+01	  0.079519041	1.485900E+01
299	  0.079719439	-6.621000E+00	  0.079719439	1.408430E+02	  0.079719439	2.014800E+01	  0.079719439	1.517600E+01
300	  0.079919845	-6.633000E+00	  0.079919845	1.400660E+02	  0.079919845	2.026600E+01	  0.079919845	1.548300E+01
301	  0.080120243	-6.649000E+00	  0.080120243	1.392510E+02	  0.080120243	2.039900E+01	  0.080120243	1.580200E+01
302	  0.080320641	-6.668000E+00	  0.080320641	1.385020E+02	  0.080320641	2.053300E+01	  0.080320641	1.609400E+01
303	  0.080521047	-6.681000E+00	  0.080521047	1.377050E+02	  0.080521047	2.066200E+01	  0.080521047	1.640900E+01
304	  0.080721445	-6.698000E+00	  0.080721445	1.369370E+02	  0.080721445	2.080200E+01	  0.080721445	1.671000E+01
305	  0.080921844	-6.716000E+00	  0.080921844	1.361670E+02	  0.080921844	2.094400E+01	  0.080921844	1.701100E+01
306	  0.081122249	-6.738000E+00	  0.081122249	1.353850E+02	  0.081122249	2.110300E+01	  0.081122249	1.731400E+01
307	  0.081322648	-6.760000E+00	  0.081322648	1.346250E+02	  0.081322648	2.125900E+01	  0.081322648	1.760800E+01
308	  0.081523046	-6.781000E+00	  0.081523046	1.338290E+02	  0.081523046	2.142100E+01	  0.081523046	1.791700E+01
309	  0.081723452	-6.797000E+00	  0.081723452	1.330600E+02	  0.081723452	2.157000E+01	  0.081723452	1.822000E+01
310	  0.081923850	-6.818000E+00	  0.081923850	1.322670E+02	  0.081923850	2.173700E+01	  0.081923850	1.852900E+01
311	  0.082124248	-6.841000E+00	  0.082124248	1.314850E+02	  0.082124248	2.191200E+01	  0.082124248	1.883100E+01
312	  0.082324654	-6.862000E+00	  0.082324654	1.307160E+02	  0.082324654	2.208100E+01	  0.082324654	1.913000E+01
313	  0.082525052	-6.887000E+00	  0.082525052	1.299100E+02	  0.082525052	2.227000E+01	  0.082525052	1.944000E+01
314	  0.082725458	-6.910000E+00	  0.082725458	1.291430E+02	  0.082725458	2.245200E+01	  0.082725458	1.973600E+01
315	  0.082925856	-6.928000E+00	  0.082925856	1.283480E+02	  0.082925856	2.262400E+01	  0.082925856	2.004900E+01
316	  0.083126254	-6.953000E+00	  0.083126254	1.275590E+02	  0.083126254	2.281900E+01	  0.083126254	2.035200E+01
317	  0.083326660	-6.973000E+00	  0.083326660	1.267610E+02	  0.083326660	2.300500E+01	  0.083326660	2.066400E+01
318	  0.083527058	-6.997000E+00	  0.083527058	1.259660E+02	  0.083527058	2.320500E+01	  0.083527058	2.097000E+01
319	  0.083727457	-7.016000E+00	  0.083727457	1.251910E+02	  0.083727457	2.339000E+01	  0.083727457	2.127400E+01
320	  0.083927862	-7.038000E+00	  0.083927862	1.244230E+02	  0.083927862	2.358800E+01	  0.083927862	2.157100E+01
321	  0.084128261	-7.060000E+00	  0.084128261	1.236300E+02	  0.084128261	2.379000E+01	  0.084128261	2.187900E+01
322	  0.084328659	-7.081000E+00	  0.084328659	1.228520E+02	  0.084328659	2.399100E+01	  0.084328659	2.218100E+01
323	  0.084529065	-7.102000E+00	  0.084529065	1.220910E+02	  0.084529065	2.419300E+01	  0.084529065	2.247600E+01
324	  0.084729463	-7.124000E+00	  0.084729463	1.213320E+02	  0.084729463	2.439900E+01	  0.084729463	2.277000E+01
325	  0.084929854	-7.141000E+00	  0.084929854	1.205830E+02	  0.084929854	2.459500E+01	  0.084929854	2.306400E+01
326	  0.085130259	-7.156000E+00	  0.085130259	1.198260E+02	  0.085130259	2.478800E+01	  0.085130259	2.336500E+01
327	  0.085330658	-7.176000E+00	  0.085330658	1.190740E+02	  0.085330658	2.499700E+01	  0.085330658	2.365800E+01
328	  0.085531056	-7.190000E+00	  0.085531056	1.183480E+02	  0.085531056	2.518900E+01	  0.085531056	2.394600E+01
329	  0.085731462	-7.211000E+00	  0.085731462	1.176330E+02	  0.085731462	2.540000E+01	  0.085731462	2.422200E+01
330	  0.085931860	-7.231000E+00	  0.085931860	1.169300E+02	  0.085931860	2.560700E+01	  0.085931860	2.449400E+01
331	  0.086132258	-7.250000E+00	  0.086132258	1.162630E+02	  0.086132258	2.580800E+01	  0.086132258	2.475000E+01
332	  0.086332664	-7.273000E+00	  0.086332664	1.155800E+02	  0.086332664	2.602600E+01	  0.086332664	2.500900E+01
333	  0.086533062	-7.292000E+00	  0.086533062	1.148970E+02	  0.086533062	2.623700E+01	  0.086533062	2.527100E+01
334	  0.086733460	-7.311000E+00	  0.086733460	1.142030E+02	  0.086733460	2.645400E+01	  0.086733460	2.553900E+01
335	  0.086933866	-7.330000E+00	  0.086933866	1.135800E+02	  0.086933866	2.665600E+01	  0.086933866	2.577500E+01
336	  0.087134264	-7.353000E+00	  0.087134264	1.128390E+02	  0.087134264	2.689900E+01	  0.087134264	2.605700E+01
337	  0.087334670	-7.381000E+00	  0.087334670	1.122180E+02	  0.087334670	2.713300E+01	  0.087334670	2.627600E+01
338	  0.087535068	-7.404000E+00	  0.087535068	1.115550E+02	  0.087535068	2.736500E+01	  0.087535068	2.652200E+01
339	  0.087735467	-7.432000E+00	  0.087735467	1.109260E+02	  0.087735467	2.760400E+01	  0.087735467	2.674400E+01
340	  0.087935872	-7.460000E+00	  0.087935872	1.102990E+02	  0.087935872	2.784500E+01	  0.087935872	2.696500E+01
341	  0.088136271	-7.481000E+00	  0.088136271	1.096680E+02	  0.088136271	2.807100E+01	  0.088136271	2.719900E+01
342	  0.088336669	-7.509000E+00	  0.088336669	1.090120E+02	  0.088336669	2.832700E+01	  0.088336669	2.742900E+01
343	  0.088537075	-7.533000E+00	  0.088537075	1.083610E+02	  0.088537075	2.857300E+01	  0.088537075	2.766400E+01
344	  0.088737473	-7.553000E+00	  0.088737473	1.077560E+02	  0.088737473	2.879700E+01	  0.088737473	2.788600E+01
345	  0.088937871	-7.581000E+00	  0.088937871	1.070980E+02	  0.088937871	2.906300E+01	  0.088937871	2.811500E+01
346	  0.089138277	-7.609000E+00	  0.089138277	1.064870E+02	  0.089138277	2.931500E+01	  0.089138277	2.832300E+01
347	  0.089338675	-7.638000E+00	  0.089338675	1.058630E+02	  0.089338675	2.958100E+01	  0.089338675	2.853200E+01
348	  0.089539073	-7.668000E+00	  0.089539073	1.052530E+02	  0.089539073	2.984600E+01	  0.089539073	2.873300E+01
349	  0.089739479	-7.695000E+00	  0.089739479	1.046300E+02	  0.089739479	3.010900E+01	  0.089739479	2.894500E+01
350	  0.089939877	-7.720000E+00	  0.089939877	1.040100E+02	  0.089939877	3.037000E+01	  0.089939877	2.915600E+01
351	  0.090140276	-7.754000E+00	  0.090140276	1.033930E+02	  0.090140276	3.065600E+01	  0.090140276	2.934800E+01
352	  0.090340681	-7.773000E+00	  0.090340681	1.027800E+02	  0.090340681	3.090400E+01	  0.090340681	2.956700E+01
353	  0.090541080	-7.803000E+00	  0.090541080	1.021880E+02	  0.090541080	3.117800E+01	  0.090541080	2.975300E+01
354	  0.090741485	-7.829000E+00	  0.090741485	1.015580E+02	  0.090741485	3.145500E+01	  0.090741485	2.996300E+01
355	  0.090941884	-7.856000E+00	  0.090941884	1.009630E+02	  0.090941884	3.172800E+01	  0.090941884	3.015200E+01
356	  0.091142282	-7.881000E+00	  0.091142282	1.003670E+02	  0.091142282	3.199600E+01	  0.091142282	3.034800E+01
357	  0.091342688	-7.910000E+00	  0.091342688	9.977000E+01	  0.091342688	3.227900E+01	  0.091342688	3.053200E+01
358	  0.091543086	-7.937000E+00	  0.091543086	9.919200E+01	  0.091543086	3.255500E+01	  0.091543086	3.071000E+01
359	  0.091743484	-7.960000E+00	  0.091743484	9.859800E+01	  0.091743484	3.282600E+01	  0.091743484	3.090400E+01
360	  0.091943890	-7.987000E+00	  0.091943890	9.800800E+01	  0.091943890	3.311000E+01	  0.091943890	3.108500E+01
361	  0.092144288	-8.007000E+00	  0.092144288	9.743100E+01	  0.092144288	3.337500E+01	  0.092144288	3.127500E+01
362	  0.092344686	-8.027000E+00	  0.092344686	9.685600E+01	  0.092344686	3.363900E+01	  0.092344686	3.146500E+01
363	  0.092545092	-8.049000E+00	  0.092545092	9.631900E+01	  0.092545092	3.389900E+01	  0.092545092	3.163000E+01
364	  0.092745490	-8.074000E+00	  0.092745490	9.579100E+01	  0.092745490	3.416700E+01	  0.092745490	3.178400E+01
365	  0.092945889	-8.097000E+00	  0.092945889	9.522400E+01	  0.092945889	3.444300E+01	  0.092945889	3.196000E+01
366	  0.093146294	-8.122000E+00	  0.093146294	9.472200E+01	  0.093146294	3.470500E+01	  0.093146294	3.209800E+01
367	  0.093346693	-8.144000E+00	  0.093346693	9.417400E+01	  0.093346693	3.497900E+01	  0.093346693	3.226400E+01
368	  0.093547091	-8.163000E+00	  0.093547091	9.365100E+01	  0.093547091	3.523600E+01	  0.093547091	3.242600E+01
369	  0.093747497	-8.184000E+00	  0.093747497	9.315600E+01	  0.093747497	3.549000E+01	  0.093747497	3.256900E+01
370	  0.093947895	-8.203000E+00	  0.093947895	9.263500E+01	  0.093947895	3.575100E+01	  0.093947895	3.272800E+01
371	  0.094148301	-8.228000E+00	  0.094148301	9.214400E+01	  0.094148301	3.601900E+01	  0.094148301	3.285700E+01
372	  0.094348699	-8.247000E+00	  0.094348699	9.169500E+01	  0.094348699	3.625500E+01	  0.094348699	3.298300E+01
373	  0.094549097	-8.274000E+00	  0.094549097	9.119900E+01	  0.094549097	3.653400E+01	  0.094549097	3.310500E+01
374	  0.094749503	-8.294000E+00	  0.094749503	9.071100E+01	  0.094749503	3.679400E+01	  0.094749503	3.323900E+01
375	  0.094949901	-8.317000E+00	  0.094949901	9.027500E+01	  0.094949901	3.704000E+01	  0.094949901	3.334600E+01
376	  0.095150299	-8.332000E+00	  0.095150299	8.979700E+01	  0.095150299	3.728600E+01	  0.095150299	3.348900E+01
377	  0.095350705	-8.355000E+00	  0.095350705	8.933400E+01	  0.095350705	3.754800E+01	  0.095350705	3.360200E+01
378	  0.095551103	-8.373000E+00	  0.095551103	8.886300E+01	  0.095551103	3.780200E+01	  0.095551103	3.373200E+01
379	  0.095751502	-8.390000E+00	  0.095751502	8.838400E+01	  0.095751502	3.806000E+01	  0.095751502	3.386600E+01
380	  0.095951907	-8.405000E+00	  0.095951907	8.792900E+01	  0.095951907	3.830300E+01	  0.095951907	3.399600E+01
381	  0.096152306	-8.424000E+00	  0.096152306	8.748800E+01	  0.096152306	3.855400E+01	  0.096152306	3.410500E+01
382	  0.096352704	-8.442000E+00	  0.096352704	8.702800E+01	  0.096352704	3.880900E+01	  0.096352704	3.422600E+01
383	  0.096553110	-8.454000E+00	  0.096553110	8.656200E+01	  0.096553110	3.905700E+01	  0.096553110	3.436400E+01
384	  0.096753508	-8.465000E+00	  0.096753508	8.614500E+01	  0.096753508	3.928200E+01	  0.096753508	3.448500E+01
385	  0.096953906	-8.481000E+00	  0.096953906	8.571800E+01	  0.096953906	3.952400E+01	  0.096953906	3.459500E+01
386	  0.097154312	-8.494000E+00	  0.097154312	8.529200E+01	  0.097154312	3.976000E+01	  0.097154312	3.471200E+01
387	  0.097354710	-8.504000E+00	  0.097354710	8.484500E+01	  0.097354710	4.000000E+01	  0.097354710	3.484600E+01
388	  0.097555116	-8.516000E+00	  0.097555116	8.443000E+01	  0.097555116	4.023200E+01	  0.097555116	3.496100E+01
389	  0.097755514	-8.522000E+00	  0.097755514	8.400100E+01	  0.097755514	4.045700E+01	  0.097755514	3.510000E+01
390	  0.097955912	-8.534000E+00	  0.097955912	8.359600E+01	  0.097955912	4.068800E+01	  0.097955912	3.520800E+01
391	  0.098156318	-8.538000E+00	  0.098156318	8.317400E+01	  0.098156318	4.091000E+01	  0.098156318	3.534700E+01
392	  0.098356716	-8.545000E+00	  0.098356716	8.278200E+01	  0.098356716	4.112600E+01	  0.098356716	3.546400E+01
393	  0.098557115	-8.551000E+00	  0.098557115	8.233300E+01	  0.098557115	4.136900E+01	  0.098557115	3.560700E+01
394	  0.098757520	-8.554000E+00	  0.098757520	8.196900E+01	  0.098757520	4.156500E+01	  0.098757520	3.572600E+01
395	  0.098957919	-8.559000E+00	  0.098957919	8.152300E+01	  0.098957919	4.180900E+01	  0.098957919	3.586800E+01
396	  0.099158317	-8.560000E+00	  0.099158317	8.111200E+01	  0.099158317	4.202600E+01	  0.099158317	3.601100E+01
397	  0.099358723	-8.559000E+00	  0.099358723	8.070500E+01	  0.099358723	4.223900E+01	  0.099358723	3.616000E+01
398	  0.099559121	-8.562000E+00	  0.099559121	8.028800E+01	  0.099559121	4.247100E+01	  0.099559121	3.629400E+01
399	  0.099759519	-8.567000E+00	  0.099759519	7.992300E+01	  0.099759519	4.267900E+01	  0.099759519	3.640500E+01
400	  0.099959925	-8.554000E+00	  0.099959925	7.954700E+01	  0.099959925	4.285300E+01	  0.099959925	3.658400E+01
401	  0.100160323	-8.557000E+00	  0.100160323	7.910100E+01	  0.100160323	4.310600E+01	  0.100160323	3.672900E+01
402	  0.100360721	-8.560000E+00	  0.100360721	7.870900E+01	  0.100360721	4.333200E+01	  0.100360721	3.685100E+01
403	  0.100561127	-8.561000E+00	  0.100561127	7.829100E+01	  0.100561127	4.356800E+01	  0.100561127	3.699100E+01
404	  0.100761525	-8.554000E+00	  0.100761525	7.784300E+01	  0.100761525	4.380600E+01	  0.100761525	3.717100E+01
405	  0.100961931	-8.560000E+00	  0.100961931	7.745700E+01	  0.100961931	4.403900E+01	  0.100961931	3.728100E+01
406	  0.101162329	-8.549000E+00	  0.101162329	7.703800E+01	  0.101162329	4.425500E+01	  0.101162329	3.746700E+01
407	  0.101362728	-8.556000E+00	  0.101362728	7.660600E+01	  0.101362728	4.452300E+01	  0.101362728	3.758400E+01
408	  0.101563133	-8.556000E+00	  0.101563133	7.616400E+01	  0.101563133	4.478200E+01	  0.101563133	3.773300E+01
409	  0.101763532	-8.553000E+00	  0.101763532	7.574100E+01	  0.101763532	4.502500E+01	  0.101763532	3.788700E+01
410	  0.101963930	-8.552000E+00	  0.101963930	7.526200E+01	  0.101963930	4.530900E+01	  0.101963930	3.805100E+01
411	  0.102164328	-8.545000E+00	  0.102164328	7.478700E+01	  0.102164328	4.558200E+01	  0.102164328	3.823500E+01
412	  0.102364726	-8.544000E+00	  0.102364726	7.431300E+01	  0.102364726	4.587000E+01	  0.102364726	3.839400E+01
413	  0.102565125	-8.541000E+00	  0.102565125	7.386400E+01	  0.102565125	4.614100E+01	  0.102565125	3.855200E+01
414	  0.102765530	-8.535000E+00	  0.102765530	7.334800E+01	  0.102765530	4.645000E+01	  0.102765530	3.874500E+01
415	  0.102965929	-8.534000E+00	  0.102965929	7.287900E+01	  0.102965929	4.674500E+01	  0.102965929	3.889700E+01
416	  0.103166327	-8.528000E+00	  0.103166327	7.238200E+01	  0.103166327	4.705000E+01	  0.103166327	3.908000E+01
417	  0.103366733	-8.522000E+00	  0.103366733	7.184000E+01	  0.103366733	4.738700E+01	  0.103366733	3.927700E+01
418	  0.103567131	-8.521000E+00	  0.103567131	7.131500E+01	  0.103567131	4.772800E+01	  0.103567131	3.944500E+01
419	  0.103767529	-8.515000E+00	  0.103767529	7.079600E+01	  0.103767529	4.805800E+01	  0.103767529	3.963300E+01
420	  0.103967935	-8.511000E+00	  0.103967935	7.025700E+01	  0.103967935	4.841000E+01	  0.103967935	3.981600E+01
421	  0.104168333	-8.489000E+00	  0.104168333	6.971200E+01	  0.104168333	4.873700E+01	  0.104168333	4.007600E+01
422	  0.104368731	-8.495000E+00	  0.104368731	6.917800E+01	  0.104368731	4.911500E+01	  0.104368731	4.020900E+01
423	  0.104569137	-8.482000E+00	  0.104569137	6.866800E+01	  0.104569137	4.944300E+01	  0.104569137	4.041900E+01
424	  0.104769535	-8.480000E+00	  0.104769535	6.811500E+01	  0.104769535	4.982800E+01	  0.104769535	4.059100E+01
425	  0.104969934	-8.464000E+00	  0.104969934	6.762200E+01	  0.104969934	5.014600E+01	  0.104969934	4.081100E+01
426	  0.105170339	-8.453000E+00	  0.105170339	6.706000E+01	  0.105170339	5.053000E+01	  0.105170339	4.102300E+01
427	  0.105370738	-8.446000E+00	  0.105370738	6.657400E+01	  0.105370738	5.087100E+01	  0.105370738	4.119300E+01
428	  0.105571143	-8.437000E+00	  0.105571143	6.599800E+01	  0.105571143	5.127900E+01	  0.105571143	4.139600E+01
429	  0.105771542	-8.424000E+00	  0.105771542	6.548100E+01	  0.105771542	5.163900E+01	  0.105771542	4.160600E+01
430	  0.105971940	-8.414000E+00	  0.105971940	6.496000E+01	  0.105971940	5.201500E+01	  0.105971940	4.179300E+01
431	  0.106172346	-8.392000E+00	  0.106172346	6.438500E+01	  0.106172346	5.241600E+01	  0.106172346	4.205700E+01
432	  0.106372744	-8.387000E+00	  0.106372744	6.385300E+01	  0.106372744	5.281800E+01	  0.106372744	4.222800E+01
433	  0.106573142	-8.370000E+00	  0.106573142	6.330700E+01	  0.106573142	5.321900E+01	  0.106573142	4.245200E+01
434	  0.106773548	-8.357000E+00	  0.106773548	6.276200E+01	  0.106773548	5.362800E+01	  0.106773548	4.266200E+01
435	  0.106973946	-8.343000E+00	  0.106973946	6.224800E+01	  0.106973946	5.401800E+01	  0.106973946	4.286300E+01
436	  0.107174344	-8.324000E+00	  0.107174344	6.169000E+01	  0.107174344	5.444100E+01	  0.107174344	4.310300E+01
437	  0.107374750	-8.316000E+00	  0.107374750	6.112800E+01	  0.107374750	5.489300E+01	  0.107374750	4.327900E+01
438	  0.107575148	-8.294000E+00	  0.107575148	6.055900E+01	  0.107575148	5.533300E+01	  0.107575148	4.353500E+01
439	  0.107775547	-8.285000E+00	  0.107775547	5.997900E+01	  0.107775547	5.581100E+01	  0.107775547	4.371800E+01
440	  0.107975952	-8.262000E+00	  0.107975952	5.941100E+01	  0.107975952	5.626300E+01	  0.107975952	4.397800E+01
441	  0.108176351	-8.250000E+00	  0.108176351	5.884200E+01	  0.108176351	5.674000E+01	  0.108176351	4.417000E+01
442	  0.108376749	-8.241000E+00	  0.108376749	5.826500E+01	  0.108376749	5.723600E+01	  0.108376749	4.434400E+01
443	  0.108577155	-8.225000E+00	  0.108577155	5.763200E+01	  0.108577155	5.778000E+01	  0.108577155	4.456600E+01
444	  0.108777553	-8.214000E+00	  0.108777553	5.703600E+01	  0.108777553	5.830400E+01	  0.108777553	4.475100E+01
445	  0.108977959	-8.203000E+00	  0.108977959	5.640200E+01	  0.108977959	5.887200E+01	  0.108977959	4.493600E+01
446	  0.109178357	-8.188000E+00	  0.109178357	5.575500E+01	  0.109178357	5.945700E+01	  0.109178357	4.514200E+01
447	  0.109378755	-8.179000E+00	  0.109378755	5.511600E+01	  0.109378755	6.004900E+01	  0.109378755	4.530800E+01
448	  0.109579161	-8.161000E+00	  0.109579161	5.452100E+01	  0.109579161	6.059900E+01	  0.109579161	4.552100E+01
449	  0.109779559	-8.151000E+00	  0.109779559	5.384000E+01	  0.109779559	6.125000E+01	  0.109779559	4.568300E+01
450	  0.109979957	-8.139000E+00	  0.109979957	5.314600E+01	  0.109979957	6.192100E+01	  0.109979957	4.586100E+01
451	  0.110180363	-8.126000E+00	  0.110180363	5.247400E+01	  0.110180363	6.258100E+01	  0.110180363	4.603300E+01
452	  0.110380761	-8.107000E+00	  0.110380761	5.177500E+01	  0.110380761	6.327500E+01	  0.110380761	4.624000E+01
453	  0.110581160	-8.102000E+00	  0.110581160	5.109700E+01	  0.110581160	6.396800E+01	  0.110581160	4.634400E+01
454	  0.110781565	-8.090000E+00	  0.110781565	5.040000E+01	  0.110781565	6.468800E+01	  0.110781565	4.649200E+01
455	  0.110981964	-8.078000E+00	  0.110981964	4.968600E+01	  0.110981964	6.543600E+01	  0.110981964	4.663000E+01
456	  0.111182362	-8.073000E+00	  0.111182362	4.898800E+01	  0.111182362	6.618300E+01	  0.111182362	4.670900E+01
457	  0.111382768	-8.062000E+00	  0.111382768	4.830100E+01	  0.111382768	6.692700E+01	  0.111382768	4.681300E+01
458	  0.111583166	-8.048000E+00	  0.111583166	4.752800E+01	  0.111583166	6.777600E+01	  0.111583166	4.693800E+01
459	  0.111783572	-8.040000E+00	  0.111783572	4.678900E+01	  0.111783572	6.860100E+01	  0.111783572	4.700400E+01
460	  0.111983970	-8.038000E+00	  0.111983970	4.606700E+01	  0.111983970	6.941900E+01	  0.111983970	4.701200E+01
461	  0.112184368	-8.029000E+00	  0.112184368	4.532600E+01	  0.112184368	7.027000E+01	  0.112184368	4.706300E+01
462	  0.112384774	-8.018000E+00	  0.112384774	4.453800E+01	  0.112384774	7.119100E+01	  0.112384774	4.710900E+01
463	  0.112585172	-8.019000E+00	  0.112585172	4.377800E+01	  0.112585172	7.208400E+01	  0.112585172	4.704300E+01
464	  0.112785570	-8.015000E+00	  0.112785570	4.298700E+01	  0.112785570	7.302900E+01	  0.112785570	4.699500E+01
465	  0.112985976	-8.011000E+00	  0.112985976	4.221000E+01	  0.112985976	7.396800E+01	  0.112985976	4.693500E+01
466	  0.113186374	-8.007000E+00	  0.113186374	4.145400E+01	  0.113186374	7.489400E+01	  0.113186374	4.686000E+01
467	  0.113386773	-8.018000E+00	  0.113386773	4.066000E+01	  0.113386773	7.585700E+01	  0.113386773	4.662700E+01
468	  0.113587178	-8.012000E+00	  0.113587178	3.979800E+01	  0.113587178	7.693600E+01	  0.113587178	4.650000E+01
469	  0.113787577	-8.025000E+00	  0.113787577	3.896900E+01	  0.113787577	7.795500E+01	  0.113787577	4.620300E+01
470	  0.113987975	-8.030000E+00	  0.113987975	3.811300E+01	  0.113987975	7.902700E+01	  0.113987975	4.592700E+01
471	  0.114188381	-8.031000E+00	  0.114188381	3.731000E+01	  0.114188381	8.004600E+01	  0.114188381	4.568100E+01
472	  0.114388779	-8.041000E+00	  0.114388779	3.644500E+01	  0.114388779	8.113100E+01	  0.114388779	4.530700E+01
473	  0.114589177	-8.051000E+00	  0.114589177	3.554000E+01	  0.114589177	8.227100E+01	  0.114589177	4.488400E+01
474	  0.114789583	-8.058000E+00	  0.114789583	3.470600E+01	  0.114789583	8.332800E+01	  0.114789583	4.447600E+01
475	  0.114989981	-8.066000E+00	  0.114989981	3.384500E+01	  0.114989981	8.441900E+01	  0.114989981	4.401800E+01
476	  0.115190387	-8.079000E+00	  0.115190387	3.291300E+01	  0.115190387	8.558500E+01	  0.115190387	4.344900E+01
477	  0.115390785	-8.095000E+00	  0.115390785	3.195600E+01	  0.115390785	8.677100E+01	  0.115390785	4.280200E+01
478	  0.115591183	-8.118000E+00	  0.115591183	3.102900E+01	  0.115591183	8.788400E+01	  0.115591183	4.207200E+01
479	  0.115791589	-8.133000E+00	  0.115791589	3.010100E+01	  0.115791589	8.901800E+01	  0.115791589	4.136500E+01
480	  0.115991987	-8.147000E+00	  0.115991987	2.912700E+01	  0.115991987	9.020200E+01	  0.115991987	4.058600E+01
481	  0.116192386	-8.170000E+00	  0.116192386	2.814700E+01	  0.116192386	9.134000E+01	  0.116192386	3.968900E+01
482	  0.116392791	-8.191000E+00	  0.116392791	2.717800E+01	  0.116392791	9.245400E+01	  0.116392791	3.877100E+01
483	  0.116593190	-8.219000E+00	  0.116593190	2.616600E+01	  0.116593190	9.355900E+01	  0.116593190	3.771300E+01
484	  0.116793588	-8.235000E+00	  0.116793588	2.514400E+01	  0.116793588	9.471600E+01	  0.116793588	3.669500E+01
485	  0.116993994	-8.267000E+00	  0.116993994	2.411000E+01	  0.116993994	9.576600E+01	  0.116993994	3.549500E+01
486	  0.117194392	-8.292000E+00	  0.117194392	2.303600E+01	  0.117194392	9.686200E+01	  0.117194392	3.425500E+01
487	  0.117394790	-8.315000E+00	  0.117394790	2.199500E+01	  0.117394790	9.790100E+01	  0.117394790	3.302100E+01
488	  0.117595196	-8.353000E+00	  0.117595196	2.093700E+01	  0.117595196	9.880300E+01	  0.117595196	3.160900E+01
489	  0.117795594	-8.391000E+00	  0.117795594	1.986500E+01	  0.117795594	9.966800E+01	  0.117795594	3.014100E+01
490	  0.117995992	-8.425000E+00	  0.117995992	1.876800E+01	  0.117995992	1.005370E+02	  0.117995992	2.864000E+01
491	  0.118196398	-8.461000E+00	  0.118196398	1.767500E+01	  0.118196398	1.013210E+02	  0.118196398	2.708600E+01
492	  0.118396796	-8.502000E+00	  0.118396796	1.655400E+01	  0.118396796	1.020310E+02	  0.118396796	2.543700E+01
