! Anritsu VNA Master:             	Model: MS2036C/10/77
! SN:             	1601066
! /bd0/18may26.balun/4b.47.3.txt
! Existing Calibration Information:
! TYPE:             	Current Settings	Active Cal Settings
! TIME:             	05/26/2018 05:14:41 PM	05/26/2018 05:08:07 PM
! INTERNAL TEMP:    	52.8 C	52.5 C
! # POINTS:         	500	500
! START FREQ:       	20.000 MHz	20.000 MHz
! STOP FREQ:        	120.000 MHz	120.000 MHz
! SOURCE POWER:     	High	High
! IFBW:             	50 Hz	50 Hz
! AVG FACTOR:       	  1 	  1 
! REF PLANE 1:      	0 mm	0 mm
! REF PLANE 2:      	0 mm	0 mm
! CAL TYPE:         	Full S11	Full S11
! CAL METHOD:       	SOLT	SOLT
! CAL LINE TYPE:    	Coax	Coax
! DUT PORT 1:       	K-Conn(M)	K-Conn(M)
! DUT PORT 2:       	K-Conn(M)	K-Conn(M)
! CAL STATUS:       	OK: Accuracy High	--
! PROP-V:       	0.700
! CABLE LOSS:       	0.000 dB/m
! REF IMPEDANCE:       	50.0
! Trace Specific Parameters:	TR1	TR2	TR3	TR4
! TRACE.#.Y (GRAPH TYPE)	LOG MAG	PHASE	REAL IMPEDANCE	IMAGINARY IMPEDANCE
! TRACE.#.X 	FREQ.GHZ	FREQ.GHZ	FREQ.GHZ	FREQ.GHZ
! S-PARAMETER	S11	S11	S11	S11
! SMOOTH/APERTURE %	0	0	0	0
! WINDOW	NSL	NSL	NSL	NSL
! GATING	OFF	OFF	OFF	OFF
! FGTD	OFF	OFF	OFF	OFF
Marker Information per Trace:	TR1	TR2	TR3	TR4
!MK1	--	--	--	--
!MK2	--	--	--	--
!MK3	--	--	--	--
!MK4	--	--	--	--
!MK5	--	--	--	--
!MK6	--	--	--	--
!MK7	--	--	--	--
!MK8	--	--	--	--
PNT	TR1.FREQ.GHZ	TR1.LOG MAG.dB	TR2.FREQ.GHZ	TR2.PHASE.deg	TR3.FREQ.GHZ	TR3.REAL IMPEDANCE.ohm	TR4.FREQ.GHZ	TR4.IMAGINARY IMPEDANCE.ohm
1	  0.020000000	-2.000000E-02	  0.020000000	-5.601600E+01	  0.020000000	2.680000E-01	  0.020000000	-9.400200E+01
2	  0.020200402	-1.600000E-02	  0.020200402	-5.658800E+01	  0.020200402	2.140000E-01	  0.020200402	-9.288100E+01
3	  0.020400802	-1.400000E-02	  0.020400802	-5.715000E+01	  0.020400802	1.780000E-01	  0.020400802	-9.180100E+01
4	  0.020601204	-1.300000E-02	  0.020601204	-5.769200E+01	  0.020601204	1.630000E-01	  0.020601204	-9.077500E+01
5	  0.020801604	-1.400000E-02	  0.020801604	-5.824400E+01	  0.020801604	1.700000E-01	  0.020801604	-8.975000E+01
6	  0.021002004	-1.100000E-02	  0.021002004	-5.880900E+01	  0.021002004	1.390000E-01	  0.021002004	-8.871800E+01
7	  0.021202406	-1.400000E-02	  0.021202406	-5.937700E+01	  0.021202406	1.730000E-01	  0.021202406	-8.769900E+01
8	  0.021402806	-1.500000E-02	  0.021402806	-5.991200E+01	  0.021402806	1.830000E-01	  0.021402806	-8.675400E+01
9	  0.021603208	-1.800000E-02	  0.021603208	-6.046500E+01	  0.021603208	2.100000E-01	  0.021603208	-8.579400E+01
10	  0.021803608	-2.200000E-02	  0.021803608	-6.099500E+01	  0.021803608	2.550000E-01	  0.021803608	-8.488900E+01
11	  0.022004008	-2.500000E-02	  0.022004008	-6.151100E+01	  0.022004008	2.750000E-01	  0.022004008	-8.402100E+01
12	  0.022204408	-2.800000E-02	  0.022204408	-6.205400E+01	  0.022204408	3.090000E-01	  0.022204408	-8.312300E+01
13	  0.022404809	-3.000000E-02	  0.022404809	-6.261000E+01	  0.022404809	3.220000E-01	  0.022404809	-8.221700E+01
14	  0.022605211	-3.100000E-02	  0.022605211	-6.316800E+01	  0.022605211	3.250000E-01	  0.022605211	-8.132300E+01
15	  0.022805611	-2.800000E-02	  0.022805611	-6.371700E+01	  0.022805611	2.970000E-01	  0.022805611	-8.045600E+01
16	  0.023006011	-2.200000E-02	  0.023006011	-6.427600E+01	  0.023006011	2.250000E-01	  0.023006011	-7.958800E+01
17	  0.023206413	-1.300000E-02	  0.023206413	-6.484300E+01	  0.023206413	1.330000E-01	  0.023206413	-7.872100E+01
18	  0.023406813	-1.000000E-02	  0.023406813	-6.538400E+01	  0.023406813	1.020000E-01	  0.023406813	-7.790500E+01
19	  0.023607215	-7.000000E-03	  0.023607215	-6.595600E+01	  0.023607215	7.000000E-02	  0.023607215	-7.705700E+01
20	  0.023807615	-6.000000E-03	  0.023807615	-6.647900E+01	  0.023807615	6.300000E-02	  0.023807615	-7.629300E+01
21	  0.024008015	-1.200000E-02	  0.024008015	-6.697800E+01	  0.024008015	1.170000E-01	  0.024008015	-7.557100E+01
22	  0.024208417	-1.700000E-02	  0.024208417	-6.745600E+01	  0.024208417	1.620000E-01	  0.024208417	-7.489100E+01
23	  0.024408817	-2.600000E-02	  0.024408817	-6.793900E+01	  0.024408817	2.410000E-01	  0.024408817	-7.421200E+01
24	  0.024609219	-2.900000E-02	  0.024609219	-6.845800E+01	  0.024609219	2.710000E-01	  0.024609219	-7.349100E+01
25	  0.024809619	-3.400000E-02	  0.024809619	-6.898000E+01	  0.024809619	3.070000E-01	  0.024809619	-7.277600E+01
26	  0.025010020	-3.800000E-02	  0.025010020	-6.956400E+01	  0.025010020	3.390000E-01	  0.025010020	-7.198600E+01
27	  0.025210422	-3.900000E-02	  0.025210422	-7.013100E+01	  0.025210422	3.470000E-01	  0.025210422	-7.123200E+01
28	  0.025410822	-4.200000E-02	  0.025410822	-7.070500E+01	  0.025410822	3.630000E-01	  0.025410822	-7.047900E+01
29	  0.025611224	-4.100000E-02	  0.025611224	-7.127300E+01	  0.025611224	3.520000E-01	  0.025611224	-6.974400E+01
30	  0.025811624	-4.100000E-02	  0.025811624	-7.184800E+01	  0.025811624	3.490000E-01	  0.025811624	-6.900900E+01
31	  0.026012026	-3.800000E-02	  0.026012026	-7.240400E+01	  0.026012026	3.140000E-01	  0.026012026	-6.830900E+01
32	  0.026212426	-3.500000E-02	  0.026212426	-7.295400E+01	  0.026212426	2.910000E-01	  0.026212426	-6.762600E+01
33	  0.026412826	-3.000000E-02	  0.026412826	-7.347600E+01	  0.026412826	2.470000E-01	  0.026412826	-6.698600E+01
34	  0.026613226	-3.300000E-02	  0.026613226	-7.397800E+01	  0.026613226	2.650000E-01	  0.026613226	-6.637700E+01
35	  0.026813626	-3.600000E-02	  0.026813626	-7.449200E+01	  0.026813626	2.870000E-01	  0.026813626	-6.576100E+01
36	  0.027014028	-3.900000E-02	  0.027014028	-7.495200E+01	  0.027014028	3.090000E-01	  0.027014028	-6.521600E+01
37	  0.027214428	-4.900000E-02	  0.027214428	-7.543100E+01	  0.027214428	3.780000E-01	  0.027214428	-6.465400E+01
38	  0.027414829	-5.900000E-02	  0.027414829	-7.595200E+01	  0.027414829	4.510000E-01	  0.027414829	-6.404900E+01
39	  0.027615231	-6.600000E-02	  0.027615231	-7.654000E+01	  0.027615231	5.010000E-01	  0.027615231	-6.337500E+01
40	  0.027815631	-7.000000E-02	  0.027815631	-7.711200E+01	  0.027815631	5.200000E-01	  0.027815631	-6.272900E+01
41	  0.028016033	-6.900000E-02	  0.028016033	-7.771800E+01	  0.028016033	5.070000E-01	  0.028016033	-6.205300E+01
42	  0.028216433	-6.200000E-02	  0.028216433	-7.833100E+01	  0.028216433	4.500000E-01	  0.028216433	-6.137800E+01
43	  0.028416833	-5.200000E-02	  0.028416833	-7.893300E+01	  0.028416833	3.760000E-01	  0.028416833	-6.072500E+01
44	  0.028617235	-4.700000E-02	  0.028617235	-7.951300E+01	  0.028617235	3.300000E-01	  0.028617235	-6.010300E+01
45	  0.028817635	-3.500000E-02	  0.028817635	-8.006500E+01	  0.028817635	2.500000E-01	  0.028817635	-5.951700E+01
46	  0.029018037	-2.800000E-02	  0.029018037	-8.054600E+01	  0.029018037	1.920000E-01	  0.029018037	-5.901300E+01
47	  0.029218437	-1.900000E-02	  0.029218437	-8.100400E+01	  0.029218437	1.290000E-01	  0.029218437	-5.853700E+01
48	  0.029418837	-1.400000E-02	  0.029418837	-8.142800E+01	  0.029418837	9.700000E-02	  0.029418837	-5.810100E+01
49	  0.029619239	-1.200000E-02	  0.029619239	-8.185300E+01	  0.029619239	8.600000E-02	  0.029619239	-5.766700E+01
50	  0.029819639	-1.400000E-02	  0.029819639	-8.229300E+01	  0.029819639	9.600000E-02	  0.029819639	-5.722200E+01
51	  0.030020041	-1.700000E-02	  0.030020041	-8.278000E+01	  0.030020041	1.170000E-01	  0.030020041	-5.673200E+01
52	  0.030220442	-2.600000E-02	  0.030220442	-8.327700E+01	  0.030220442	1.740000E-01	  0.030220442	-5.623900E+01
53	  0.030420844	-3.800000E-02	  0.030420844	-8.383700E+01	  0.030420844	2.460000E-01	  0.030420844	-5.568800E+01
54	  0.030621244	-4.600000E-02	  0.030621244	-8.438500E+01	  0.030621244	2.990000E-01	  0.030621244	-5.515500E+01
55	  0.030821644	-4.800000E-02	  0.030821644	-8.495300E+01	  0.030821644	3.030000E-01	  0.030821644	-5.460800E+01
56	  0.031022044	-5.000000E-02	  0.031022044	-8.550900E+01	  0.031022044	3.180000E-01	  0.031022044	-5.407900E+01
57	  0.031222444	-4.700000E-02	  0.031222444	-8.606600E+01	  0.031222444	2.900000E-01	  0.031222444	-5.355500E+01
58	  0.031422846	-4.500000E-02	  0.031422846	-8.660300E+01	  0.031422846	2.790000E-01	  0.031422846	-5.305400E+01
59	  0.031623244	-4.800000E-02	  0.031623244	-8.713600E+01	  0.031623244	2.930000E-01	  0.031623244	-5.256200E+01
60	  0.031823646	-4.600000E-02	  0.031823646	-8.764800E+01	  0.031823646	2.790000E-01	  0.031823646	-5.209400E+01
61	  0.032024048	-4.300000E-02	  0.032024048	-8.813300E+01	  0.032024048	2.590000E-01	  0.032024048	-5.165500E+01
62	  0.032224450	-4.200000E-02	  0.032224450	-8.858800E+01	  0.032224450	2.490000E-01	  0.032224450	-5.124600E+01
63	  0.032424849	-5.200000E-02	  0.032424849	-8.903500E+01	  0.032424849	3.090000E-01	  0.032424849	-5.084700E+01
64	  0.032625251	-6.300000E-02	  0.032625251	-8.952000E+01	  0.032625251	3.680000E-01	  0.032625251	-5.041800E+01
65	  0.032825653	-7.300000E-02	  0.032825653	-9.004600E+01	  0.032825653	4.240000E-01	  0.032825653	-4.995700E+01
66	  0.033026051	-8.200000E-02	  0.033026051	-9.057400E+01	  0.033026051	4.680000E-01	  0.033026051	-4.949800E+01
67	  0.033226453	-8.700000E-02	  0.033226453	-9.113300E+01	  0.033226453	4.910000E-01	  0.033226453	-4.901700E+01
68	  0.033426855	-9.400000E-02	  0.033426855	-9.171500E+01	  0.033426855	5.280000E-01	  0.033426855	-4.852200E+01
69	  0.033627257	-9.700000E-02	  0.033627257	-9.232500E+01	  0.033627257	5.410000E-01	  0.033627257	-4.800800E+01
70	  0.033827655	-9.800000E-02	  0.033827655	-9.291900E+01	  0.033827655	5.390000E-01	  0.033827655	-4.751200E+01
71	  0.034028057	-9.600000E-02	  0.034028057	-9.350600E+01	  0.034028057	5.250000E-01	  0.034028057	-4.702700E+01
72	  0.034228459	-8.900000E-02	  0.034228459	-9.407900E+01	  0.034228459	4.830000E-01	  0.034228459	-4.655800E+01
73	  0.034428857	-7.800000E-02	  0.034428857	-9.461500E+01	  0.034428857	4.170000E-01	  0.034428857	-4.612400E+01
74	  0.034629259	-6.800000E-02	  0.034629259	-9.512400E+01	  0.034629259	3.630000E-01	  0.034629259	-4.571500E+01
75	  0.034829661	-6.000000E-02	  0.034829661	-9.561400E+01	  0.034829661	3.180000E-01	  0.034829661	-4.532400E+01
76	  0.035030060	-5.400000E-02	  0.035030060	-9.608000E+01	  0.035030060	2.860000E-01	  0.035030060	-4.495500E+01
77	  0.035230462	-5.000000E-02	  0.035230462	-9.654700E+01	  0.035230462	2.580000E-01	  0.035230462	-4.458900E+01
78	  0.035430863	-4.900000E-02	  0.035430863	-9.699000E+01	  0.035430863	2.550000E-01	  0.035430863	-4.424200E+01
79	  0.035631265	-5.200000E-02	  0.035631265	-9.743600E+01	  0.035631265	2.670000E-01	  0.035631265	-4.389700E+01
80	  0.035831664	-6.200000E-02	  0.035831664	-9.792400E+01	  0.035831664	3.150000E-01	  0.035831664	-4.352100E+01
81	  0.036032066	-7.000000E-02	  0.036032066	-9.845700E+01	  0.036032066	3.520000E-01	  0.036032066	-4.311300E+01
82	  0.036232468	-7.400000E-02	  0.036232468	-9.901800E+01	  0.036232468	3.710000E-01	  0.036232468	-4.268800E+01
83	  0.036432866	-7.800000E-02	  0.036432866	-9.959300E+01	  0.036432866	3.870000E-01	  0.036432866	-4.225600E+01
84	  0.036633268	-8.200000E-02	  0.036633268	-1.001410E+02	  0.036633268	4.030000E-01	  0.036633268	-4.184800E+01
85	  0.036833670	-8.200000E-02	  0.036833670	-1.006790E+02	  0.036833670	4.010000E-01	  0.036833670	-4.145000E+01
86	  0.037034072	-7.600000E-02	  0.037034072	-1.012270E+02	  0.037034072	3.660000E-01	  0.037034072	-4.104900E+01
87	  0.037234470	-6.500000E-02	  0.037234470	-1.017180E+02	  0.037234470	3.110000E-01	  0.037234470	-4.069200E+01
88	  0.037434869	-5.700000E-02	  0.037434869	-1.021660E+02	  0.037434869	2.730000E-01	  0.037434869	-4.036800E+01
89	  0.037635271	-5.300000E-02	  0.037635271	-1.025990E+02	  0.037635271	2.540000E-01	  0.037635271	-4.005700E+01
90	  0.037835669	-5.200000E-02	  0.037835669	-1.030230E+02	  0.037835669	2.460000E-01	  0.037835669	-3.975400E+01
91	  0.038036071	-6.100000E-02	  0.038036071	-1.034680E+02	  0.038036071	2.860000E-01	  0.038036071	-3.943800E+01
92	  0.038236473	-6.800000E-02	  0.038236473	-1.039580E+02	  0.038236473	3.190000E-01	  0.038236473	-3.909200E+01
93	  0.038436871	-7.700000E-02	  0.038436871	-1.044340E+02	  0.038436871	3.580000E-01	  0.038436871	-3.875800E+01
94	  0.038637273	-8.200000E-02	  0.038637273	-1.049190E+02	  0.038637273	3.780000E-01	  0.038637273	-3.842000E+01
95	  0.038837675	-9.400000E-02	  0.038837675	-1.054150E+02	  0.038837675	4.290000E-01	  0.038837675	-3.807700E+01
96	  0.039038073	-1.050000E-01	  0.039038073	-1.059620E+02	  0.039038073	4.760000E-01	  0.039038073	-3.770100E+01
97	  0.039238475	-1.120000E-01	  0.039238475	-1.065100E+02	  0.039238475	5.040000E-01	  0.039238475	-3.732700E+01
98	  0.039438877	-1.160000E-01	  0.039438877	-1.070600E+02	  0.039438877	5.170000E-01	  0.039438877	-3.695400E+01
99	  0.039639279	-1.130000E-01	  0.039639279	-1.075940E+02	  0.039639279	5.030000E-01	  0.039639279	-3.659500E+01
100	  0.039839678	-1.100000E-01	  0.039839678	-1.081250E+02	  0.039839678	4.840000E-01	  0.039839678	-3.624100E+01
101	  0.040040080	-1.040000E-01	  0.040040080	-1.086190E+02	  0.040040080	4.560000E-01	  0.040040080	-3.591300E+01
102	  0.040240481	-1.000000E-01	  0.040240481	-1.091160E+02	  0.040240481	4.330000E-01	  0.040240481	-3.558500E+01
103	  0.040440880	-9.300000E-02	  0.040440880	-1.096000E+02	  0.040440880	4.010000E-01	  0.040440880	-3.526900E+01
104	  0.040641282	-9.200000E-02	  0.040641282	-1.100690E+02	  0.040641282	3.940000E-01	  0.040641282	-3.496300E+01
105	  0.040841684	-9.000000E-02	  0.040841684	-1.105610E+02	  0.040841684	3.840000E-01	  0.040841684	-3.464500E+01
106	  0.041042086	-9.300000E-02	  0.041042086	-1.110140E+02	  0.041042086	3.960000E-01	  0.041042086	-3.435300E+01
107	  0.041242484	-1.020000E-01	  0.041242484	-1.115180E+02	  0.041242484	4.310000E-01	  0.041242484	-3.403000E+01
108	  0.041442886	-1.120000E-01	  0.041442886	-1.119910E+02	  0.041442886	4.710000E-01	  0.041442886	-3.372900E+01
109	  0.041643288	-1.210000E-01	  0.041643288	-1.125310E+02	  0.041643288	5.060000E-01	  0.041643288	-3.338600E+01
110	  0.041843686	-1.280000E-01	  0.041843686	-1.130910E+02	  0.041843686	5.300000E-01	  0.041843686	-3.303400E+01
111	  0.042044088	-1.300000E-01	  0.042044088	-1.136510E+02	  0.042044088	5.360000E-01	  0.042044088	-3.268400E+01
112	  0.042244490	-1.240000E-01	  0.042244490	-1.142200E+02	  0.042244490	5.090000E-01	  0.042244490	-3.233100E+01
113	  0.042444889	-1.130000E-01	  0.042444889	-1.147430E+02	  0.042444889	4.600000E-01	  0.042444889	-3.200800E+01
114	  0.042645290	-9.900000E-02	  0.042645290	-1.152330E+02	  0.042645290	4.030000E-01	  0.042645290	-3.170800E+01
115	  0.042845692	-9.500000E-02	  0.042845692	-1.156940E+02	  0.042845692	3.810000E-01	  0.042845692	-3.142700E+01
116	  0.043046094	-9.200000E-02	  0.043046094	-1.161490E+02	  0.043046094	3.680000E-01	  0.043046094	-3.115100E+01
117	  0.043246493	-9.300000E-02	  0.043246493	-1.166160E+02	  0.043246493	3.720000E-01	  0.043246493	-3.086900E+01
118	  0.043446895	-9.700000E-02	  0.043446895	-1.170540E+02	  0.043446895	3.850000E-01	  0.043446895	-3.060600E+01
119	  0.043647297	-1.020000E-01	  0.043647297	-1.175270E+02	  0.043647297	4.040000E-01	  0.043647297	-3.032300E+01
120	  0.043847695	-1.070000E-01	  0.043847695	-1.179940E+02	  0.043847695	4.220000E-01	  0.043847695	-3.004400E+01
121	  0.044048097	-1.140000E-01	  0.044048097	-1.184520E+02	  0.044048097	4.440000E-01	  0.044048097	-2.977300E+01
122	  0.044248499	-1.250000E-01	  0.044248499	-1.189550E+02	  0.044248499	4.850000E-01	  0.044248499	-2.947600E+01
123	  0.044448901	-1.310000E-01	  0.044448901	-1.194560E+02	  0.044448901	5.080000E-01	  0.044448901	-2.918200E+01
124	  0.044649299	-1.320000E-01	  0.044649299	-1.199600E+02	  0.044649299	5.070000E-01	  0.044649299	-2.888800E+01
125	  0.044849701	-1.310000E-01	  0.044849701	-1.204630E+02	  0.044849701	5.030000E-01	  0.044849701	-2.859600E+01
126	  0.045050103	-1.320000E-01	  0.045050103	-1.209620E+02	  0.045050103	5.030000E-01	  0.045050103	-2.830800E+01
127	  0.045250501	-1.280000E-01	  0.045250501	-1.214460E+02	  0.045250501	4.870000E-01	  0.045250501	-2.803000E+01
128	  0.045450903	-1.280000E-01	  0.045450903	-1.219210E+02	  0.045450903	4.820000E-01	  0.045450903	-2.775800E+01
129	  0.045651305	-1.260000E-01	  0.045651305	-1.224100E+02	  0.045651305	4.720000E-01	  0.045651305	-2.747900E+01
130	  0.045851704	-1.240000E-01	  0.045851704	-1.228870E+02	  0.045851704	4.630000E-01	  0.045851704	-2.720900E+01
131	  0.046052106	-1.230000E-01	  0.046052106	-1.233470E+02	  0.046052106	4.570000E-01	  0.046052106	-2.695000E+01
132	  0.046252504	-1.200000E-01	  0.046252504	-1.238240E+02	  0.046252504	4.440000E-01	  0.046252504	-2.668200E+01
133	  0.046452906	-1.230000E-01	  0.046452906	-1.242430E+02	  0.046452906	4.550000E-01	  0.046452906	-2.644700E+01
134	  0.046653304	-1.290000E-01	  0.046653304	-1.246960E+02	  0.046653304	4.750000E-01	  0.046653304	-2.619500E+01
135	  0.046853706	-1.390000E-01	  0.046853706	-1.251760E+02	  0.046853706	5.080000E-01	  0.046853706	-2.592800E+01
136	  0.047054108	-1.460000E-01	  0.047054108	-1.256730E+02	  0.047054108	5.320000E-01	  0.047054108	-2.565300E+01
137	  0.047254506	-1.480000E-01	  0.047254506	-1.262100E+02	  0.047254506	5.370000E-01	  0.047254506	-2.535800E+01
138	  0.047454908	-1.440000E-01	  0.047454908	-1.267430E+02	  0.047454908	5.190000E-01	  0.047454908	-2.506700E+01
139	  0.047655310	-1.350000E-01	  0.047655310	-1.272490E+02	  0.047655310	4.860000E-01	  0.047655310	-2.479100E+01
140	  0.047855709	-1.280000E-01	  0.047855709	-1.277280E+02	  0.047855709	4.580000E-01	  0.047855709	-2.453100E+01
141	  0.048056111	-1.220000E-01	  0.048056111	-1.281930E+02	  0.048056111	4.350000E-01	  0.048056111	-2.428000E+01
142	  0.048256513	-1.200000E-01	  0.048256513	-1.286590E+02	  0.048256513	4.260000E-01	  0.048256513	-2.402900E+01
143	  0.048456915	-1.200000E-01	  0.048456915	-1.291170E+02	  0.048456915	4.260000E-01	  0.048456915	-2.378400E+01
144	  0.048657313	-1.210000E-01	  0.048657313	-1.295630E+02	  0.048657313	4.280000E-01	  0.048657313	-2.354600E+01
145	  0.048857715	-1.240000E-01	  0.048857715	-1.300210E+02	  0.048857715	4.350000E-01	  0.048857715	-2.330200E+01
146	  0.049058117	-1.280000E-01	  0.049058117	-1.304490E+02	  0.049058117	4.470000E-01	  0.049058117	-2.307500E+01
147	  0.049258515	-1.360000E-01	  0.049258515	-1.309130E+02	  0.049258515	4.750000E-01	  0.049258515	-2.283000E+01
148	  0.049458917	-1.410000E-01	  0.049458917	-1.314020E+02	  0.049458917	4.880000E-01	  0.049458917	-2.257200E+01
149	  0.049659319	-1.440000E-01	  0.049659319	-1.318840E+02	  0.049659319	5.000000E-01	  0.049659319	-2.231900E+01
150	  0.049859721	-1.470000E-01	  0.049859721	-1.323830E+02	  0.049859721	5.070000E-01	  0.049859721	-2.205900E+01
151	  0.050060119	-1.500000E-01	  0.050060119	-1.328560E+02	  0.050060119	5.130000E-01	  0.050060119	-2.181300E+01
152	  0.050260521	-1.500000E-01	  0.050260521	-1.333260E+02	  0.050260521	5.140000E-01	  0.050260521	-2.156900E+01
153	  0.050460923	-1.530000E-01	  0.050460923	-1.337940E+02	  0.050460923	5.220000E-01	  0.050460923	-2.132700E+01
154	  0.050661322	-1.530000E-01	  0.050661322	-1.342760E+02	  0.050661322	5.210000E-01	  0.050661322	-2.107900E+01
155	  0.050861724	-1.550000E-01	  0.050861724	-1.347570E+02	  0.050861724	5.250000E-01	  0.050861724	-2.083200E+01
156	  0.051062126	-1.540000E-01	  0.051062126	-1.352560E+02	  0.051062126	5.210000E-01	  0.051062126	-2.057700E+01
157	  0.051262524	-1.520000E-01	  0.051262524	-1.357250E+02	  0.051262524	5.120000E-01	  0.051262524	-2.033900E+01
158	  0.051462926	-1.490000E-01	  0.051462926	-1.361810E+02	  0.051462926	4.990000E-01	  0.051462926	-2.010700E+01
159	  0.051663328	-1.530000E-01	  0.051663328	-1.366140E+02	  0.051663328	5.100000E-01	  0.051663328	-1.988800E+01
160	  0.051863730	-1.570000E-01	  0.051863730	-1.370380E+02	  0.051863730	5.230000E-01	  0.051863730	-1.967400E+01
161	  0.052064128	-1.630000E-01	  0.052064128	-1.374960E+02	  0.052064128	5.430000E-01	  0.052064128	-1.944300E+01
162	  0.052264530	-1.690000E-01	  0.052264530	-1.379750E+02	  0.052264530	5.590000E-01	  0.052264530	-1.920300E+01
163	  0.052464932	-1.740000E-01	  0.052464932	-1.384610E+02	  0.052464932	5.750000E-01	  0.052464932	-1.896000E+01
164	  0.052665330	-1.730000E-01	  0.052665330	-1.389640E+02	  0.052665330	5.700000E-01	  0.052665330	-1.870900E+01
165	  0.052865732	-1.710000E-01	  0.052865732	-1.394410E+02	  0.052865732	5.610000E-01	  0.052865732	-1.847300E+01
166	  0.053066134	-1.650000E-01	  0.053066134	-1.399230E+02	  0.053066134	5.400000E-01	  0.053066134	-1.823400E+01
167	  0.053266536	-1.590000E-01	  0.053266536	-1.403800E+02	  0.053266536	5.200000E-01	  0.053266536	-1.800900E+01
168	  0.053466935	-1.600000E-01	  0.053466935	-1.408330E+02	  0.053466935	5.210000E-01	  0.053466935	-1.778500E+01
169	  0.053667337	-1.570000E-01	  0.053667337	-1.412820E+02	  0.053667337	5.100000E-01	  0.053667337	-1.756500E+01
170	  0.053867739	-1.570000E-01	  0.053867739	-1.417110E+02	  0.053867739	5.060000E-01	  0.053867739	-1.735500E+01
171	  0.054068137	-1.580000E-01	  0.054068137	-1.421350E+02	  0.054068137	5.080000E-01	  0.054068137	-1.714800E+01
172	  0.054268539	-1.620000E-01	  0.054268539	-1.425720E+02	  0.054268539	5.200000E-01	  0.054268539	-1.693500E+01
173	  0.054468941	-1.690000E-01	  0.054468941	-1.430130E+02	  0.054468941	5.410000E-01	  0.054468941	-1.672100E+01
174	  0.054669339	-1.730000E-01	  0.054669339	-1.434730E+02	  0.054669339	5.530000E-01	  0.054669339	-1.649800E+01
175	  0.054869737	-1.750000E-01	  0.054869737	-1.439470E+02	  0.054869737	5.570000E-01	  0.054869737	-1.626900E+01
176	  0.055070139	-1.760000E-01	  0.055070139	-1.443970E+02	  0.055070139	5.590000E-01	  0.055070139	-1.605200E+01
177	  0.055270538	-1.750000E-01	  0.055270538	-1.448420E+02	  0.055270538	5.540000E-01	  0.055270538	-1.583800E+01
178	  0.055470940	-1.760000E-01	  0.055470940	-1.452910E+02	  0.055470940	5.560000E-01	  0.055470940	-1.562300E+01
179	  0.055671342	-1.810000E-01	  0.055671342	-1.457240E+02	  0.055671342	5.720000E-01	  0.055671342	-1.541600E+01
180	  0.055871744	-1.820000E-01	  0.055871744	-1.461950E+02	  0.055871744	5.740000E-01	  0.055871744	-1.519100E+01
181	  0.056072142	-1.850000E-01	  0.056072142	-1.466600E+02	  0.056072142	5.820000E-01	  0.056072142	-1.496900E+01
182	  0.056272544	-1.830000E-01	  0.056272544	-1.471270E+02	  0.056272544	5.730000E-01	  0.056272544	-1.474800E+01
183	  0.056472946	-1.810000E-01	  0.056472946	-1.475760E+02	  0.056472946	5.670000E-01	  0.056472946	-1.453500E+01
184	  0.056673344	-1.820000E-01	  0.056673344	-1.480140E+02	  0.056673344	5.670000E-01	  0.056673344	-1.432800E+01
185	  0.056873746	-1.830000E-01	  0.056873746	-1.484500E+02	  0.056873746	5.690000E-01	  0.056873746	-1.412300E+01
186	  0.057074148	-1.840000E-01	  0.057074148	-1.488570E+02	  0.057074148	5.720000E-01	  0.057074148	-1.393100E+01
187	  0.057274550	-1.900000E-01	  0.057274550	-1.492880E+02	  0.057274550	5.900000E-01	  0.057274550	-1.372800E+01
188	  0.057474948	-1.950000E-01	  0.057474948	-1.497260E+02	  0.057474948	6.030000E-01	  0.057474948	-1.352300E+01
189	  0.057675350	-1.980000E-01	  0.057675350	-1.501910E+02	  0.057675350	6.120000E-01	  0.057675350	-1.330500E+01
190	  0.057875752	-2.000000E-01	  0.057875752	-1.506600E+02	  0.057875752	6.150000E-01	  0.057875752	-1.308600E+01
191	  0.058076151	-2.020000E-01	  0.058076151	-1.511230E+02	  0.058076151	6.210000E-01	  0.058076151	-1.287100E+01
192	  0.058276553	-2.000000E-01	  0.058276553	-1.515960E+02	  0.058276553	6.120000E-01	  0.058276553	-1.265100E+01
193	  0.058476955	-1.970000E-01	  0.058476955	-1.520530E+02	  0.058476955	6.020000E-01	  0.058476955	-1.244000E+01
194	  0.058677353	-1.960000E-01	  0.058677353	-1.525120E+02	  0.058677353	5.980000E-01	  0.058677353	-1.222700E+01
195	  0.058877755	-1.920000E-01	  0.058877755	-1.529620E+02	  0.058877755	5.840000E-01	  0.058877755	-1.201900E+01
196	  0.059078157	-1.920000E-01	  0.059078157	-1.533870E+02	  0.059078157	5.850000E-01	  0.059078157	-1.182300E+01
197	  0.059278559	-1.930000E-01	  0.059278559	-1.538310E+02	  0.059278559	5.870000E-01	  0.059278559	-1.161900E+01
198	  0.059478957	-1.980000E-01	  0.059478957	-1.542650E+02	  0.059478957	6.010000E-01	  0.059478957	-1.142000E+01
199	  0.059679359	-2.020000E-01	  0.059679359	-1.547100E+02	  0.059679359	6.110000E-01	  0.059679359	-1.121500E+01
200	  0.059879761	-2.040000E-01	  0.059879761	-1.551630E+02	  0.059879761	6.160000E-01	  0.059879761	-1.100800E+01
201	  0.060080159	-2.040000E-01	  0.060080159	-1.556180E+02	  0.060080159	6.160000E-01	  0.060080159	-1.080000E+01
202	  0.060280561	-2.040000E-01	  0.060280561	-1.560710E+02	  0.060280561	6.130000E-01	  0.060280561	-1.059300E+01
203	  0.060480963	-2.040000E-01	  0.060480963	-1.565100E+02	  0.060480963	6.130000E-01	  0.060480963	-1.039300E+01
204	  0.060681365	-2.070000E-01	  0.060681365	-1.569410E+02	  0.060681365	6.210000E-01	  0.060681365	-1.019700E+01
205	  0.060881764	-2.080000E-01	  0.060881764	-1.573950E+02	  0.060881764	6.230000E-01	  0.060881764	-9.991000E+00
206	  0.061082166	-2.100000E-01	  0.061082166	-1.578330E+02	  0.061082166	6.290000E-01	  0.061082166	-9.793000E+00
207	  0.061282568	-2.130000E-01	  0.061282568	-1.582960E+02	  0.061282568	6.370000E-01	  0.061282568	-9.583000E+00
208	  0.061482966	-2.120000E-01	  0.061482966	-1.587480E+02	  0.061482966	6.320000E-01	  0.061482966	-9.378000E+00
209	  0.061683368	-2.110000E-01	  0.061683368	-1.591850E+02	  0.061683368	6.280000E-01	  0.061683368	-9.181000E+00
210	  0.061883770	-2.120000E-01	  0.061883770	-1.596130E+02	  0.061883770	6.300000E-01	  0.061883770	-8.989000E+00
211	  0.062084168	-2.130000E-01	  0.062084168	-1.600550E+02	  0.062084168	6.320000E-01	  0.062084168	-8.789000E+00
212	  0.062284570	-2.130000E-01	  0.062284570	-1.604730E+02	  0.062284570	6.320000E-01	  0.062284570	-8.602000E+00
213	  0.062484972	-2.110000E-01	  0.062484972	-1.608700E+02	  0.062484972	6.240000E-01	  0.062484972	-8.424000E+00
214	  0.062685370	-2.170000E-01	  0.062685370	-1.612720E+02	  0.062685370	6.420000E-01	  0.062685370	-8.243000E+00
215	  0.062885776	-2.190000E-01	  0.062885776	-1.617240E+02	  0.062885776	6.470000E-01	  0.062885776	-8.041000E+00
216	  0.063086174	-2.230000E-01	  0.063086174	-1.621490E+02	  0.063086174	6.600000E-01	  0.063086174	-7.851000E+00
217	  0.063286573	-2.230000E-01	  0.063286573	-1.626030E+02	  0.063286573	6.580000E-01	  0.063286573	-7.648000E+00
218	  0.063486971	-2.230000E-01	  0.063486971	-1.630450E+02	  0.063486971	6.570000E-01	  0.063486971	-7.450000E+00
219	  0.063687377	-2.220000E-01	  0.063687377	-1.634820E+02	  0.063687377	6.540000E-01	  0.063687377	-7.256000E+00
220	  0.063887775	-2.210000E-01	  0.063887775	-1.639110E+02	  0.063887775	6.500000E-01	  0.063887775	-7.065000E+00
221	  0.064088173	-2.190000E-01	  0.064088173	-1.643310E+02	  0.064088173	6.420000E-01	  0.064088173	-6.878000E+00
222	  0.064288579	-2.200000E-01	  0.064288579	-1.647580E+02	  0.064288579	6.460000E-01	  0.064288579	-6.688000E+00
223	  0.064488977	-2.230000E-01	  0.064488977	-1.651840E+02	  0.064488977	6.550000E-01	  0.064488977	-6.499000E+00
224	  0.064689375	-2.250000E-01	  0.064689375	-1.656260E+02	  0.064689375	6.590000E-01	  0.064689375	-6.303000E+00
225	  0.064889781	-2.270000E-01	  0.064889781	-1.660660E+02	  0.064889781	6.650000E-01	  0.064889781	-6.108000E+00
226	  0.065090179	-2.300000E-01	  0.065090179	-1.664970E+02	  0.065090179	6.730000E-01	  0.065090179	-5.918000E+00
227	  0.065290578	-2.300000E-01	  0.065290578	-1.669520E+02	  0.065290578	6.720000E-01	  0.065290578	-5.716000E+00
228	  0.065490983	-2.310000E-01	  0.065490983	-1.673550E+02	  0.065490983	6.730000E-01	  0.065490983	-5.538000E+00
229	  0.065691382	-2.310000E-01	  0.065691382	-1.677960E+02	  0.065691382	6.740000E-01	  0.065691382	-5.344000E+00
230	  0.065891780	-2.330000E-01	  0.065891780	-1.682250E+02	  0.065891780	6.780000E-01	  0.065891780	-5.154000E+00
231	  0.066092186	-2.330000E-01	  0.066092186	-1.686510E+02	  0.066092186	6.790000E-01	  0.066092186	-4.967000E+00
232	  0.066292584	-2.340000E-01	  0.066292584	-1.690910E+02	  0.066292584	6.820000E-01	  0.066292584	-4.773000E+00
233	  0.066492982	-2.360000E-01	  0.066492982	-1.695310E+02	  0.066492982	6.860000E-01	  0.066492982	-4.579000E+00
234	  0.066693388	-2.360000E-01	  0.066693388	-1.699610E+02	  0.066693388	6.850000E-01	  0.066693388	-4.390000E+00
235	  0.066893786	-2.380000E-01	  0.066893786	-1.703880E+02	  0.066893786	6.920000E-01	  0.066893786	-4.202000E+00
236	  0.067094192	-2.390000E-01	  0.067094192	-1.708260E+02	  0.067094192	6.950000E-01	  0.067094192	-4.010000E+00
237	  0.067294590	-2.390000E-01	  0.067294590	-1.712490E+02	  0.067294590	6.930000E-01	  0.067294590	-3.824000E+00
238	  0.067494988	-2.370000E-01	  0.067494988	-1.716660E+02	  0.067494988	6.870000E-01	  0.067494988	-3.642000E+00
239	  0.067695394	-2.380000E-01	  0.067695394	-1.720630E+02	  0.067695394	6.890000E-01	  0.067695394	-3.467000E+00
240	  0.067895792	-2.390000E-01	  0.067895792	-1.724620E+02	  0.067895792	6.900000E-01	  0.067895792	-3.292000E+00
241	  0.068096191	-2.410000E-01	  0.068096191	-1.728550E+02	  0.068096191	6.980000E-01	  0.068096191	-3.120000E+00
242	  0.068296596	-2.430000E-01	  0.068296596	-1.732770E+02	  0.068296596	7.030000E-01	  0.068296596	-2.936000E+00
243	  0.068496995	-2.450000E-01	  0.068496995	-1.736980E+02	  0.068496995	7.070000E-01	  0.068496995	-2.751000E+00
244	  0.068697393	-2.470000E-01	  0.068697393	-1.741130E+02	  0.068697393	7.130000E-01	  0.068697393	-2.570000E+00
245	  0.068897791	-2.450000E-01	  0.068897791	-1.745230E+02	  0.068897791	7.060000E-01	  0.068897791	-2.390000E+00
246	  0.069098189	-2.420000E-01	  0.069098189	-1.749280E+02	  0.069098189	6.990000E-01	  0.069098189	-2.214000E+00
247	  0.069298595	-2.410000E-01	  0.069298595	-1.753440E+02	  0.069298595	6.960000E-01	  0.069298595	-2.031000E+00
248	  0.069498993	-2.440000E-01	  0.069498993	-1.757490E+02	  0.069498993	7.050000E-01	  0.069498993	-1.855000E+00
249	  0.069699399	-2.490000E-01	  0.069699399	-1.761660E+02	  0.069699399	7.190000E-01	  0.069699399	-1.672000E+00
250	  0.069899797	-2.520000E-01	  0.069899797	-1.765940E+02	  0.069899797	7.260000E-01	  0.069899797	-1.486000E+00
251	  0.070100196	-2.540000E-01	  0.070100196	-1.770130E+02	  0.070100196	7.330000E-01	  0.070100196	-1.302000E+00
252	  0.070300601	-2.560000E-01	  0.070300601	-1.774470E+02	  0.070300601	7.390000E-01	  0.070300601	-1.113000E+00
253	  0.070501000	-2.590000E-01	  0.070501000	-1.778390E+02	  0.070501000	7.480000E-01	  0.070501000	-9.420000E-01
254	  0.070701398	-2.600000E-01	  0.070701398	-1.782550E+02	  0.070701398	7.500000E-01	  0.070701398	-7.610000E-01
255	  0.070901804	-2.590000E-01	  0.070901804	-1.786800E+02	  0.070901804	7.460000E-01	  0.070901804	-5.750000E-01
256	  0.071102202	-2.610000E-01	  0.071102202	-1.790990E+02	  0.071102202	7.520000E-01	  0.071102202	-3.920000E-01
257	  0.071302600	-2.620000E-01	  0.071302600	-1.795340E+02	  0.071302600	7.560000E-01	  0.071302600	-2.030000E-01
258	  0.071503006	-2.620000E-01	  0.071503006	-1.799460E+02	  0.071503006	7.550000E-01	  0.071503006	-2.300000E-02
259	  0.071703404	-2.620000E-01	  0.071703404	1.796220E+02	  0.071703404	7.540000E-01	  0.071703404	1.640000E-01
260	  0.071903802	-2.630000E-01	  0.071903802	1.791960E+02	  0.071903802	7.560000E-01	  0.071903802	3.500000E-01
261	  0.072104208	-2.640000E-01	  0.072104208	1.787800E+02	  0.072104208	7.610000E-01	  0.072104208	5.320000E-01
262	  0.072304606	-2.660000E-01	  0.072304606	1.783690E+02	  0.072304606	7.660000E-01	  0.072304606	7.110000E-01
263	  0.072505005	-2.670000E-01	  0.072505005	1.779720E+02	  0.072505005	7.690000E-01	  0.072505005	8.840000E-01
264	  0.072705410	-2.640000E-01	  0.072705410	1.775480E+02	  0.072705410	7.620000E-01	  0.072705410	1.069000E+00
265	  0.072905809	-2.640000E-01	  0.072905809	1.771720E+02	  0.072905809	7.610000E-01	  0.072905809	1.233000E+00
266	  0.073106214	-2.640000E-01	  0.073106214	1.767820E+02	  0.073106214	7.610000E-01	  0.073106214	1.404000E+00
267	  0.073306613	-2.660000E-01	  0.073306613	1.763910E+02	  0.073306613	7.680000E-01	  0.073306613	1.574000E+00
268	  0.073507011	-2.670000E-01	  0.073507011	1.759880E+02	  0.073507011	7.720000E-01	  0.073507011	1.750000E+00
269	  0.073707417	-2.690000E-01	  0.073707417	1.755860E+02	  0.073707417	7.750000E-01	  0.073707417	1.926000E+00
270	  0.073907815	-2.700000E-01	  0.073907815	1.751990E+02	  0.073907815	7.780000E-01	  0.073907815	2.095000E+00
271	  0.074108213	-2.670000E-01	  0.074108213	1.748020E+02	  0.074108213	7.720000E-01	  0.074108213	2.268000E+00
272	  0.074308619	-2.660000E-01	  0.074308619	1.744270E+02	  0.074308619	7.690000E-01	  0.074308619	2.432000E+00
273	  0.074509017	-2.680000E-01	  0.074509017	1.740510E+02	  0.074509017	7.730000E-01	  0.074509017	2.597000E+00
274	  0.074709415	-2.720000E-01	  0.074709415	1.736310E+02	  0.074709415	7.850000E-01	  0.074709415	2.781000E+00
275	  0.074909821	-2.740000E-01	  0.074909821	1.732380E+02	  0.074909821	7.930000E-01	  0.074909821	2.953000E+00
276	  0.075110219	-2.780000E-01	  0.075110219	1.728220E+02	  0.075110219	8.040000E-01	  0.075110219	3.135000E+00
277	  0.075310618	-2.800000E-01	  0.075310618	1.724350E+02	  0.075310618	8.100000E-01	  0.075310618	3.304000E+00
278	  0.075511023	-2.830000E-01	  0.075511023	1.720290E+02	  0.075511023	8.180000E-01	  0.075511023	3.482000E+00
279	  0.075711422	-2.820000E-01	  0.075711422	1.716250E+02	  0.075711422	8.180000E-01	  0.075711422	3.659000E+00
280	  0.075911827	-2.840000E-01	  0.075911827	1.712300E+02	  0.075911827	8.250000E-01	  0.075911827	3.833000E+00
281	  0.076112226	-2.880000E-01	  0.076112226	1.708090E+02	  0.076112226	8.350000E-01	  0.076112226	4.017000E+00
282	  0.076312624	-2.880000E-01	  0.076312624	1.704000E+02	  0.076312624	8.350000E-01	  0.076312624	4.197000E+00
283	  0.076513030	-2.890000E-01	  0.076513030	1.699810E+02	  0.076513030	8.380000E-01	  0.076513030	4.381000E+00
284	  0.076713428	-2.880000E-01	  0.076713428	1.695810E+02	  0.076713428	8.360000E-01	  0.076713428	4.557000E+00
285	  0.076913826	-2.880000E-01	  0.076913826	1.691480E+02	  0.076913826	8.360000E-01	  0.076913826	4.747000E+00
286	  0.077114232	-2.860000E-01	  0.077114232	1.687560E+02	  0.077114232	8.310000E-01	  0.077114232	4.920000E+00
287	  0.077314630	-2.860000E-01	  0.077314630	1.683490E+02	  0.077314630	8.330000E-01	  0.077314630	5.099000E+00
288	  0.077515028	-2.870000E-01	  0.077515028	1.679540E+02	  0.077515028	8.360000E-01	  0.077515028	5.274000E+00
289	  0.077715434	-2.870000E-01	  0.077715434	1.675650E+02	  0.077715434	8.370000E-01	  0.077715434	5.445000E+00
290	  0.077915832	-2.860000E-01	  0.077915832	1.671860E+02	  0.077915832	8.350000E-01	  0.077915832	5.612000E+00
291	  0.078116231	-2.870000E-01	  0.078116231	1.668100E+02	  0.078116231	8.370000E-01	  0.078116231	5.778000E+00
292	  0.078316636	-2.890000E-01	  0.078316636	1.664380E+02	  0.078316636	8.430000E-01	  0.078316636	5.943000E+00
293	  0.078517035	-2.910000E-01	  0.078517035	1.660360E+02	  0.078517035	8.500000E-01	  0.078517035	6.121000E+00
294	  0.078717433	-2.910000E-01	  0.078717433	1.656480E+02	  0.078717433	8.520000E-01	  0.078717433	6.293000E+00
295	  0.078917839	-2.920000E-01	  0.078917839	1.652690E+02	  0.078917839	8.550000E-01	  0.078917839	6.460000E+00
296	  0.079118237	-2.890000E-01	  0.079118237	1.648860E+02	  0.079118237	8.490000E-01	  0.079118237	6.631000E+00
297	  0.079318643	-2.910000E-01	  0.079318643	1.645260E+02	  0.079318643	8.540000E-01	  0.079318643	6.791000E+00
298	  0.079519041	-2.900000E-01	  0.079519041	1.641700E+02	  0.079519041	8.510000E-01	  0.079519041	6.949000E+00
299	  0.079719439	-2.920000E-01	  0.079719439	1.637900E+02	  0.079719439	8.580000E-01	  0.079719439	7.118000E+00
300	  0.079919845	-2.950000E-01	  0.079919845	1.634050E+02	  0.079919845	8.680000E-01	  0.079919845	7.289000E+00
301	  0.080120243	-3.000000E-01	  0.080120243	1.630080E+02	  0.080120243	8.820000E-01	  0.080120243	7.466000E+00
302	  0.080320641	-3.030000E-01	  0.080320641	1.626140E+02	  0.080320641	8.940000E-01	  0.080320641	7.642000E+00
303	  0.080521047	-3.080000E-01	  0.080521047	1.622310E+02	  0.080521047	9.090000E-01	  0.080521047	7.813000E+00
304	  0.080721445	-3.120000E-01	  0.080721445	1.618280E+02	  0.080721445	9.220000E-01	  0.080721445	7.993000E+00
305	  0.080921844	-3.130000E-01	  0.080921844	1.614210E+02	  0.080921844	9.260000E-01	  0.080921844	8.175000E+00
306	  0.081122249	-3.160000E-01	  0.081122249	1.610260E+02	  0.081122249	9.350000E-01	  0.081122249	8.352000E+00
307	  0.081322648	-3.170000E-01	  0.081322648	1.606210E+02	  0.081322648	9.390000E-01	  0.081322648	8.534000E+00
308	  0.081523046	-3.150000E-01	  0.081523046	1.602000E+02	  0.081523046	9.340000E-01	  0.081523046	8.723000E+00
309	  0.081723452	-3.180000E-01	  0.081723452	1.597700E+02	  0.081723452	9.450000E-01	  0.081723452	8.916000E+00
310	  0.081923850	-3.190000E-01	  0.081923850	1.593660E+02	  0.081923850	9.490000E-01	  0.081923850	9.098000E+00
311	  0.082124248	-3.180000E-01	  0.082124248	1.589430E+02	  0.082124248	9.480000E-01	  0.082124248	9.289000E+00
312	  0.082324654	-3.180000E-01	  0.082324654	1.585400E+02	  0.082324654	9.480000E-01	  0.082324654	9.471000E+00
313	  0.082525052	-3.180000E-01	  0.082525052	1.581240E+02	  0.082525052	9.510000E-01	  0.082525052	9.659000E+00
314	  0.082725458	-3.150000E-01	  0.082725458	1.577290E+02	  0.082725458	9.440000E-01	  0.082725458	9.838000E+00
315	  0.082925856	-3.130000E-01	  0.082925856	1.573500E+02	  0.082925856	9.390000E-01	  0.082925856	1.000900E+01
316	  0.083126254	-3.150000E-01	  0.083126254	1.569840E+02	  0.083126254	9.460000E-01	  0.083126254	1.017600E+01
317	  0.083326660	-3.150000E-01	  0.083326660	1.566060E+02	  0.083326660	9.460000E-01	  0.083326660	1.034800E+01
318	  0.083527058	-3.160000E-01	  0.083527058	1.562320E+02	  0.083527058	9.510000E-01	  0.083527058	1.051800E+01
319	  0.083727457	-3.170000E-01	  0.083727457	1.558520E+02	  0.083727457	9.560000E-01	  0.083727457	1.069100E+01
320	  0.083927862	-3.170000E-01	  0.083927862	1.554670E+02	  0.083927862	9.570000E-01	  0.083927862	1.086700E+01
321	  0.084128261	-3.150000E-01	  0.084128261	1.550650E+02	  0.084128261	9.510000E-01	  0.084128261	1.105100E+01
322	  0.084328659	-3.120000E-01	  0.084328659	1.547110E+02	  0.084328659	9.440000E-01	  0.084328659	1.121200E+01
323	  0.084529065	-3.120000E-01	  0.084529065	1.543730E+02	  0.084529065	9.460000E-01	  0.084529065	1.136800E+01
324	  0.084729463	-3.110000E-01	  0.084729463	1.540070E+02	  0.084729463	9.430000E-01	  0.084729463	1.153600E+01
325	  0.084929861	-3.130000E-01	  0.084929861	1.536600E+02	  0.084929861	9.520000E-01	  0.084929861	1.169500E+01
326	  0.085130267	-3.150000E-01	  0.085130267	1.532930E+02	  0.085130267	9.600000E-01	  0.085130267	1.186400E+01
327	  0.085330658	-3.160000E-01	  0.085330658	1.529270E+02	  0.085330658	9.620000E-01	  0.085330658	1.203300E+01
328	  0.085531056	-3.200000E-01	  0.085531056	1.525470E+02	  0.085531056	9.760000E-01	  0.085531056	1.220800E+01
329	  0.085731462	-3.240000E-01	  0.085731462	1.521840E+02	  0.085731462	9.910000E-01	  0.085731462	1.237600E+01
330	  0.085931860	-3.270000E-01	  0.085931860	1.518260E+02	  0.085931860	1.003000E+00	  0.085931860	1.254200E+01
331	  0.086132258	-3.290000E-01	  0.086132258	1.514520E+02	  0.086132258	1.008000E+00	  0.086132258	1.271500E+01
332	  0.086332664	-3.300000E-01	  0.086332664	1.510890E+02	  0.086332664	1.015000E+00	  0.086332664	1.288400E+01
333	  0.086533062	-3.330000E-01	  0.086533062	1.506890E+02	  0.086533062	1.025000E+00	  0.086533062	1.307000E+01
334	  0.086733460	-3.310000E-01	  0.086733460	1.503020E+02	  0.086733460	1.022000E+00	  0.086733460	1.325100E+01
335	  0.086933866	-3.320000E-01	  0.086933866	1.499100E+02	  0.086933866	1.027000E+00	  0.086933866	1.343300E+01
336	  0.087134264	-3.330000E-01	  0.087134264	1.495060E+02	  0.087134264	1.031000E+00	  0.087134264	1.362300E+01
337	  0.087334670	-3.340000E-01	  0.087334670	1.491230E+02	  0.087334670	1.035000E+00	  0.087334670	1.380200E+01
338	  0.087535068	-3.340000E-01	  0.087535068	1.487250E+02	  0.087535068	1.037000E+00	  0.087535068	1.398900E+01
339	  0.087735467	-3.330000E-01	  0.087735467	1.483280E+02	  0.087735467	1.037000E+00	  0.087735467	1.417600E+01
340	  0.087935872	-3.290000E-01	  0.087935872	1.479520E+02	  0.087935872	1.026000E+00	  0.087935872	1.435300E+01
341	  0.088136271	-3.300000E-01	  0.088136271	1.475880E+02	  0.088136271	1.031000E+00	  0.088136271	1.452600E+01
342	  0.088336669	-3.300000E-01	  0.088336669	1.472260E+02	  0.088336669	1.032000E+00	  0.088336669	1.469700E+01
343	  0.088537075	-3.310000E-01	  0.088537075	1.468720E+02	  0.088537075	1.036000E+00	  0.088537075	1.486500E+01
344	  0.088737473	-3.330000E-01	  0.088737473	1.464930E+02	  0.088737473	1.046000E+00	  0.088737473	1.504500E+01
345	  0.088937871	-3.330000E-01	  0.088937871	1.461280E+02	  0.088937871	1.049000E+00	  0.088937871	1.521900E+01
346	  0.089138277	-3.350000E-01	  0.089138277	1.457450E+02	  0.089138277	1.056000E+00	  0.089138277	1.540100E+01
347	  0.089338675	-3.350000E-01	  0.089338675	1.453640E+02	  0.089338675	1.059000E+00	  0.089338675	1.558300E+01
348	  0.089539073	-3.340000E-01	  0.089539073	1.450170E+02	  0.089539073	1.059000E+00	  0.089539073	1.575000E+01
349	  0.089739479	-3.340000E-01	  0.089739479	1.446490E+02	  0.089739479	1.059000E+00	  0.089739479	1.592600E+01
350	  0.089939877	-3.330000E-01	  0.089939877	1.442830E+02	  0.089939877	1.059000E+00	  0.089939877	1.610200E+01
351	  0.090140276	-3.360000E-01	  0.090140276	1.439160E+02	  0.090140276	1.071000E+00	  0.090140276	1.627900E+01
352	  0.090340681	-3.380000E-01	  0.090340681	1.435320E+02	  0.090340681	1.079000E+00	  0.090340681	1.646400E+01
353	  0.090541080	-3.370000E-01	  0.090541080	1.431670E+02	  0.090541080	1.079000E+00	  0.090541080	1.664100E+01
354	  0.090741485	-3.380000E-01	  0.090741485	1.428140E+02	  0.090741485	1.083000E+00	  0.090741485	1.681200E+01
355	  0.090941884	-3.400000E-01	  0.090941884	1.424510E+02	  0.090941884	1.094000E+00	  0.090941884	1.698800E+01
356	  0.091142282	-3.450000E-01	  0.091142282	1.421060E+02	  0.091142282	1.110000E+00	  0.091142282	1.715600E+01
357	  0.091342688	-3.470000E-01	  0.091342688	1.417230E+02	  0.091342688	1.121000E+00	  0.091342688	1.734300E+01
358	  0.091543086	-3.470000E-01	  0.091543086	1.413570E+02	  0.091543086	1.124000E+00	  0.091543086	1.752200E+01
359	  0.091743484	-3.480000E-01	  0.091743484	1.409740E+02	  0.091743484	1.129000E+00	  0.091743484	1.771000E+01
360	  0.091943890	-3.490000E-01	  0.091943890	1.405950E+02	  0.091943890	1.133000E+00	  0.091943890	1.789600E+01
361	  0.092144288	-3.490000E-01	  0.092144288	1.402210E+02	  0.092144288	1.137000E+00	  0.092144288	1.808000E+01
362	  0.092344686	-3.490000E-01	  0.092344686	1.398380E+02	  0.092344686	1.141000E+00	  0.092344686	1.826900E+01
363	  0.092545092	-3.490000E-01	  0.092545092	1.394600E+02	  0.092545092	1.142000E+00	  0.092545092	1.845700E+01
364	  0.092745490	-3.460000E-01	  0.092745490	1.390770E+02	  0.092745490	1.137000E+00	  0.092745490	1.864700E+01
365	  0.092945889	-3.460000E-01	  0.092945889	1.387230E+02	  0.092945889	1.139000E+00	  0.092945889	1.882300E+01
366	  0.093146294	-3.440000E-01	  0.093146294	1.383500E+02	  0.093146294	1.134000E+00	  0.093146294	1.900900E+01
367	  0.093346693	-3.380000E-01	  0.093346693	1.379910E+02	  0.093346693	1.118000E+00	  0.093346693	1.918900E+01
368	  0.093547091	-3.410000E-01	  0.093547091	1.376480E+02	  0.093547091	1.129000E+00	  0.093547091	1.936000E+01
369	  0.093747497	-3.400000E-01	  0.093747497	1.373290E+02	  0.093747497	1.129000E+00	  0.093747497	1.952000E+01
370	  0.093947895	-3.460000E-01	  0.093947895	1.369850E+02	  0.093947895	1.150000E+00	  0.093947895	1.969300E+01
371	  0.094148301	-3.450000E-01	  0.094148301	1.366110E+02	  0.094148301	1.151000E+00	  0.094148301	1.988200E+01
372	  0.094348699	-3.470000E-01	  0.094348699	1.362590E+02	  0.094348699	1.161000E+00	  0.094348699	2.006000E+01
373	  0.094549097	-3.470000E-01	  0.094549097	1.359070E+02	  0.094549097	1.163000E+00	  0.094549097	2.023800E+01
374	  0.094749503	-3.500000E-01	  0.094749503	1.355570E+02	  0.094749503	1.176000E+00	  0.094749503	2.041600E+01
375	  0.094949901	-3.510000E-01	  0.094949901	1.352220E+02	  0.094949901	1.184000E+00	  0.094949901	2.058700E+01
376	  0.095150299	-3.530000E-01	  0.095150299	1.348660E+02	  0.095150299	1.194000E+00	  0.095150299	2.076800E+01
377	  0.095350705	-3.570000E-01	  0.095350705	1.345030E+02	  0.095350705	1.209000E+00	  0.095350705	2.095400E+01
378	  0.095551103	-3.560000E-01	  0.095551103	1.341340E+02	  0.095551103	1.208000E+00	  0.095551103	2.114300E+01
379	  0.095751502	-3.590000E-01	  0.095751502	1.337580E+02	  0.095751502	1.223000E+00	  0.095751502	2.133700E+01
380	  0.095951907	-3.570000E-01	  0.095951907	1.334170E+02	  0.095951907	1.219000E+00	  0.095951907	2.151300E+01
381	  0.096152306	-3.580000E-01	  0.096152306	1.330660E+02	  0.096152306	1.226000E+00	  0.096152306	2.169500E+01
382	  0.096352704	-3.660000E-01	  0.096352704	1.326910E+02	  0.096352704	1.255000E+00	  0.096352704	2.188900E+01
383	  0.096553110	-3.710000E-01	  0.096553110	1.323280E+02	  0.096553110	1.275000E+00	  0.096553110	2.207700E+01
384	  0.096753508	-3.710000E-01	  0.096753508	1.319650E+02	  0.096753508	1.280000E+00	  0.096753508	2.226700E+01
385	  0.096953906	-3.710000E-01	  0.096953906	1.315860E+02	  0.096953906	1.284000E+00	  0.096953906	2.246500E+01
386	  0.097154312	-3.720000E-01	  0.097154312	1.311910E+02	  0.097154312	1.292000E+00	  0.097154312	2.267200E+01
387	  0.097354710	-3.720000E-01	  0.097354710	1.308240E+02	  0.097354710	1.297000E+00	  0.097354710	2.286600E+01
388	  0.097555116	-3.760000E-01	  0.097555116	1.304500E+02	  0.097555116	1.314000E+00	  0.097555116	2.306300E+01
389	  0.097755514	-3.730000E-01	  0.097755514	1.300860E+02	  0.097755514	1.308000E+00	  0.097755514	2.325600E+01
390	  0.097955912	-3.720000E-01	  0.097955912	1.297100E+02	  0.097955912	1.306000E+00	  0.097955912	2.345600E+01
391	  0.098156318	-3.710000E-01	  0.098156318	1.293290E+02	  0.098156318	1.308000E+00	  0.098156318	2.365900E+01
392	  0.098356716	-3.650000E-01	  0.098356716	1.289750E+02	  0.098356716	1.291000E+00	  0.098356716	2.384900E+01
393	  0.098557115	-3.650000E-01	  0.098557115	1.286300E+02	  0.098557115	1.294000E+00	  0.098557115	2.403400E+01
394	  0.098757520	-3.660000E-01	  0.098757520	1.282950E+02	  0.098757520	1.302000E+00	  0.098757520	2.421300E+01
395	  0.098957919	-3.640000E-01	  0.098957919	1.279370E+02	  0.098957919	1.297000E+00	  0.098957919	2.440700E+01
396	  0.099158317	-3.610000E-01	  0.099158317	1.276190E+02	  0.099158317	1.292000E+00	  0.099158317	2.457900E+01
397	  0.099358723	-3.620000E-01	  0.099358723	1.272940E+02	  0.099358723	1.298000E+00	  0.099358723	2.475500E+01
398	  0.099559121	-3.620000E-01	  0.099559121	1.269560E+02	  0.099559121	1.301000E+00	  0.099559121	2.493900E+01
399	  0.099759519	-3.610000E-01	  0.099759519	1.266160E+02	  0.099759519	1.304000E+00	  0.099759519	2.512400E+01
400	  0.099959925	-3.660000E-01	  0.099959925	1.262990E+02	  0.099959925	1.324000E+00	  0.099959925	2.529700E+01
401	  0.100160323	-3.690000E-01	  0.100160323	1.259900E+02	  0.100160323	1.339000E+00	  0.100160323	2.546600E+01
402	  0.100360721	-3.700000E-01	  0.100360721	1.256320E+02	  0.100360721	1.345000E+00	  0.100360721	2.566300E+01
403	  0.100561127	-3.710000E-01	  0.100561127	1.252670E+02	  0.100561127	1.353000E+00	  0.100561127	2.586500E+01
404	  0.100761525	-3.710000E-01	  0.100761525	1.249110E+02	  0.100761525	1.358000E+00	  0.100761525	2.606200E+01
405	  0.100961931	-3.700000E-01	  0.100961931	1.245580E+02	  0.100961931	1.359000E+00	  0.100961931	2.625800E+01
406	  0.101162329	-3.700000E-01	  0.101162329	1.242010E+02	  0.101162329	1.363000E+00	  0.101162329	2.645700E+01
407	  0.101362728	-3.750000E-01	  0.101362728	1.238820E+02	  0.101362728	1.386000E+00	  0.101362728	2.663500E+01
408	  0.101563133	-3.810000E-01	  0.101563133	1.235650E+02	  0.101563133	1.413000E+00	  0.101563133	2.681200E+01
409	  0.101763532	-3.800000E-01	  0.101763532	1.231940E+02	  0.101763532	1.414000E+00	  0.101763532	2.702100E+01
410	  0.101963930	-3.810000E-01	  0.101963930	1.228560E+02	  0.101963930	1.423000E+00	  0.101963930	2.721100E+01
411	  0.102164336	-3.820000E-01	  0.102164336	1.224500E+02	  0.102164336	1.432000E+00	  0.102164336	2.744100E+01
412	  0.102364734	-3.810000E-01	  0.102364734	1.220970E+02	  0.102364734	1.435000E+00	  0.102364734	2.764200E+01
413	  0.102565132	-3.790000E-01	  0.102565132	1.217520E+02	  0.102565132	1.432000E+00	  0.102565132	2.783900E+01
414	  0.102765530	-3.820000E-01	  0.102765530	1.213680E+02	  0.102765530	1.446000E+00	  0.102765530	2.805900E+01
415	  0.102965929	-3.830000E-01	  0.102965929	1.210020E+02	  0.102965929	1.455000E+00	  0.102965929	2.826900E+01
416	  0.103166327	-3.840000E-01	  0.103166327	1.206350E+02	  0.103166327	1.466000E+00	  0.103166327	2.848000E+01
417	  0.103366733	-3.820000E-01	  0.103366733	1.202850E+02	  0.103366733	1.462000E+00	  0.103366733	2.868300E+01
418	  0.103567131	-3.790000E-01	  0.103567131	1.199040E+02	  0.103567131	1.457000E+00	  0.103567131	2.890400E+01
419	  0.103767529	-3.790000E-01	  0.103767529	1.195440E+02	  0.103767529	1.463000E+00	  0.103767529	2.911400E+01
420	  0.103967935	-3.750000E-01	  0.103967935	1.192130E+02	  0.103967935	1.452000E+00	  0.103967935	2.930800E+01
421	  0.104168333	-3.740000E-01	  0.104168333	1.188590E+02	  0.104168333	1.453000E+00	  0.104168333	2.951600E+01
422	  0.104368731	-3.720000E-01	  0.104368731	1.185330E+02	  0.104368731	1.451000E+00	  0.104368731	2.970800E+01
423	  0.104569137	-3.700000E-01	  0.104569137	1.181610E+02	  0.104569137	1.446000E+00	  0.104569137	2.992900E+01
424	  0.104769535	-3.710000E-01	  0.104769535	1.178580E+02	  0.104769535	1.458000E+00	  0.104769535	3.010800E+01
425	  0.104969934	-3.720000E-01	  0.104969934	1.175330E+02	  0.104969934	1.465000E+00	  0.104969934	3.030100E+01
426	  0.105170339	-3.710000E-01	  0.105170339	1.172440E+02	  0.105170339	1.467000E+00	  0.105170339	3.047400E+01
427	  0.105370738	-3.770000E-01	  0.105370738	1.168930E+02	  0.105370738	1.495000E+00	  0.105370738	3.068300E+01
428	  0.105571143	-3.740000E-01	  0.105571143	1.165450E+02	  0.105571143	1.487000E+00	  0.105571143	3.089300E+01
429	  0.105771542	-3.760000E-01	  0.105771542	1.162650E+02	  0.105771542	1.502000E+00	  0.105771542	3.106200E+01
430	  0.105971940	-3.730000E-01	  0.105971940	1.159080E+02	  0.105971940	1.495000E+00	  0.105971940	3.127900E+01
431	  0.106172346	-3.740000E-01	  0.106172346	1.155720E+02	  0.106172346	1.504000E+00	  0.106172346	3.148200E+01
432	  0.106372744	-3.750000E-01	  0.106372744	1.152470E+02	  0.106372744	1.514000E+00	  0.106372744	3.168100E+01
433	  0.106573142	-3.810000E-01	  0.106573142	1.149100E+02	  0.106573142	1.544000E+00	  0.106573142	3.188600E+01
434	  0.106773548	-3.800000E-01	  0.106773548	1.145820E+02	  0.106773548	1.547000E+00	  0.106773548	3.208800E+01
435	  0.106973946	-3.830000E-01	  0.106973946	1.142370E+02	  0.106973946	1.565000E+00	  0.106973946	3.230100E+01
436	  0.107174344	-3.870000E-01	  0.107174344	1.139410E+02	  0.107174344	1.584000E+00	  0.107174344	3.248300E+01
437	  0.107374750	-3.820000E-01	  0.107374750	1.135870E+02	  0.107374750	1.570000E+00	  0.107374750	3.270400E+01
438	  0.107575148	-3.790000E-01	  0.107575148	1.132410E+02	  0.107575148	1.564000E+00	  0.107575148	3.292000E+01
439	  0.107775547	-3.840000E-01	  0.107775547	1.128950E+02	  0.107775547	1.591000E+00	  0.107775547	3.313600E+01
440	  0.107975952	-3.870000E-01	  0.107975952	1.125200E+02	  0.107975952	1.611000E+00	  0.107975952	3.337100E+01
441	  0.108176351	-3.850000E-01	  0.108176351	1.121750E+02	  0.108176351	1.608000E+00	  0.108176351	3.359000E+01
442	  0.108376749	-3.850000E-01	  0.108376749	1.118240E+02	  0.108376749	1.618000E+00	  0.108376749	3.381200E+01
443	  0.108577155	-3.860000E-01	  0.108577155	1.114920E+02	  0.108577155	1.628000E+00	  0.108577155	3.402400E+01
444	  0.108777553	-3.790000E-01	  0.108777553	1.111270E+02	  0.108777553	1.606000E+00	  0.108777553	3.425800E+01
445	  0.108977959	-3.830000E-01	  0.108977959	1.108180E+02	  0.108977959	1.627000E+00	  0.108977959	3.445500E+01
446	  0.109178357	-3.790000E-01	  0.109178357	1.104620E+02	  0.109178357	1.619000E+00	  0.109178357	3.468600E+01
447	  0.109378755	-3.740000E-01	  0.109378755	1.101370E+02	  0.109378755	1.605000E+00	  0.109378755	3.489600E+01
448	  0.109579161	-3.750000E-01	  0.109579161	1.097870E+02	  0.109579161	1.612000E+00	  0.109579161	3.512400E+01
449	  0.109779559	-3.720000E-01	  0.109779559	1.094530E+02	  0.109779559	1.607000E+00	  0.109779559	3.534200E+01
450	  0.109979957	-3.750000E-01	  0.109979957	1.091420E+02	  0.109979957	1.629000E+00	  0.109979957	3.554500E+01
451	  0.110180363	-3.740000E-01	  0.110180363	1.088230E+02	  0.110180363	1.630000E+00	  0.110180363	3.575600E+01
452	  0.110380761	-3.750000E-01	  0.110380761	1.085110E+02	  0.110380761	1.637000E+00	  0.110380761	3.596100E+01
453	  0.110581160	-3.790000E-01	  0.110581160	1.081720E+02	  0.110581160	1.664000E+00	  0.110581160	3.618500E+01
454	  0.110781565	-3.790000E-01	  0.110781565	1.078510E+02	  0.110781565	1.673000E+00	  0.110781565	3.639900E+01
455	  0.110981964	-3.790000E-01	  0.110981964	1.075200E+02	  0.110981964	1.678000E+00	  0.110981964	3.662000E+01
456	  0.111182362	-3.760000E-01	  0.111182362	1.071680E+02	  0.111182362	1.672000E+00	  0.111182362	3.685700E+01
457	  0.111382768	-3.770000E-01	  0.111382768	1.068290E+02	  0.111382768	1.683000E+00	  0.111382768	3.708500E+01
458	  0.111583166	-3.790000E-01	  0.111583166	1.065480E+02	  0.111583166	1.698000E+00	  0.111583166	3.727500E+01
459	  0.111783572	-3.830000E-01	  0.111783572	1.061950E+02	  0.111783572	1.724000E+00	  0.111783572	3.751500E+01
460	  0.111983970	-3.930000E-01	  0.111983970	1.058910E+02	  0.111983970	1.776000E+00	  0.111983970	3.772100E+01
461	  0.112184368	-3.920000E-01	  0.112184368	1.055320E+02	  0.112184368	1.779000E+00	  0.112184368	3.796800E+01
462	  0.112384774	-3.930000E-01	  0.112384774	1.052020E+02	  0.112384774	1.793000E+00	  0.112384774	3.819500E+01
463	  0.112585172	-3.970000E-01	  0.112585172	1.048880E+02	  0.112585172	1.818000E+00	  0.112585172	3.841100E+01
464	  0.112785570	-3.890000E-01	  0.112785570	1.045340E+02	  0.112785570	1.791000E+00	  0.112785570	3.865900E+01
465	  0.112985976	-3.940000E-01	  0.112985976	1.042050E+02	  0.112985976	1.822000E+00	  0.112985976	3.888700E+01
466	  0.113186374	-3.950000E-01	  0.113186374	1.038330E+02	  0.113186374	1.838000E+00	  0.113186374	3.914800E+01
467	  0.113386773	-3.960000E-01	  0.113386773	1.035360E+02	  0.113386773	1.848000E+00	  0.113386773	3.935800E+01
468	  0.113587178	-3.960000E-01	  0.113587178	1.031690E+02	  0.113587178	1.858000E+00	  0.113587178	3.961700E+01
469	  0.113787577	-3.880000E-01	  0.113787577	1.028450E+02	  0.113787577	1.830000E+00	  0.113787577	3.984900E+01
470	  0.113987975	-3.880000E-01	  0.113987975	1.025180E+02	  0.113987975	1.837000E+00	  0.113987975	4.008300E+01
471	  0.114188381	-3.910000E-01	  0.114188381	1.021760E+02	  0.114188381	1.858000E+00	  0.114188381	4.032800E+01
472	  0.114388779	-3.940000E-01	  0.114388779	1.018590E+02	  0.114388779	1.882000E+00	  0.114388779	4.055600E+01
473	  0.114589177	-3.940000E-01	  0.114589177	1.015180E+02	  0.114589177	1.893000E+00	  0.114589177	4.080300E+01
474	  0.114789583	-3.890000E-01	  0.114789583	1.012100E+02	  0.114789583	1.877000E+00	  0.114789583	4.102800E+01
475	  0.114989981	-3.880000E-01	  0.114989981	1.008820E+02	  0.114989981	1.881000E+00	  0.114989981	4.126800E+01
476	  0.115190387	-3.860000E-01	  0.115190387	1.005320E+02	  0.115190387	1.878000E+00	  0.115190387	4.152600E+01
477	  0.115390785	-3.830000E-01	  0.115390785	1.002650E+02	  0.115390785	1.872000E+00	  0.115390785	4.172300E+01
478	  0.115591183	-3.880000E-01	  0.115591183	9.994300E+01	  0.115591183	1.907000E+00	  0.115591183	4.196100E+01
479	  0.115791589	-3.900000E-01	  0.115791589	9.962100E+01	  0.115791589	1.923000E+00	  0.115791589	4.220000E+01
480	  0.115991987	-3.900000E-01	  0.115991987	9.926800E+01	  0.115991987	1.937000E+00	  0.115991987	4.246400E+01
481	  0.116192386	-3.950000E-01	  0.116192386	9.899300E+01	  0.116192386	1.969000E+00	  0.116192386	4.267000E+01
482	  0.116392791	-3.900000E-01	  0.116392791	9.862700E+01	  0.116392791	1.952000E+00	  0.116392791	4.294700E+01
483	  0.116593190	-3.930000E-01	  0.116593190	9.830900E+01	  0.116593190	1.978000E+00	  0.116593190	4.318900E+01
484	  0.116793588	-3.940000E-01	  0.116793588	9.800200E+01	  0.116793588	1.990000E+00	  0.116793588	4.342300E+01
485	  0.116993994	-3.960000E-01	  0.116993994	9.767100E+01	  0.116993994	2.013000E+00	  0.116993994	4.367600E+01
486	  0.117194392	-3.980000E-01	  0.117194392	9.736900E+01	  0.117194392	2.032000E+00	  0.117194392	4.390800E+01
487	  0.117394790	-4.010000E-01	  0.117394790	9.703100E+01	  0.117394790	2.060000E+00	  0.117394790	4.417000E+01
488	  0.117595196	-4.040000E-01	  0.117595196	9.671300E+01	  0.117595196	2.084000E+00	  0.117595196	4.441600E+01
489	  0.117795594	-3.970000E-01	  0.117795594	9.634100E+01	  0.117795594	2.061000E+00	  0.117795594	4.470900E+01
490	  0.117995992	-4.010000E-01	  0.117995992	9.603600E+01	  0.117995992	2.089000E+00	  0.117995992	4.494700E+01
491	  0.118196398	-3.950000E-01	  0.118196398	9.569200E+01	  0.118196398	2.067000E+00	  0.118196398	4.522000E+01
492	  0.118396796	-4.000000E-01	  0.118396796	9.536300E+01	  0.118396796	2.107000E+00	  0.118396796	4.548100E+01
493	  0.118597202	-4.010000E-01	  0.118597202	9.503200E+01	  0.118597202	2.122000E+00	  0.118597202	4.574500E+01
494	  0.118797600	-4.010000E-01	  0.118797600	9.470400E+01	  0.118797600	2.133000E+00	  0.118797600	4.600800E+01
495	  0.118997999	-4.030000E-01	  0.118997999	9.438400E+01	  0.118997999	2.156000E+00	  0.118997999	4.626700E+01
496	  0.119198404	-3.990000E-01	  0.119198404	9.406400E+01	  0.119198404	2.147000E+00	  0.119198404	4.652600E+01
497	  0.119398803	-3.960000E-01	  0.119398803	9.375700E+01	  0.119398803	2.140000E+00	  0.119398803	4.677800E+01
498	  0.119599201	-4.030000E-01	  0.119599201	9.339800E+01	  0.119599201	2.193000E+00	  0.119599201	4.707000E+01
499	  0.119799607	-3.960000E-01	  0.119799607	9.308900E+01	  0.119799607	2.166000E+00	  0.119799607	4.732600E+01
500	  0.120000005	-3.940000E-01	  0.120000005	9.276200E+01	  0.120000005	2.167000E+00	  0.120000005	4.759800E+01
