! Anritsu VNA Master:             	Model: MS2036C/10/77
! SN:             	1601066
! /bd0/18may26.balun/4b.me1.txt
! Existing Calibration Information:
! TYPE:             	Current Settings	Active Cal Settings
! TIME:             	05/26/2018 04:33:15 PM	05/26/2018 04:28:16 PM
! INTERNAL TEMP:    	56.0 C	56.3 C
! # POINTS:         	500	500
! START FREQ:       	20.000 MHz	20.000 MHz
! STOP FREQ:        	120.000 MHz	120.000 MHz
! SOURCE POWER:     	High	High
! IFBW:             	50 Hz	50 Hz
! AVG FACTOR:       	  1 	  1 
! REF PLANE 1:      	0 mm	0 mm
! REF PLANE 2:      	0 mm	0 mm
! CAL TYPE:         	Full S11	Full S11
! CAL METHOD:       	SOLT	SOLT
! CAL LINE TYPE:    	Coax	Coax
! DUT PORT 1:       	K-Conn(M)	K-Conn(M)
! DUT PORT 2:       	K-Conn(M)	K-Conn(M)
! CAL STATUS:       	OK: Accuracy High	--
! PROP-V:       	0.700
! CABLE LOSS:       	0.000 dB/m
! REF IMPEDANCE:       	50.0
! Trace Specific Parameters:	TR1	TR2	TR3	TR4
! TRACE.#.Y (GRAPH TYPE)	LOG MAG	PHASE	REAL IMPEDANCE	IMAGINARY IMPEDANCE
! TRACE.#.X 	FREQ.GHZ	FREQ.GHZ	FREQ.GHZ	FREQ.GHZ
! S-PARAMETER	S11	S11	S11	S11
! SMOOTH/APERTURE %	0	0	0	0
! WINDOW	NSL	NSL	NSL	NSL
! GATING	OFF	OFF	OFF	OFF
! FGTD	OFF	OFF	OFF	OFF
Marker Information per Trace:	TR1	TR2	TR3	TR4
!MK1	--	--	--	--
!MK2	--	--	--	--
!MK3	--	--	--	--
!MK4	--	--	--	--
!MK5	--	--	--	--
!MK6	--	--	--	--
!MK7	--	--	--	--
!MK8	--	--	--	--
PNT	TR1.FREQ.GHZ	TR1.LOG MAG.dB	TR2.FREQ.GHZ	TR2.PHASE.deg	TR3.FREQ.GHZ	TR3.REAL IMPEDANCE.ohm	TR4.FREQ.GHZ	TR4.IMAGINARY IMPEDANCE.ohm
1	  0.020000000	-6.170000E-01	  0.020000000	-1.268030E+02	  0.020000000	2.222000E+00	  0.020000000	-2.499600E+01
2	  0.020200402	-6.170000E-01	  0.020200402	-1.282990E+02	  0.020200402	2.191000E+00	  0.020200402	-2.418700E+01
3	  0.020400802	-6.140000E-01	  0.020400802	-1.297830E+02	  0.020400802	2.156000E+00	  0.020400802	-2.339400E+01
4	  0.020601204	-6.140000E-01	  0.020601204	-1.312460E+02	  0.020601204	2.131000E+00	  0.020601204	-2.262200E+01
5	  0.020801604	-6.190000E-01	  0.020801604	-1.327550E+02	  0.020801604	2.122000E+00	  0.020801604	-2.183400E+01
6	  0.021002004	-6.240000E-01	  0.021002004	-1.342840E+02	  0.021002004	2.116000E+00	  0.021002004	-2.104500E+01
7	  0.021202406	-6.320000E-01	  0.021202406	-1.358350E+02	  0.021202406	2.118000E+00	  0.021202406	-2.025300E+01
8	  0.021402806	-6.390000E-01	  0.021402806	-1.373790E+02	  0.021402806	2.120000E+00	  0.021402806	-1.947300E+01
9	  0.021603208	-6.430000E-01	  0.021603208	-1.389210E+02	  0.021603208	2.110000E+00	  0.021603208	-1.870400E+01
10	  0.021803608	-6.500000E-01	  0.021803608	-1.404680E+02	  0.021803608	2.114000E+00	  0.021803608	-1.793900E+01
11	  0.022004008	-6.560000E-01	  0.022004008	-1.420440E+02	  0.022004008	2.111000E+00	  0.022004008	-1.716700E+01
12	  0.022204408	-6.580000E-01	  0.022204408	-1.436250E+02	  0.022204408	2.098000E+00	  0.022204408	-1.640000E+01
13	  0.022404809	-6.600000E-01	  0.022404809	-1.452310E+02	  0.022404809	2.086000E+00	  0.022404809	-1.562900E+01
14	  0.022605211	-6.630000E-01	  0.022605211	-1.468050E+02	  0.022605211	2.077000E+00	  0.022605211	-1.487900E+01
15	  0.022805611	-6.650000E-01	  0.022805611	-1.483790E+02	  0.022805611	2.067000E+00	  0.022805611	-1.413500E+01
16	  0.023006011	-6.660000E-01	  0.023006011	-1.499640E+02	  0.023006011	2.055000E+00	  0.023006011	-1.339200E+01
17	  0.023206413	-6.730000E-01	  0.023206413	-1.515660E+02	  0.023206413	2.062000E+00	  0.023206413	-1.264700E+01
18	  0.023406813	-6.820000E-01	  0.023406813	-1.531760E+02	  0.023406813	2.074000E+00	  0.023406813	-1.190300E+01
19	  0.023607215	-6.900000E-01	  0.023607215	-1.548150E+02	  0.023607215	2.084000E+00	  0.023607215	-1.115000E+01
20	  0.023807615	-6.970000E-01	  0.023807615	-1.564430E+02	  0.023807615	2.094000E+00	  0.023807615	-1.040800E+01
21	  0.024008015	-7.070000E-01	  0.024008015	-1.580800E+02	  0.024008015	2.110000E+00	  0.024008015	-9.665000E+00
22	  0.024208417	-7.170000E-01	  0.024208417	-1.597110E+02	  0.024208417	2.130000E+00	  0.024208417	-8.930000E+00
23	  0.024408817	-7.300000E-01	  0.024408817	-1.613700E+02	  0.024408817	2.156000E+00	  0.024408817	-8.185000E+00
24	  0.024609219	-7.410000E-01	  0.024609219	-1.630490E+02	  0.024609219	2.180000E+00	  0.024609219	-7.436000E+00
25	  0.024809619	-7.480000E-01	  0.024809619	-1.647580E+02	  0.024809619	2.192000E+00	  0.024809619	-6.677000E+00
26	  0.025010020	-7.540000E-01	  0.025010020	-1.664500E+02	  0.025010020	2.202000E+00	  0.025010020	-5.928000E+00
27	  0.025210422	-7.640000E-01	  0.025210422	-1.681410E+02	  0.025210422	2.221000E+00	  0.025210422	-5.182000E+00
28	  0.025410822	-7.740000E-01	  0.025410822	-1.698570E+02	  0.025410822	2.245000E+00	  0.025410822	-4.428000E+00
29	  0.025611224	-7.840000E-01	  0.025611224	-1.715660E+02	  0.025611224	2.269000E+00	  0.025611224	-3.679000E+00
30	  0.025811624	-7.950000E-01	  0.025811624	-1.732840E+02	  0.025811624	2.297000E+00	  0.025811624	-2.927000E+00
31	  0.026012026	-8.080000E-01	  0.026012026	-1.750400E+02	  0.026012026	2.330000E+00	  0.026012026	-2.160000E+00
32	  0.026212426	-8.220000E-01	  0.026212426	-1.767800E+02	  0.026212426	2.368000E+00	  0.026212426	-1.401000E+00
33	  0.026412826	-8.380000E-01	  0.026412826	-1.785310E+02	  0.026412826	2.410000E+00	  0.026412826	-6.390000E-01
34	  0.026613226	-8.530000E-01	  0.026613226	1.796910E+02	  0.026613226	2.453000E+00	  0.026613226	1.340000E-01
35	  0.026813626	-8.700000E-01	  0.026813626	1.779160E+02	  0.026813626	2.503000E+00	  0.026813626	9.070000E-01
36	  0.027014028	-8.850000E-01	  0.027014028	1.761560E+02	  0.027014028	2.548000E+00	  0.027014028	1.673000E+00
37	  0.027214428	-8.980000E-01	  0.027214428	1.743910E+02	  0.027214428	2.589000E+00	  0.027214428	2.442000E+00
38	  0.027414829	-9.130000E-01	  0.027414829	1.726100E+02	  0.027414829	2.638000E+00	  0.027414829	3.219000E+00
39	  0.027615231	-9.310000E-01	  0.027615231	1.708270E+02	  0.027615231	2.694000E+00	  0.027615231	3.999000E+00
40	  0.027815631	-9.530000E-01	  0.027815631	1.690160E+02	  0.027815631	2.765000E+00	  0.027815631	4.792000E+00
41	  0.028016033	-9.710000E-01	  0.028016033	1.671750E+02	  0.028016033	2.827000E+00	  0.028016033	5.601000E+00
42	  0.028216433	-9.910000E-01	  0.028216433	1.653240E+02	  0.028216433	2.898000E+00	  0.028216433	6.417000E+00
43	  0.028416833	-1.012000E+00	  0.028416833	1.634820E+02	  0.028416833	2.971000E+00	  0.028416833	7.232000E+00
44	  0.028617235	-1.033000E+00	  0.028617235	1.616310E+02	  0.028617235	3.049000E+00	  0.028617235	8.054000E+00
45	  0.028817635	-1.058000E+00	  0.028817635	1.597630E+02	  0.028817635	3.139000E+00	  0.028817635	8.888000E+00
46	  0.029018037	-1.083000E+00	  0.029018037	1.578710E+02	  0.029018037	3.234000E+00	  0.029018037	9.737000E+00
47	  0.029218437	-1.108000E+00	  0.029218437	1.559490E+02	  0.029218437	3.330000E+00	  0.029218437	1.060500E+01
48	  0.029418837	-1.128000E+00	  0.029418837	1.540400E+02	  0.029418837	3.415000E+00	  0.029418837	1.147300E+01
49	  0.029619239	-1.151000E+00	  0.029619239	1.521430E+02	  0.029619239	3.512000E+00	  0.029619239	1.234200E+01
50	  0.029819639	-1.174000E+00	  0.029819639	1.502640E+02	  0.029819639	3.612000E+00	  0.029819639	1.320900E+01
51	  0.030020041	-1.199000E+00	  0.030020041	1.483700E+02	  0.030020041	3.723000E+00	  0.030020041	1.408900E+01
52	  0.030220442	-1.226000E+00	  0.030220442	1.464770E+02	  0.030220442	3.841000E+00	  0.030220442	1.497700E+01
53	  0.030420844	-1.259000E+00	  0.030420844	1.445740E+02	  0.030420844	3.987000E+00	  0.030420844	1.587700E+01
54	  0.030621244	-1.300000E+00	  0.030621244	1.426210E+02	  0.030621244	4.162000E+00	  0.030621244	1.680800E+01
55	  0.030821644	-1.335000E+00	  0.030821644	1.406280E+02	  0.030821644	4.324000E+00	  0.030821644	1.776900E+01
56	  0.031022044	-1.370000E+00	  0.031022044	1.386280E+02	  0.031022044	4.493000E+00	  0.031022044	1.874500E+01
57	  0.031222444	-1.394000E+00	  0.031222444	1.366020E+02	  0.031222444	4.634000E+00	  0.031222444	1.974800E+01
58	  0.031422846	-1.422000E+00	  0.031422846	1.345690E+02	  0.031422846	4.796000E+00	  0.031422846	2.076700E+01
59	  0.031623244	-1.450000E+00	  0.031623244	1.325650E+02	  0.031623244	4.962000E+00	  0.031623244	2.178400E+01
60	  0.031823646	-1.471000E+00	  0.031823646	1.305720E+02	  0.031823646	5.111000E+00	  0.031823646	2.281200E+01
61	  0.032024048	-1.494000E+00	  0.032024048	1.286120E+02	  0.032024048	5.275000E+00	  0.032024048	2.383900E+01
62	  0.032224450	-1.523000E+00	  0.032224450	1.266430E+02	  0.032224450	5.466000E+00	  0.032224450	2.488300E+01
63	  0.032424849	-1.551000E+00	  0.032424849	1.246890E+02	  0.032424849	5.666000E+00	  0.032424849	2.593600E+01
64	  0.032625251	-1.586000E+00	  0.032625251	1.227200E+02	  0.032625251	5.898000E+00	  0.032625251	2.701200E+01
65	  0.032825653	-1.625000E+00	  0.032825653	1.207630E+02	  0.032825653	6.155000E+00	  0.032825653	2.809800E+01
66	  0.033026051	-1.671000E+00	  0.033026051	1.187820E+02	  0.033026051	6.454000E+00	  0.033026051	2.921300E+01
67	  0.033226453	-1.720000E+00	  0.033226453	1.167830E+02	  0.033226453	6.778000E+00	  0.033226453	3.035800E+01
68	  0.033426855	-1.764000E+00	  0.033426855	1.147640E+02	  0.033426855	7.103000E+00	  0.033426855	3.153800E+01
69	  0.033627257	-1.810000E+00	  0.033627257	1.127140E+02	  0.033627257	7.455000E+00	  0.033627257	3.275800E+01
70	  0.033827655	-1.854000E+00	  0.033827655	1.105970E+02	  0.033827655	7.824000E+00	  0.033827655	3.404700E+01
71	  0.034028057	-1.903000E+00	  0.034028057	1.085180E+02	  0.034028057	8.231000E+00	  0.034028057	3.533600E+01
72	  0.034228459	-1.950000E+00	  0.034228459	1.064100E+02	  0.034228459	8.656000E+00	  0.034228459	3.667300E+01
73	  0.034428857	-1.994000E+00	  0.034428857	1.042990E+02	  0.034428857	9.094000E+00	  0.034428857	3.804600E+01
74	  0.034629259	-2.035000E+00	  0.034629259	1.022080E+02	  0.034629259	9.542000E+00	  0.034629259	3.944000E+01
75	  0.034829661	-2.070000E+00	  0.034829661	1.001430E+02	  0.034829661	9.988000E+00	  0.034829661	4.085600E+01
76	  0.035030060	-2.108000E+00	  0.035030060	9.811000E+01	  0.035030060	1.047200E+01	  0.035030060	4.228200E+01
77	  0.035230462	-2.151000E+00	  0.035230462	9.608400E+01	  0.035230462	1.100600E+01	  0.035230462	4.373300E+01
78	  0.035430863	-2.202000E+00	  0.035430863	9.406100E+01	  0.035430863	1.161800E+01	  0.035430863	4.521000E+01
79	  0.035631265	-2.259000E+00	  0.035631265	9.204700E+01	  0.035631265	1.229400E+01	  0.035631265	4.670900E+01
80	  0.035831664	-2.315000E+00	  0.035831664	8.997000E+01	  0.035831664	1.303000E+01	  0.035831664	4.829800E+01
81	  0.036032066	-2.377000E+00	  0.036032066	8.786900E+01	  0.036032066	1.385200E+01	  0.036032066	4.993900E+01
82	  0.036232468	-2.431000E+00	  0.036232468	8.571300E+01	  0.036232468	1.470100E+01	  0.036232468	5.168300E+01
83	  0.036432866	-2.485000E+00	  0.036432866	8.355300E+01	  0.036432866	1.561300E+01	  0.036432866	5.348300E+01
84	  0.036633268	-2.540000E+00	  0.036633268	8.138300E+01	  0.036633268	1.660600E+01	  0.036633268	5.534200E+01
85	  0.036833670	-2.584000E+00	  0.036833670	7.922600E+01	  0.036833670	1.760500E+01	  0.036833670	5.726900E+01
86	  0.037034072	-2.631000E+00	  0.037034072	7.708400E+01	  0.037034072	1.869200E+01	  0.037034072	5.923600E+01
87	  0.037234470	-2.673000E+00	  0.037234470	7.496400E+01	  0.037234470	1.983000E+01	  0.037234470	6.125400E+01
88	  0.037434869	-2.715000E+00	  0.037434869	7.286700E+01	  0.037434869	2.104800E+01	  0.037434869	6.331400E+01
89	  0.037635271	-2.759000E+00	  0.037635271	7.079100E+01	  0.037635271	2.237500E+01	  0.037635271	6.540800E+01
90	  0.037835669	-2.808000E+00	  0.037835669	6.872100E+01	  0.037835669	2.384900E+01	  0.037835669	6.753800E+01
91	  0.038036071	-2.861000E+00	  0.038036071	6.665700E+01	  0.038036071	2.547100E+01	  0.038036071	6.971000E+01
92	  0.038236473	-2.915000E+00	  0.038236473	6.460300E+01	  0.038236473	2.722700E+01	  0.038236473	7.192600E+01
93	  0.038436871	-2.973000E+00	  0.038436871	6.253500E+01	  0.038436871	2.918600E+01	  0.038436871	7.419200E+01
94	  0.038637273	-3.036000E+00	  0.038637273	6.046100E+01	  0.038637273	3.136500E+01	  0.038637273	7.648900E+01
95	  0.038837675	-3.098000E+00	  0.038837675	5.835400E+01	  0.038837675	3.375400E+01	  0.038837675	7.887800E+01
96	  0.039038073	-3.159000E+00	  0.039038073	5.620000E+01	  0.039038073	3.640700E+01	  0.039038073	8.137600E+01
97	  0.039238475	-3.214000E+00	  0.039238475	5.403000E+01	  0.039238475	3.927900E+01	  0.039238475	8.397200E+01
98	  0.039438877	-3.259000E+00	  0.039438877	5.187500E+01	  0.039438877	4.231400E+01	  0.039438877	8.666500E+01
99	  0.039639279	-3.305000E+00	  0.039639279	4.979500E+01	  0.039639279	4.556100E+01	  0.039639279	8.927100E+01
100	  0.039839678	-3.349000E+00	  0.039839678	4.771300E+01	  0.039839678	4.910900E+01	  0.039839678	9.191100E+01
101	  0.040040080	-3.391000E+00	  0.040040080	4.570300E+01	  0.040040080	5.285300E+01	  0.040040080	9.446800E+01
102	  0.040240481	-3.443000E+00	  0.040240481	4.370800E+01	  0.040240481	5.703300E+01	  0.040240481	9.684000E+01
103	  0.040440880	-3.498000E+00	  0.040440880	4.167100E+01	  0.040440880	6.171400E+01	  0.040440880	9.915200E+01
104	  0.040641282	-3.556000E+00	  0.040641282	3.966000E+01	  0.040641282	6.678500E+01	  0.040641282	1.012590E+02
105	  0.040841684	-3.611000E+00	  0.040841684	3.761700E+01	  0.040841684	7.237800E+01	  0.040841684	1.032440E+02
106	  0.041042086	-3.671000E+00	  0.041042086	3.556100E+01	  0.041042086	7.854500E+01	  0.041042086	1.049000E+02
107	  0.041242484	-3.725000E+00	  0.041242484	3.352700E+01	  0.041242484	8.510900E+01	  0.041242484	1.062980E+02
108	  0.041442886	-3.780000E+00	  0.041442886	3.147300E+01	  0.041442886	9.228300E+01	  0.041442886	1.072720E+02
109	  0.041643288	-3.834000E+00	  0.041643288	2.942400E+01	  0.041643288	9.997500E+01	  0.041643288	1.077130E+02
110	  0.041843686	-3.882000E+00	  0.041843686	2.734900E+01	  0.041843686	1.082760E+02	  0.041843686	1.076640E+02
111	  0.042044088	-3.930000E+00	  0.042044088	2.530900E+01	  0.042044088	1.169500E+02	  0.042044088	1.068060E+02
112	  0.042244490	-3.976000E+00	  0.042244490	2.329400E+01	  0.042244490	1.259540E+02	  0.042244490	1.050970E+02
113	  0.042444889	-4.021000E+00	  0.042444889	2.128100E+01	  0.042444889	1.352810E+02	  0.042444889	1.023410E+02
114	  0.042645290	-4.070000E+00	  0.042645290	1.929000E+01	  0.042645290	1.446550E+02	  0.042645290	9.832800E+01
115	  0.042845692	-4.115000E+00	  0.042845692	1.730300E+01	  0.042845692	1.540290E+02	  0.042845692	9.315400E+01
116	  0.043046094	-4.158000E+00	  0.043046094	1.529200E+01	  0.043046094	1.633420E+02	  0.043046094	8.664200E+01
117	  0.043246493	-4.204000E+00	  0.043246493	1.332300E+01	  0.043246493	1.718770E+02	  0.043246493	7.871200E+01
118	  0.043446895	-4.249000E+00	  0.043446895	1.132500E+01	  0.043446895	1.797700E+02	  0.043446895	6.935400E+01
119	  0.043647297	-4.295000E+00	  0.043647297	9.352000E+00	  0.043647297	1.864430E+02	  0.043647297	5.883400E+01
120	  0.043847695	-4.339000E+00	  0.043847695	7.399000E+00	  0.043847695	1.917770E+02	  0.043847695	4.743700E+01
121	  0.044048097	-4.383000E+00	  0.044048097	5.438000E+00	  0.044048097	1.955860E+02	  0.044048097	3.521800E+01
122	  0.044248499	-4.424000E+00	  0.044248499	3.495000E+00	  0.044248499	1.977440E+02	  0.044248499	2.267100E+01
123	  0.044448901	-4.462000E+00	  0.044448901	1.535000E+00	  0.044448901	1.983550E+02	  0.044448901	9.904000E+00
124	  0.044649299	-4.499000E+00	  0.044649299	-3.820000E-01	  0.044649299	1.973080E+02	  0.044649299	-2.433000E+00
125	  0.044849701	-4.540000E+00	  0.044849701	-2.302000E+00	  0.044849701	1.945040E+02	  0.044849701	-1.429000E+01
126	  0.045050103	-4.580000E+00	  0.045050103	-4.182000E+00	  0.045050103	1.904200E+02	  0.045050103	-2.514800E+01
127	  0.045250501	-4.620000E+00	  0.045250501	-6.085000E+00	  0.045250501	1.851870E+02	  0.045250501	-3.521800E+01
128	  0.045450903	-4.660000E+00	  0.045450903	-7.949000E+00	  0.045450903	1.791520E+02	  0.045450903	-4.403600E+01
129	  0.045651305	-4.696000E+00	  0.045651305	-9.852000E+00	  0.045651305	1.724460E+02	  0.045651305	-5.200000E+01
130	  0.045851704	-4.732000E+00	  0.045851704	-1.174300E+01	  0.045851704	1.653070E+02	  0.045851704	-5.879900E+01
131	  0.046052106	-4.770000E+00	  0.046052106	-1.360000E+01	  0.046052106	1.579900E+02	  0.046052106	-6.436600E+01
132	  0.046252504	-4.800000E+00	  0.046252504	-1.545500E+01	  0.046252504	1.507350E+02	  0.046252504	-6.911300E+01
133	  0.046452906	-4.836000E+00	  0.046452906	-1.730000E+01	  0.046452906	1.434120E+02	  0.046452906	-7.276900E+01
134	  0.046653304	-4.868000E+00	  0.046653304	-1.911600E+01	  0.046653304	1.364010E+02	  0.046653304	-7.566900E+01
135	  0.046853706	-4.905000E+00	  0.046853706	-2.095600E+01	  0.046853706	1.294520E+02	  0.046853706	-7.777500E+01
136	  0.047054108	-4.936000E+00	  0.047054108	-2.278200E+01	  0.047054108	1.228750E+02	  0.047054108	-7.937400E+01
137	  0.047254506	-4.969000E+00	  0.047254506	-2.463000E+01	  0.047254506	1.164980E+02	  0.047254506	-8.039400E+01
138	  0.047454908	-4.996000E+00	  0.047454908	-2.643500E+01	  0.047454908	1.106030E+02	  0.047454908	-8.105500E+01
139	  0.047655310	-5.028000E+00	  0.047655310	-2.825300E+01	  0.047655310	1.049600E+02	  0.047655310	-8.121500E+01
140	  0.047855709	-5.056000E+00	  0.047855709	-3.005700E+01	  0.047855709	9.968700E+01	  0.047855709	-8.111000E+01
141	  0.048056111	-5.087000E+00	  0.048056111	-3.186200E+01	  0.048056111	9.471800E+01	  0.048056111	-8.067900E+01
142	  0.048256513	-5.112000E+00	  0.048256513	-3.364800E+01	  0.048256513	9.009900E+01	  0.048256513	-8.010300E+01
143	  0.048456915	-5.133000E+00	  0.048456915	-3.545300E+01	  0.048456915	8.570800E+01	  0.048456915	-7.942000E+01
144	  0.048657313	-5.152000E+00	  0.048657313	-3.725300E+01	  0.048657313	8.159400E+01	  0.048657313	-7.857300E+01
145	  0.048857715	-5.172000E+00	  0.048857715	-3.899500E+01	  0.048857715	7.786100E+01	  0.048857715	-7.759900E+01
146	  0.049058117	-5.192000E+00	  0.049058117	-4.073700E+01	  0.049058117	7.435500E+01	  0.049058117	-7.653000E+01
147	  0.049258515	-5.210000E+00	  0.049258515	-4.239900E+01	  0.049258515	7.120800E+01	  0.049258515	-7.543600E+01
148	  0.049458917	-5.230000E+00	  0.049458917	-4.406800E+01	  0.049458917	6.824500E+01	  0.049458917	-7.424900E+01
149	  0.049659319	-5.249000E+00	  0.049659319	-4.572500E+01	  0.049659319	6.547200E+01	  0.049659319	-7.303400E+01
150	  0.049859721	-5.274000E+00	  0.049859721	-4.739600E+01	  0.049859721	6.286500E+01	  0.049859721	-7.171600E+01
151	  0.050060119	-5.293000E+00	  0.050060119	-4.906000E+01	  0.050060119	6.040400E+01	  0.050060119	-7.043200E+01
152	  0.050260521	-5.322000E+00	  0.050260521	-5.072700E+01	  0.050260521	5.812800E+01	  0.050260521	-6.903800E+01
153	  0.050460923	-5.342000E+00	  0.050460923	-5.238600E+01	  0.050460923	5.596200E+01	  0.050460923	-6.771900E+01
154	  0.050661322	-5.363000E+00	  0.050661322	-5.404700E+01	  0.050661322	5.392200E+01	  0.050661322	-6.638800E+01
155	  0.050861724	-5.379000E+00	  0.050861724	-5.572300E+01	  0.050861724	5.196100E+01	  0.050861724	-6.508100E+01
156	  0.051062126	-5.393000E+00	  0.051062126	-5.737800E+01	  0.051062126	5.012500E+01	  0.051062126	-6.380900E+01
157	  0.051262524	-5.404000E+00	  0.051262524	-5.897200E+01	  0.051262524	4.844400E+01	  0.051262524	-6.259700E+01
158	  0.051462926	-5.421000E+00	  0.051462926	-6.058300E+01	  0.051462926	4.686200E+01	  0.051462926	-6.133900E+01
159	  0.051663328	-5.435000E+00	  0.051663328	-6.215700E+01	  0.051663328	4.538800E+01	  0.051663328	-6.013400E+01
160	  0.051863730	-5.453000E+00	  0.051863730	-6.372500E+01	  0.051863730	4.401700E+01	  0.051863730	-5.891500E+01
161	  0.052064128	-5.470000E+00	  0.052064128	-6.527300E+01	  0.052064128	4.272900E+01	  0.052064128	-5.772800E+01
162	  0.052264530	-5.487000E+00	  0.052264530	-6.683200E+01	  0.052264530	4.150000E+01	  0.052264530	-5.654700E+01
163	  0.052464932	-5.501000E+00	  0.052464932	-6.840400E+01	  0.052464932	4.030700E+01	  0.052464932	-5.538700E+01
164	  0.052665330	-5.514000E+00	  0.052665330	-6.998000E+01	  0.052665330	3.916600E+01	  0.052665330	-5.424300E+01
165	  0.052865732	-5.531000E+00	  0.052865732	-7.154400E+01	  0.052865732	3.811000E+01	  0.052865732	-5.310100E+01
166	  0.053066134	-5.544000E+00	  0.053066134	-7.310300E+01	  0.053066134	3.709100E+01	  0.053066134	-5.199600E+01
167	  0.053266536	-5.558000E+00	  0.053266536	-7.464800E+01	  0.053266536	3.613700E+01	  0.053266536	-5.090800E+01
168	  0.053466935	-5.566000E+00	  0.053466935	-7.619300E+01	  0.053466935	3.520100E+01	  0.053466935	-4.986100E+01
169	  0.053667337	-5.572000E+00	  0.053667337	-7.775100E+01	  0.053667337	3.429600E+01	  0.053667337	-4.882200E+01
170	  0.053867739	-5.576000E+00	  0.053867739	-7.926900E+01	  0.053867739	3.344600E+01	  0.053867739	-4.782900E+01
171	  0.054068137	-5.583000E+00	  0.054068137	-8.075000E+01	  0.054068137	3.266800E+01	  0.054068137	-4.686000E+01
172	  0.054268539	-5.587000E+00	  0.054268539	-8.220100E+01	  0.054268539	3.192500E+01	  0.054268539	-4.593200E+01
173	  0.054468941	-5.595000E+00	  0.054468941	-8.362600E+01	  0.054468941	3.124100E+01	  0.054468941	-4.502000E+01
174	  0.054669339	-5.600000E+00	  0.054669339	-8.503500E+01	  0.054669339	3.058400E+01	  0.054669339	-4.413500E+01
175	  0.054869737	-5.615000E+00	  0.054869737	-8.645500E+01	  0.054869737	2.998900E+01	  0.054869737	-4.322400E+01
176	  0.055070139	-5.624000E+00	  0.055070139	-8.787400E+01	  0.055070139	2.939500E+01	  0.055070139	-4.234400E+01
177	  0.055270538	-5.635000E+00	  0.055270538	-8.929700E+01	  0.055270538	2.883400E+01	  0.055270538	-4.146500E+01
178	  0.055470940	-5.651000E+00	  0.055470940	-9.074400E+01	  0.055470940	2.830200E+01	  0.055470940	-4.057400E+01
179	  0.055671342	-5.664000E+00	  0.055671342	-9.218700E+01	  0.055671342	2.778800E+01	  0.055671342	-3.970000E+01
180	  0.055871744	-5.669000E+00	  0.055871744	-9.359200E+01	  0.055871744	2.727500E+01	  0.055871744	-3.888300E+01
181	  0.056072142	-5.679000E+00	  0.056072142	-9.503900E+01	  0.056072142	2.678500E+01	  0.056072142	-3.804000E+01
182	  0.056272544	-5.681000E+00	  0.056272544	-9.644900E+01	  0.056272544	2.630200E+01	  0.056272544	-3.724400E+01
183	  0.056472946	-5.688000E+00	  0.056472946	-9.785800E+01	  0.056472946	2.585700E+01	  0.056472946	-3.644600E+01
184	  0.056673344	-5.691000E+00	  0.056673344	-9.920700E+01	  0.056673344	2.543100E+01	  0.056673344	-3.570100E+01
185	  0.056873746	-5.699000E+00	  0.056873746	-1.005940E+02	  0.056873746	2.502900E+01	  0.056873746	-3.493000E+01
186	  0.057074148	-5.704000E+00	  0.057074148	-1.019440E+02	  0.057074148	2.464000E+01	  0.057074148	-3.419700E+01
187	  0.057274550	-5.712000E+00	  0.057274550	-1.032890E+02	  0.057274550	2.428000E+01	  0.057274550	-3.346600E+01
188	  0.057474948	-5.716000E+00	  0.057474948	-1.046670E+02	  0.057474948	2.391000E+01	  0.057474948	-3.273300E+01
189	  0.057675350	-5.723000E+00	  0.057675350	-1.060090E+02	  0.057675350	2.357600E+01	  0.057675350	-3.202100E+01
190	  0.057875752	-5.729000E+00	  0.057875752	-1.073710E+02	  0.057875752	2.324400E+01	  0.057875752	-3.130800E+01
191	  0.058076151	-5.734000E+00	  0.058076151	-1.087200E+02	  0.058076151	2.292400E+01	  0.058076151	-3.061100E+01
192	  0.058276553	-5.739000E+00	  0.058276553	-1.100530E+02	  0.058276553	2.261800E+01	  0.058276553	-2.993000E+01
193	  0.058476955	-5.738000E+00	  0.058476955	-1.114010E+02	  0.058476955	2.230300E+01	  0.058476955	-2.925600E+01
194	  0.058677353	-5.738000E+00	  0.058677353	-1.127290E+02	  0.058677353	2.200500E+01	  0.058677353	-2.859700E+01
195	  0.058877755	-5.734000E+00	  0.058877755	-1.140320E+02	  0.058877755	2.171100E+01	  0.058877755	-2.796000E+01
196	  0.059078157	-5.731000E+00	  0.059078157	-1.153270E+02	  0.059078157	2.143400E+01	  0.059078157	-2.733100E+01
197	  0.059278559	-5.735000E+00	  0.059278559	-1.166000E+02	  0.059278559	2.118900E+01	  0.059278559	-2.671000E+01
198	  0.059478957	-5.734000E+00	  0.059478957	-1.178190E+02	  0.059478957	2.094800E+01	  0.059478957	-2.612500E+01
199	  0.059679359	-5.736000E+00	  0.059679359	-1.190520E+02	  0.059679359	2.072400E+01	  0.059679359	-2.553400E+01
200	  0.059879761	-5.740000E+00	  0.059879761	-1.202550E+02	  0.059879761	2.051700E+01	  0.059879761	-2.496000E+01
201	  0.060080159	-5.745000E+00	  0.060080159	-1.214780E+02	  0.060080159	2.031700E+01	  0.060080159	-2.438000E+01
202	  0.060280561	-5.750000E+00	  0.060280561	-1.227010E+02	  0.060280561	2.012500E+01	  0.060280561	-2.380400E+01
203	  0.060480963	-5.755000E+00	  0.060480963	-1.239210E+02	  0.060480963	1.994100E+01	  0.060480963	-2.323300E+01
204	  0.060681365	-5.765000E+00	  0.060681365	-1.251500E+02	  0.060681365	1.977600E+01	  0.060681365	-2.265800E+01
205	  0.060881764	-5.767000E+00	  0.060881764	-1.263640E+02	  0.060881764	1.959600E+01	  0.060881764	-2.210200E+01
206	  0.061082166	-5.779000E+00	  0.061082166	-1.275790E+02	  0.061082166	1.944900E+01	  0.061082166	-2.154100E+01
207	  0.061282568	-5.784000E+00	  0.061282568	-1.288160E+02	  0.061282568	1.928800E+01	  0.061282568	-2.098000E+01
208	  0.061482966	-5.790000E+00	  0.061482966	-1.300280E+02	  0.061482966	1.913600E+01	  0.061482966	-2.043200E+01
209	  0.061683368	-5.792000E+00	  0.061683368	-1.312630E+02	  0.061683368	1.897700E+01	  0.061683368	-1.988300E+01
210	  0.061883770	-5.797000E+00	  0.061883770	-1.324560E+02	  0.061883770	1.883600E+01	  0.061883770	-1.935200E+01
211	  0.062084168	-5.801000E+00	  0.062084168	-1.336670E+02	  0.062084168	1.869800E+01	  0.062084168	-1.881800E+01
212	  0.062284570	-5.808000E+00	  0.062284570	-1.348550E+02	  0.062284570	1.857200E+01	  0.062284570	-1.829500E+01
213	  0.062484972	-5.800000E+00	  0.062484972	-1.360200E+02	  0.062484972	1.841500E+01	  0.062484972	-1.779500E+01
214	  0.062685370	-5.807000E+00	  0.062685370	-1.371630E+02	  0.062685370	1.830500E+01	  0.062685370	-1.729800E+01
215	  0.062885776	-5.810000E+00	  0.062885776	-1.383660E+02	  0.062885776	1.818400E+01	  0.062885776	-1.678000E+01
216	  0.063086174	-5.814000E+00	  0.063086174	-1.395590E+02	  0.063086174	1.807100E+01	  0.063086174	-1.626800E+01
217	  0.063286573	-5.817000E+00	  0.063286573	-1.407330E+02	  0.063286573	1.796100E+01	  0.063286573	-1.576800E+01
218	  0.063486971	-5.817000E+00	  0.063486971	-1.419320E+02	  0.063486971	1.784400E+01	  0.063486971	-1.526100E+01
219	  0.063687377	-5.817000E+00	  0.063687377	-1.430760E+02	  0.063687377	1.773900E+01	  0.063687377	-1.478000E+01
220	  0.063887775	-5.808000E+00	  0.063887775	-1.442540E+02	  0.063887775	1.760700E+01	  0.063887775	-1.429200E+01
221	  0.064088173	-5.811000E+00	  0.064088173	-1.453690E+02	  0.064088173	1.751900E+01	  0.064088173	-1.382500E+01
222	  0.064288579	-5.805000E+00	  0.064288579	-1.465150E+02	  0.064288579	1.740800E+01	  0.064288579	-1.335300E+01
223	  0.064488977	-5.805000E+00	  0.064488977	-1.476050E+02	  0.064488977	1.732100E+01	  0.064488977	-1.290200E+01
224	  0.064689375	-5.800000E+00	  0.064689375	-1.486800E+02	  0.064689375	1.722400E+01	  0.064689375	-1.246100E+01
225	  0.064889781	-5.804000E+00	  0.064889781	-1.497870E+02	  0.064889781	1.715400E+01	  0.064889781	-1.200400E+01
226	  0.065090179	-5.801000E+00	  0.065090179	-1.508390E+02	  0.065090179	1.707400E+01	  0.065090179	-1.157500E+01
227	  0.065290578	-5.800000E+00	  0.065290578	-1.519310E+02	  0.065290578	1.699800E+01	  0.065290578	-1.112900E+01
228	  0.065490983	-5.807000E+00	  0.065490983	-1.529910E+02	  0.065490983	1.694700E+01	  0.065490983	-1.069500E+01
229	  0.065691382	-5.809000E+00	  0.065691382	-1.540430E+02	  0.065691382	1.688600E+01	  0.065691382	-1.026800E+01
230	  0.065891780	-5.815000E+00	  0.065891780	-1.550990E+02	  0.065891780	1.684200E+01	  0.065891780	-9.838000E+00
231	  0.066092186	-5.815000E+00	  0.066092186	-1.561870E+02	  0.066092186	1.678000E+01	  0.066092186	-9.400000E+00
232	  0.066292584	-5.822000E+00	  0.066292584	-1.572460E+02	  0.066292584	1.674100E+01	  0.066292584	-8.972000E+00
233	  0.066492982	-5.827000E+00	  0.066492982	-1.583020E+02	  0.066492982	1.669900E+01	  0.066492982	-8.546000E+00
234	  0.066693388	-5.831000E+00	  0.066693388	-1.593480E+02	  0.066693388	1.665900E+01	  0.066693388	-8.127000E+00
235	  0.066893786	-5.837000E+00	  0.066893786	-1.604360E+02	  0.066893786	1.662500E+01	  0.066893786	-7.691000E+00
236	  0.067094192	-5.843000E+00	  0.067094192	-1.614920E+02	  0.067094192	1.659500E+01	  0.067094192	-7.269000E+00
237	  0.067294590	-5.855000E+00	  0.067294590	-1.625580E+02	  0.067294590	1.658300E+01	  0.067294590	-6.843000E+00
238	  0.067494988	-5.855000E+00	  0.067494988	-1.636240E+02	  0.067494988	1.654300E+01	  0.067494988	-6.420000E+00
239	  0.067695394	-5.857000E+00	  0.067695394	-1.647020E+02	  0.067695394	1.650900E+01	  0.067695394	-5.994000E+00
240	  0.067895792	-5.858000E+00	  0.067895792	-1.657320E+02	  0.067895792	1.647800E+01	  0.067895792	-5.587000E+00
241	  0.068096191	-5.865000E+00	  0.068096191	-1.667910E+02	  0.068096191	1.646300E+01	  0.068096191	-5.168000E+00
242	  0.068296596	-5.869000E+00	  0.068296596	-1.678280E+02	  0.068296596	1.644500E+01	  0.068296596	-4.759000E+00
243	  0.068496995	-5.871000E+00	  0.068496995	-1.688820E+02	  0.068496995	1.642100E+01	  0.068496995	-4.345000E+00
244	  0.068697393	-5.874000E+00	  0.068697393	-1.699380E+02	  0.068697393	1.640400E+01	  0.068697393	-3.930000E+00
245	  0.068897791	-5.867000E+00	  0.068897791	-1.709670E+02	  0.068897791	1.636500E+01	  0.068897791	-3.528000E+00
246	  0.069098189	-5.869000E+00	  0.069098189	-1.719810E+02	  0.069098189	1.635000E+01	  0.069098189	-3.131000E+00
247	  0.069298595	-5.867000E+00	  0.069298595	-1.730370E+02	  0.069298595	1.632800E+01	  0.069298595	-2.718000E+00
248	  0.069498993	-5.868000E+00	  0.069498993	-1.740150E+02	  0.069498993	1.631600E+01	  0.069498993	-2.336000E+00
249	  0.069699399	-5.870000E+00	  0.069699399	-1.750040E+02	  0.069699399	1.630900E+01	  0.069699399	-1.949000E+00
250	  0.069899797	-5.869000E+00	  0.069899797	-1.759830E+02	  0.069899797	1.629700E+01	  0.069899797	-1.567000E+00
251	  0.070100196	-5.871000E+00	  0.070100196	-1.769560E+02	  0.070100196	1.629300E+01	  0.070100196	-1.187000E+00
252	  0.070300601	-5.873000E+00	  0.070300601	-1.779240E+02	  0.070300601	1.629300E+01	  0.070300601	-8.090000E-01
253	  0.070501000	-5.874000E+00	  0.070501000	-1.789160E+02	  0.070501000	1.629300E+01	  0.070501000	-4.220000E-01
254	  0.070701398	-5.884000E+00	  0.070701398	-1.798920E+02	  0.070701398	1.631600E+01	  0.070701398	-4.100000E-02
255	  0.070901804	-5.886000E+00	  0.070901804	1.791700E+02	  0.070901804	1.632200E+01	  0.070901804	3.230000E-01
256	  0.071102202	-5.892000E+00	  0.071102202	1.781970E+02	  0.071102202	1.634000E+01	  0.071102202	7.020000E-01
257	  0.071302600	-5.896000E+00	  0.071302600	1.772210E+02	  0.071302600	1.635600E+01	  0.071302600	1.083000E+00
258	  0.071503006	-5.902000E+00	  0.071503006	1.762720E+02	  0.071503006	1.637900E+01	  0.071503006	1.452000E+00
259	  0.071703404	-5.905000E+00	  0.071703404	1.753210E+02	  0.071703404	1.639700E+01	  0.071703404	1.823000E+00
260	  0.071903802	-5.913000E+00	  0.071903802	1.743230E+02	  0.071903802	1.642600E+01	  0.071903802	2.211000E+00
261	  0.072104208	-5.927000E+00	  0.072104208	1.733640E+02	  0.072104208	1.647600E+01	  0.072104208	2.584000E+00
262	  0.072304606	-5.934000E+00	  0.072304606	1.724100E+02	  0.072304606	1.650900E+01	  0.072304606	2.956000E+00
263	  0.072505005	-5.943000E+00	  0.072505005	1.714600E+02	  0.072505005	1.655100E+01	  0.072505005	3.325000E+00
264	  0.072705410	-5.946000E+00	  0.072705410	1.704980E+02	  0.072705410	1.657600E+01	  0.072705410	3.701000E+00
265	  0.072905809	-5.955000E+00	  0.072905809	1.695310E+02	  0.072905809	1.662200E+01	  0.072905809	4.078000E+00
266	  0.073106214	-5.964000E+00	  0.073106214	1.685490E+02	  0.073106214	1.666900E+01	  0.073106214	4.460000E+00
267	  0.073306613	-5.968000E+00	  0.073306613	1.675940E+02	  0.073306613	1.670600E+01	  0.073306613	4.833000E+00
268	  0.073507011	-5.976000E+00	  0.073507011	1.666310E+02	  0.073507011	1.675600E+01	  0.073507011	5.209000E+00
269	  0.073707417	-5.982000E+00	  0.073707417	1.656650E+02	  0.073707417	1.680200E+01	  0.073707417	5.587000E+00
270	  0.073907815	-5.986000E+00	  0.073907815	1.647530E+02	  0.073907815	1.684200E+01	  0.073907815	5.944000E+00
271	  0.074108213	-5.985000E+00	  0.074108213	1.638160E+02	  0.074108213	1.687400E+01	  0.074108213	6.313000E+00
272	  0.074308619	-5.996000E+00	  0.074308619	1.628760E+02	  0.074308619	1.693700E+01	  0.074308619	6.680000E+00
273	  0.074509017	-5.998000E+00	  0.074509017	1.619420E+02	  0.074509017	1.698100E+01	  0.074509017	7.048000E+00
274	  0.074709415	-6.010000E+00	  0.074709415	1.610500E+02	  0.074709415	1.705200E+01	  0.074709415	7.397000E+00
275	  0.074909821	-6.019000E+00	  0.074909821	1.601300E+02	  0.074909821	1.711600E+01	  0.074909821	7.758000E+00
276	  0.075110219	-6.027000E+00	  0.075110219	1.592530E+02	  0.075110219	1.717800E+01	  0.075110219	8.103000E+00
277	  0.075310618	-6.034000E+00	  0.075310618	1.583400E+02	  0.075310618	1.724200E+01	  0.075310618	8.463000E+00
278	  0.075511023	-6.042000E+00	  0.075511023	1.574310E+02	  0.075511023	1.731000E+01	  0.075511023	8.821000E+00
279	  0.075711422	-6.048000E+00	  0.075711422	1.565720E+02	  0.075711422	1.737200E+01	  0.075711422	9.161000E+00
280	  0.075911827	-6.062000E+00	  0.075911827	1.556820E+02	  0.075911827	1.746000E+01	  0.075911827	9.510000E+00
281	  0.076112226	-6.076000E+00	  0.076112226	1.547430E+02	  0.076112226	1.755200E+01	  0.076112226	9.880000E+00
282	  0.076312624	-6.080000E+00	  0.076312624	1.538690E+02	  0.076312624	1.761700E+01	  0.076312624	1.022800E+01
283	  0.076513030	-6.089000E+00	  0.076513030	1.529680E+02	  0.076513030	1.770000E+01	  0.076513030	1.058500E+01
284	  0.076713428	-6.101000E+00	  0.076713428	1.520970E+02	  0.076713428	1.778900E+01	  0.076713428	1.092900E+01
285	  0.076913826	-6.111000E+00	  0.076913826	1.511860E+02	  0.076913826	1.787800E+01	  0.076913826	1.129100E+01
286	  0.077114232	-6.123000E+00	  0.077114232	1.503090E+02	  0.077114232	1.797300E+01	  0.077114232	1.163900E+01
287	  0.077314630	-6.136000E+00	  0.077314630	1.494150E+02	  0.077314630	1.807400E+01	  0.077314630	1.199400E+01
288	  0.077515028	-6.144000E+00	  0.077515028	1.485570E+02	  0.077515028	1.816200E+01	  0.077515028	1.233700E+01
289	  0.077715434	-6.158000E+00	  0.077715434	1.476700E+02	  0.077715434	1.827000E+01	  0.077715434	1.269000E+01
290	  0.077915832	-6.175000E+00	  0.077915832	1.468110E+02	  0.077915832	1.838600E+01	  0.077915832	1.303000E+01
291	  0.078116231	-6.180000E+00	  0.078116231	1.459440E+02	  0.078116231	1.847500E+01	  0.078116231	1.338000E+01
292	  0.078316636	-6.198000E+00	  0.078316636	1.450620E+02	  0.078316636	1.859800E+01	  0.078316636	1.373100E+01
293	  0.078517035	-6.208000E+00	  0.078517035	1.441570E+02	  0.078517035	1.870900E+01	  0.078517035	1.409500E+01
294	  0.078717433	-6.216000E+00	  0.078717433	1.432610E+02	  0.078717433	1.881300E+01	  0.078717433	1.445800E+01
295	  0.078917839	-6.225000E+00	  0.078917839	1.424370E+02	  0.078917839	1.891900E+01	  0.078917839	1.479100E+01
296	  0.079118237	-6.228000E+00	  0.079118237	1.415980E+02	  0.079118237	1.900900E+01	  0.079118237	1.513500E+01
297	  0.079318643	-6.242000E+00	  0.079318643	1.407710E+02	  0.079318643	1.913100E+01	  0.079318643	1.546800E+01
298	  0.079519041	-6.254000E+00	  0.079519041	1.399210E+02	  0.079519041	1.925300E+01	  0.079519041	1.581200E+01
299	  0.079719439	-6.265000E+00	  0.079719439	1.391150E+02	  0.079719439	1.937000E+01	  0.079719439	1.613900E+01
300	  0.079919845	-6.274000E+00	  0.079919845	1.382970E+02	  0.079919845	1.948400E+01	  0.079919845	1.647400E+01
301	  0.080120243	-6.295000E+00	  0.080120243	1.374720E+02	  0.080120243	1.963600E+01	  0.080120243	1.680300E+01
302	  0.080320641	-6.311000E+00	  0.080320641	1.366650E+02	  0.080320641	1.977500E+01	  0.080320641	1.712900E+01
303	  0.080521047	-6.329000E+00	  0.080521047	1.358420E+02	  0.080521047	1.992400E+01	  0.080521047	1.746000E+01
304	  0.080721445	-6.348000E+00	  0.080721445	1.350120E+02	  0.080721445	2.007800E+01	  0.080721445	1.779400E+01
305	  0.080921844	-6.364000E+00	  0.080921844	1.342320E+02	  0.080921844	2.022300E+01	  0.080921844	1.810900E+01
306	  0.081122249	-6.386000E+00	  0.081122249	1.333980E+02	  0.081122249	2.039000E+01	  0.081122249	1.844300E+01
307	  0.081322648	-6.398000E+00	  0.081322648	1.325760E+02	  0.081322648	2.053500E+01	  0.081322648	1.878000E+01
308	  0.081523046	-6.419000E+00	  0.081523046	1.317580E+02	  0.081523046	2.070500E+01	  0.081523046	1.910900E+01
309	  0.081723452	-6.440000E+00	  0.081723452	1.308770E+02	  0.081723452	2.088800E+01	  0.081723452	1.946500E+01
310	  0.081923850	-6.460000E+00	  0.081923850	1.300970E+02	  0.081923850	2.105400E+01	  0.081923850	1.977900E+01
311	  0.082124248	-6.474000E+00	  0.082124248	1.292720E+02	  0.082124248	2.121600E+01	  0.082124248	2.011800E+01
312	  0.082324654	-6.498000E+00	  0.082324654	1.284940E+02	  0.082324654	2.140000E+01	  0.082324654	2.042900E+01
313	  0.082525052	-6.510000E+00	  0.082525052	1.276450E+02	  0.082525052	2.156600E+01	  0.082525052	2.078100E+01
314	  0.082725458	-6.536000E+00	  0.082725458	1.268210E+02	  0.082725458	2.177000E+01	  0.082725458	2.110900E+01
315	  0.082925856	-6.551000E+00	  0.082925856	1.260490E+02	  0.082925856	2.193900E+01	  0.082925856	2.142600E+01
316	  0.083126254	-6.578000E+00	  0.083126254	1.252600E+02	  0.083126254	2.214700E+01	  0.083126254	2.173800E+01
317	  0.083326660	-6.598000E+00	  0.083326660	1.244760E+02	  0.083326660	2.233600E+01	  0.083326660	2.205600E+01
318	  0.083527058	-6.617000E+00	  0.083527058	1.236180E+02	  0.083527058	2.254200E+01	  0.083527058	2.240700E+01
319	  0.083727457	-6.639000E+00	  0.083727457	1.228340E+02	  0.083727457	2.274400E+01	  0.083727457	2.272300E+01
320	  0.083927862	-6.652000E+00	  0.083927862	1.220180E+02	  0.083927862	2.293100E+01	  0.083927862	2.306300E+01
321	  0.084128261	-6.670000E+00	  0.084128261	1.212380E+02	  0.084128261	2.313000E+01	  0.084128261	2.338200E+01
322	  0.084328659	-6.688000E+00	  0.084328659	1.205000E+02	  0.084328659	2.332200E+01	  0.084328659	2.368400E+01
323	  0.084529065	-6.715000E+00	  0.084529065	1.197350E+02	  0.084529065	2.354800E+01	  0.084529065	2.398600E+01
324	  0.084729463	-6.729000E+00	  0.084729463	1.190040E+02	  0.084729463	2.373600E+01	  0.084729463	2.428900E+01
325	  0.084929861	-6.749000E+00	  0.084929861	1.182680E+02	  0.084929861	2.394400E+01	  0.084929861	2.458700E+01
326	  0.085130267	-6.767000E+00	  0.085130267	1.175570E+02	  0.085130267	2.414400E+01	  0.085130267	2.487600E+01
327	  0.085330658	-6.794000E+00	  0.085330658	1.168520E+02	  0.085330658	2.437100E+01	  0.085330658	2.515100E+01
328	  0.085531056	-6.821000E+00	  0.085531056	1.161500E+02	  0.085531056	2.460200E+01	  0.085531056	2.542400E+01
329	  0.085731462	-6.848000E+00	  0.085731462	1.154360E+02	  0.085731462	2.483900E+01	  0.085731462	2.570100E+01
330	  0.085931860	-6.876000E+00	  0.085931860	1.147650E+02	  0.085931860	2.507200E+01	  0.085931860	2.595800E+01
331	  0.086132258	-6.903000E+00	  0.086132258	1.140600E+02	  0.086132258	2.531100E+01	  0.086132258	2.623100E+01
332	  0.086332664	-6.926000E+00	  0.086332664	1.133400E+02	  0.086332664	2.554900E+01	  0.086332664	2.651500E+01
333	  0.086533062	-6.953000E+00	  0.086533062	1.126290E+02	  0.086533062	2.579600E+01	  0.086533062	2.679000E+01
334	  0.086733460	-6.974000E+00	  0.086733460	1.119100E+02	  0.086733460	2.603600E+01	  0.086733460	2.707500E+01
335	  0.086933866	-7.003000E+00	  0.086933866	1.112180E+02	  0.086933866	2.629100E+01	  0.086933866	2.733700E+01
336	  0.087134264	-7.030000E+00	  0.087134264	1.105570E+02	  0.087134264	2.653900E+01	  0.087134264	2.758700E+01
337	  0.087334670	-7.049000E+00	  0.087334670	1.099040E+02	  0.087334670	2.676400E+01	  0.087334670	2.784600E+01
338	  0.087535068	-7.063000E+00	  0.087535068	1.092020E+02	  0.087535068	2.698800E+01	  0.087535068	2.813600E+01
339	  0.087735467	-7.090000E+00	  0.087735467	1.085060E+02	  0.087735467	2.725600E+01	  0.087735467	2.839900E+01
340	  0.087935872	-7.111000E+00	  0.087935872	1.078670E+02	  0.087935872	2.748900E+01	  0.087935872	2.864900E+01
341	  0.088136271	-7.132000E+00	  0.088136271	1.071810E+02	  0.088136271	2.774200E+01	  0.088136271	2.891700E+01
342	  0.088336669	-7.157000E+00	  0.088336669	1.065720E+02	  0.088336669	2.799000E+01	  0.088336669	2.914200E+01
343	  0.088537075	-7.175000E+00	  0.088537075	1.059130E+02	  0.088537075	2.823100E+01	  0.088537075	2.940400E+01
344	  0.088737473	-7.196000E+00	  0.088737473	1.051980E+02	  0.088737473	2.850200E+01	  0.088737473	2.968400E+01
345	  0.088937871	-7.213000E+00	  0.088937871	1.045570E+02	  0.088937871	2.874400E+01	  0.088937871	2.993800E+01
346	  0.089138277	-7.226000E+00	  0.089138277	1.038660E+02	  0.089138277	2.899200E+01	  0.089138277	3.022200E+01
347	  0.089338675	-7.246000E+00	  0.089338675	1.032140E+02	  0.089338675	2.925300E+01	  0.089338675	3.047300E+01
348	  0.089539073	-7.259000E+00	  0.089539073	1.025540E+02	  0.089539073	2.949900E+01	  0.089539073	3.074300E+01
349	  0.089739479	-7.274000E+00	  0.089739479	1.018930E+02	  0.089739479	2.975400E+01	  0.089739479	3.100800E+01
350	  0.089939877	-7.289000E+00	  0.089939877	1.012340E+02	  0.089939877	3.001300E+01	  0.089939877	3.127300E+01
351	  0.090140276	-7.309000E+00	  0.090140276	1.006040E+02	  0.090140276	3.027800E+01	  0.090140276	3.151400E+01
352	  0.090340681	-7.326000E+00	  0.090340681	9.996000E+01	  0.090340681	3.054500E+01	  0.090340681	3.176600E+01
353	  0.090541080	-7.342000E+00	  0.090541080	9.931400E+01	  0.090541080	3.081400E+01	  0.090541080	3.201900E+01
354	  0.090741485	-7.368000E+00	  0.090741485	9.870700E+01	  0.090741485	3.110300E+01	  0.090741485	3.223200E+01
355	  0.090941884	-7.393000E+00	  0.090941884	9.806500E+01	  0.090941884	3.140300E+01	  0.090941884	3.246200E+01
356	  0.091142282	-7.422000E+00	  0.091142282	9.737000E+01	  0.091142282	3.173600E+01	  0.091142282	3.270600E+01
357	  0.091342688	-7.444000E+00	  0.091342688	9.670800E+01	  0.091342688	3.204400E+01	  0.091342688	3.294800E+01
358	  0.091543086	-7.471000E+00	  0.091543086	9.602500E+01	  0.091543086	3.237900E+01	  0.091543086	3.318500E+01
359	  0.091743484	-7.496000E+00	  0.091743484	9.538100E+01	  0.091743484	3.269600E+01	  0.091743484	3.341000E+01
360	  0.091943890	-7.526000E+00	  0.091943890	9.466100E+01	  0.091943890	3.305900E+01	  0.091943890	3.365500E+01
361	  0.092144288	-7.549000E+00	  0.092144288	9.400500E+01	  0.092144288	3.338400E+01	  0.092144288	3.388500E+01
362	  0.092344686	-7.575000E+00	  0.092344686	9.333600E+01	  0.092344686	3.372600E+01	  0.092344686	3.411200E+01
363	  0.092545092	-7.602000E+00	  0.092545092	9.265200E+01	  0.092545092	3.408100E+01	  0.092545092	3.434100E+01
364	  0.092745490	-7.626000E+00	  0.092745490	9.198000E+01	  0.092745490	3.442700E+01	  0.092745490	3.457100E+01
365	  0.092945889	-7.652000E+00	  0.092945889	9.134000E+01	  0.092945889	3.476900E+01	  0.092945889	3.477900E+01
366	  0.093146294	-7.678000E+00	  0.093146294	9.071000E+01	  0.093146294	3.511500E+01	  0.093146294	3.497900E+01
367	  0.093346693	-7.706000E+00	  0.093346693	9.006400E+01	  0.093346693	3.547300E+01	  0.093346693	3.518000E+01
368	  0.093547091	-7.735000E+00	  0.093547091	8.944800E+01	  0.093547091	3.582600E+01	  0.093547091	3.536100E+01
369	  0.093747497	-7.763000E+00	  0.093747497	8.883400E+01	  0.093747497	3.618000E+01	  0.093747497	3.554200E+01
370	  0.093947895	-7.788000E+00	  0.093947895	8.819200E+01	  0.093947895	3.654100E+01	  0.093947895	3.574200E+01
371	  0.094148301	-7.815000E+00	  0.094148301	8.757100E+01	  0.094148301	3.689900E+01	  0.094148301	3.592700E+01
372	  0.094348699	-7.841000E+00	  0.094348699	8.697700E+01	  0.094348699	3.724900E+01	  0.094348699	3.609800E+01
373	  0.094549097	-7.872000E+00	  0.094549097	8.638700E+01	  0.094549097	3.761300E+01	  0.094549097	3.624900E+01
374	  0.094749503	-7.894000E+00	  0.094749503	8.578500E+01	  0.094749503	3.796500E+01	  0.094749503	3.642900E+01
375	  0.094949901	-7.925000E+00	  0.094949901	8.522000E+01	  0.094949901	3.832300E+01	  0.094949901	3.656500E+01
376	  0.095150299	-7.948000E+00	  0.095150299	8.468400E+01	  0.095150299	3.865100E+01	  0.095150299	3.671000E+01
377	  0.095350705	-7.974000E+00	  0.095350705	8.414700E+01	  0.095350705	3.898600E+01	  0.095350705	3.684700E+01
378	  0.095551103	-8.005000E+00	  0.095551103	8.359900E+01	  0.095551103	3.934700E+01	  0.095551103	3.696500E+01
379	  0.095751502	-8.035000E+00	  0.095751502	8.312500E+01	  0.095751502	3.966900E+01	  0.095751502	3.705400E+01
380	  0.095951907	-8.071000E+00	  0.095951907	8.259800E+01	  0.095951907	4.003700E+01	  0.095951907	3.714100E+01
381	  0.096152306	-8.109000E+00	  0.096152306	8.212100E+01	  0.096152306	4.038300E+01	  0.096152306	3.720100E+01
382	  0.096352704	-8.141000E+00	  0.096352704	8.160300E+01	  0.096352704	4.073800E+01	  0.096352704	3.729400E+01
383	  0.096553110	-8.175000E+00	  0.096553110	8.109100E+01	  0.096553110	4.110100E+01	  0.096553110	3.736900E+01
384	  0.096753508	-8.214000E+00	  0.096753508	8.058100E+01	  0.096753508	4.147100E+01	  0.096753508	3.742900E+01
385	  0.096953906	-8.249000E+00	  0.096953906	8.002100E+01	  0.096953906	4.186400E+01	  0.096953906	3.751500E+01
386	  0.097154312	-8.284000E+00	  0.097154312	7.953700E+01	  0.097154312	4.221800E+01	  0.097154312	3.756800E+01
387	  0.097354710	-8.312000E+00	  0.097354710	7.901400E+01	  0.097354710	4.257800E+01	  0.097354710	3.765700E+01
388	  0.097555116	-8.347000E+00	  0.097555116	7.851000E+01	  0.097555116	4.294600E+01	  0.097555116	3.771100E+01
389	  0.097755514	-8.379000E+00	  0.097755514	7.798400E+01	  0.097755514	4.332100E+01	  0.097755514	3.778100E+01
390	  0.097955912	-8.410000E+00	  0.097955912	7.748600E+01	  0.097955912	4.367800E+01	  0.097955912	3.784300E+01
391	  0.098156318	-8.435000E+00	  0.098156318	7.696700E+01	  0.098156318	4.403800E+01	  0.098156318	3.792700E+01
392	  0.098356716	-8.467000E+00	  0.098356716	7.649200E+01	  0.098356716	4.438800E+01	  0.098356716	3.797000E+01
393	  0.098557115	-8.491000E+00	  0.098557115	7.600200E+01	  0.098557115	4.473400E+01	  0.098557115	3.804100E+01
394	  0.098757520	-8.516000E+00	  0.098757520	7.553600E+01	  0.098757520	4.506600E+01	  0.098757520	3.810200E+01
395	  0.098957919	-8.541000E+00	  0.098957919	7.505300E+01	  0.098957919	4.541300E+01	  0.098957919	3.816200E+01
396	  0.099158317	-8.567000E+00	  0.099158317	7.453100E+01	  0.099158317	4.578700E+01	  0.099158317	3.822900E+01
397	  0.099358723	-8.588000E+00	  0.099358723	7.411900E+01	  0.099358723	4.608300E+01	  0.099358723	3.827900E+01
398	  0.099559121	-8.609000E+00	  0.099559121	7.364400E+01	  0.099559121	4.642200E+01	  0.099559121	3.834400E+01
399	  0.099759519	-8.628000E+00	  0.099759519	7.320600E+01	  0.099759519	4.673400E+01	  0.099759519	3.840400E+01
400	  0.099959925	-8.641000E+00	  0.099959925	7.281200E+01	  0.099959925	4.700900E+01	  0.099959925	3.847300E+01
401	  0.100160323	-8.663000E+00	  0.100160323	7.234900E+01	  0.100160323	4.734600E+01	  0.100160323	3.852400E+01
402	  0.100360721	-8.673000E+00	  0.100360721	7.199200E+01	  0.100360721	4.759500E+01	  0.100360721	3.858700E+01
403	  0.100561127	-8.690000E+00	  0.100561127	7.150900E+01	  0.100561127	4.794000E+01	  0.100561127	3.865800E+01
404	  0.100761525	-8.707000E+00	  0.100761525	7.118200E+01	  0.100761525	4.818400E+01	  0.100761525	3.868500E+01
405	  0.100961931	-8.719000E+00	  0.100961931	7.073100E+01	  0.100961931	4.850100E+01	  0.100961931	3.876400E+01
406	  0.101162329	-8.731000E+00	  0.101162329	7.037200E+01	  0.101162329	4.876100E+01	  0.101162329	3.881300E+01
407	  0.101362728	-8.759000E+00	  0.101362728	6.998800E+01	  0.101362728	4.906700E+01	  0.101362728	3.880000E+01
408	  0.101563133	-8.770000E+00	  0.101563133	6.962100E+01	  0.101563133	4.933200E+01	  0.101563133	3.885200E+01
409	  0.101763532	-8.785000E+00	  0.101763532	6.922900E+01	  0.101763532	4.962300E+01	  0.101763532	3.889000E+01
410	  0.101963930	-8.796000E+00	  0.101963930	6.882600E+01	  0.101963930	4.991500E+01	  0.101963930	3.895000E+01
411	  0.102164336	-8.817000E+00	  0.102164336	6.841600E+01	  0.102164336	5.023000E+01	  0.102164336	3.896600E+01
412	  0.102364734	-8.820000E+00	  0.102364734	6.800000E+01	  0.102364734	5.052100E+01	  0.102364734	3.905900E+01
413	  0.102565132	-8.841000E+00	  0.102565132	6.758600E+01	  0.102565132	5.084300E+01	  0.102565132	3.906900E+01
414	  0.102765530	-8.857000E+00	  0.102765530	6.710500E+01	  0.102765530	5.120300E+01	  0.102765530	3.911400E+01
415	  0.102965929	-8.856000E+00	  0.102965929	6.666000E+01	  0.102965929	5.151400E+01	  0.102965929	3.922800E+01
416	  0.103166327	-8.851000E+00	  0.103166327	6.628500E+01	  0.103166327	5.177200E+01	  0.103166327	3.934000E+01
417	  0.103366733	-8.860000E+00	  0.103366733	6.585500E+01	  0.103366733	5.209300E+01	  0.103366733	3.940000E+01
418	  0.103567131	-8.857000E+00	  0.103567131	6.542700E+01	  0.103567131	5.239700E+01	  0.103567131	3.951200E+01
419	  0.103767529	-8.875000E+00	  0.103767529	6.498800E+01	  0.103767529	5.274200E+01	  0.103767529	3.952600E+01
420	  0.103967935	-8.867000E+00	  0.103967935	6.462300E+01	  0.103967935	5.299700E+01	  0.103967935	3.964600E+01
421	  0.104168333	-8.873000E+00	  0.104168333	6.409100E+01	  0.104168333	5.339700E+01	  0.104168333	3.973500E+01
422	  0.104368731	-8.873000E+00	  0.104368731	6.371900E+01	  0.104368731	5.367300E+01	  0.104368731	3.981300E+01
423	  0.104569137	-8.864000E+00	  0.104569137	6.328600E+01	  0.104569137	5.398600E+01	  0.104569137	3.994500E+01
424	  0.104769535	-8.861000E+00	  0.104769535	6.279200E+01	  0.104769535	5.435500E+01	  0.104769535	4.006200E+01
425	  0.104969934	-8.850000E+00	  0.104969934	6.243500E+01	  0.104969934	5.461300E+01	  0.104969934	4.019000E+01
426	  0.105170339	-8.856000E+00	  0.105170339	6.202200E+01	  0.105170339	5.493900E+01	  0.105170339	4.023700E+01
427	  0.105370738	-8.849000E+00	  0.105370738	6.155400E+01	  0.105370738	5.529300E+01	  0.105370738	4.036200E+01
428	  0.105571143	-8.845000E+00	  0.105571143	6.107100E+01	  0.105571143	5.566500E+01	  0.105571143	4.047500E+01
429	  0.105771542	-8.840000E+00	  0.105771542	6.069400E+01	  0.105771542	5.595800E+01	  0.105771542	4.056700E+01
430	  0.105971940	-8.840000E+00	  0.105971940	6.018900E+01	  0.105971940	5.636000E+01	  0.105971940	4.065200E+01
431	  0.106172346	-8.834000E+00	  0.106172346	5.970600E+01	  0.106172346	5.674200E+01	  0.106172346	4.076700E+01
432	  0.106372744	-8.823000E+00	  0.106372744	5.930100E+01	  0.106372744	5.705900E+01	  0.106372744	4.089100E+01
433	  0.106573142	-8.822000E+00	  0.106573142	5.879100E+01	  0.106573142	5.747500E+01	  0.106573142	4.097500E+01
434	  0.106773548	-8.818000E+00	  0.106773548	5.835800E+01	  0.106773548	5.782800E+01	  0.106773548	4.106700E+01
435	  0.106973946	-8.816000E+00	  0.106973946	5.783900E+01	  0.106973946	5.825900E+01	  0.106973946	4.114800E+01
436	  0.107174344	-8.809000E+00	  0.107174344	5.733500E+01	  0.107174344	5.867600E+01	  0.107174344	4.125600E+01
437	  0.107374750	-8.816000E+00	  0.107374750	5.681600E+01	  0.107374750	5.912200E+01	  0.107374750	4.128700E+01
438	  0.107575148	-8.808000E+00	  0.107575148	5.636000E+01	  0.107575148	5.950500E+01	  0.107575148	4.138600E+01
439	  0.107775547	-8.803000E+00	  0.107775547	5.576500E+01	  0.107775547	6.001700E+01	  0.107775547	4.147800E+01
440	  0.107975952	-8.802000E+00	  0.107975952	5.517200E+01	  0.107975952	6.053300E+01	  0.107975952	4.154900E+01
441	  0.108176351	-8.799000E+00	  0.108176351	5.459300E+01	  0.108176351	6.104200E+01	  0.108176351	4.161900E+01
442	  0.108376749	-8.796000E+00	  0.108376749	5.398500E+01	  0.108376749	6.158300E+01	  0.108376749	4.168900E+01
443	  0.108577155	-8.778000E+00	  0.108577155	5.344400E+01	  0.108577155	6.206200E+01	  0.108577155	4.183000E+01
444	  0.108777553	-8.767000E+00	  0.108777553	5.284700E+01	  0.108777553	6.260200E+01	  0.108777553	4.193700E+01
445	  0.108977959	-8.763000E+00	  0.108977959	5.216200E+01	  0.108977959	6.323200E+01	  0.108977959	4.199800E+01
446	  0.109178357	-8.752000E+00	  0.109178357	5.156000E+01	  0.109178357	6.379000E+01	  0.109178357	4.209000E+01
447	  0.109378755	-8.738000E+00	  0.109378755	5.097600E+01	  0.109378755	6.433700E+01	  0.109378755	4.219200E+01
448	  0.109579161	-8.727000E+00	  0.109579161	5.037100E+01	  0.109579161	6.491200E+01	  0.109579161	4.227600E+01
449	  0.109779559	-8.722000E+00	  0.109779559	4.973400E+01	  0.109779559	6.552500E+01	  0.109779559	4.231300E+01
450	  0.109979957	-8.713000E+00	  0.109979957	4.915200E+01	  0.109979957	6.609200E+01	  0.109979957	4.236200E+01
451	  0.110180363	-8.696000E+00	  0.110180363	4.850900E+01	  0.110180363	6.672600E+01	  0.110180363	4.246500E+01
452	  0.110380761	-8.682000E+00	  0.110380761	4.787700E+01	  0.110380761	6.735800E+01	  0.110380761	4.253300E+01
453	  0.110581160	-8.678000E+00	  0.110581160	4.722700E+01	  0.110581160	6.801200E+01	  0.110581160	4.252700E+01
454	  0.110781565	-8.672000E+00	  0.110781565	4.663200E+01	  0.110781565	6.861900E+01	  0.110781565	4.253500E+01
455	  0.110981964	-8.659000E+00	  0.110981964	4.596700E+01	  0.110981964	6.930600E+01	  0.110981964	4.257200E+01
456	  0.111182362	-8.659000E+00	  0.111182362	4.537600E+01	  0.111182362	6.991700E+01	  0.111182362	4.251300E+01
457	  0.111382768	-8.660000E+00	  0.111382768	4.474700E+01	  0.111382768	7.057100E+01	  0.111382768	4.243500E+01
458	  0.111583166	-8.659000E+00	  0.111583166	4.411600E+01	  0.111583166	7.123500E+01	  0.111583166	4.236700E+01
459	  0.111783572	-8.658000E+00	  0.111783572	4.343700E+01	  0.111783572	7.195300E+01	  0.111783572	4.227100E+01
460	  0.111983970	-8.657000E+00	  0.111983970	4.275100E+01	  0.111983970	7.268600E+01	  0.111983970	4.216300E+01
461	  0.112184368	-8.662000E+00	  0.112184368	4.205700E+01	  0.112184368	7.342400E+01	  0.112184368	4.200000E+01
462	  0.112384774	-8.662000E+00	  0.112384774	4.142000E+01	  0.112384774	7.411200E+01	  0.112384774	4.187000E+01
463	  0.112585172	-8.673000E+00	  0.112585172	4.065800E+01	  0.112585172	7.492200E+01	  0.112585172	4.161400E+01
464	  0.112785570	-8.682000E+00	  0.112785570	3.988700E+01	  0.112785570	7.574800E+01	  0.112785570	4.135200E+01
465	  0.112985976	-8.694000E+00	  0.112985976	3.913100E+01	  0.112985976	7.655600E+01	  0.112985976	4.106000E+01
466	  0.113186374	-8.701000E+00	  0.113186374	3.835200E+01	  0.113186374	7.739800E+01	  0.113186374	4.077100E+01
467	  0.113386773	-8.706000E+00	  0.113386773	3.754200E+01	  0.113386773	7.828000E+01	  0.113386773	4.046100E+01
468	  0.113587178	-8.707000E+00	  0.113587178	3.669100E+01	  0.113587178	7.922000E+01	  0.113587178	4.014400E+01
469	  0.113787577	-8.722000E+00	  0.113787577	3.592600E+01	  0.113787577	8.003200E+01	  0.113787577	3.973900E+01
470	  0.113987975	-8.733000E+00	  0.113987975	3.509700E+01	  0.113987975	8.092200E+01	  0.113987975	3.931100E+01
471	  0.114188381	-8.740000E+00	  0.114188381	3.424600E+01	  0.114188381	8.184700E+01	  0.114188381	3.887400E+01
472	  0.114388779	-8.748000E+00	  0.114388779	3.335800E+01	  0.114388779	8.280600E+01	  0.114388779	3.837900E+01
473	  0.114589177	-8.756000E+00	  0.114589177	3.251800E+01	  0.114589177	8.371000E+01	  0.114589177	3.788700E+01
474	  0.114789583	-8.768000E+00	  0.114789583	3.166300E+01	  0.114789583	8.461200E+01	  0.114789583	3.732800E+01
475	  0.114989981	-8.769000E+00	  0.114989981	3.083900E+01	  0.114989981	8.551300E+01	  0.114989981	3.683300E+01
476	  0.115190387	-8.779000E+00	  0.115190387	2.995000E+01	  0.115190387	8.644600E+01	  0.115190387	3.620900E+01
477	  0.115390785	-8.795000E+00	  0.115390785	2.907600E+01	  0.115390785	8.733000E+01	  0.115390785	3.552400E+01
478	  0.115591183	-8.804000E+00	  0.115591183	2.823200E+01	  0.115591183	8.819600E+01	  0.115591183	3.487000E+01
479	  0.115791589	-8.821000E+00	  0.115791589	2.733500E+01	  0.115791589	8.907400E+01	  0.115791589	3.410200E+01
480	  0.115991987	-8.841000E+00	  0.115991987	2.650000E+01	  0.115991987	8.985300E+01	  0.115991987	3.332700E+01
481	  0.116192386	-8.867000E+00	  0.116192386	2.550700E+01	  0.116192386	9.074300E+01	  0.116192386	3.235700E+01
482	  0.116392791	-8.897000E+00	  0.116392791	2.465800E+01	  0.116392791	9.143900E+01	  0.116392791	3.144600E+01
483	  0.116593190	-8.909000E+00	  0.116593190	2.378000E+01	  0.116593190	9.224200E+01	  0.116593190	3.060300E+01
484	  0.116793588	-8.944000E+00	  0.116793588	2.283600E+01	  0.116793588	9.295400E+01	  0.116793588	2.953200E+01
485	  0.116993994	-8.975000E+00	  0.116993994	2.189500E+01	  0.116993994	9.365300E+01	  0.116993994	2.845700E+01
486	  0.117194392	-9.013000E+00	  0.117194392	2.095600E+01	  0.117194392	9.426300E+01	  0.117194392	2.731300E+01
487	  0.117394790	-9.054000E+00	  0.117394790	1.994100E+01	  0.117394790	9.489100E+01	  0.117394790	2.606200E+01
488	  0.117595196	-9.093000E+00	  0.117595196	1.895600E+01	  0.117595196	9.545700E+01	  0.117595196	2.482900E+01
489	  0.117795594	-9.137000E+00	  0.117795594	1.790100E+01	  0.117795594	9.600200E+01	  0.117795594	2.347600E+01
490	  0.117995992	-9.177000E+00	  0.117995992	1.685800E+01	  0.117995992	9.651000E+01	  0.117995992	2.213400E+01
491	  0.118196398	-9.223000E+00	  0.118196398	1.579200E+01	  0.118196398	9.694600E+01	  0.118196398	2.072700E+01
492	  0.118396796	-9.274000E+00	  0.118396796	1.468900E+01	  0.118396796	9.731000E+01	  0.118396796	1.924000E+01
493	  0.118597202	-9.328000E+00	  0.118597202	1.362700E+01	  0.118597202	9.755900E+01	  0.118597202	1.778000E+01
494	  0.118797600	-9.394000E+00	  0.118797600	1.248700E+01	  0.118797600	9.770900E+01	  0.118797600	1.618700E+01
495	  0.118997999	-9.445000E+00	  0.118997999	1.132600E+01	  0.118997999	9.791900E+01	  0.118997999	1.462500E+01
496	  0.119198404	-9.501000E+00	  0.119198404	1.008700E+01	  0.119198404	9.805900E+01	  0.119198404	1.295800E+01
497	  0.119398803	-9.557000E+00	  0.119398803	8.903000E+00	  0.119398803	9.810100E+01	  0.119398803	1.136100E+01
498	  0.119599201	-9.622000E+00	  0.119599201	7.747000E+00	  0.119599201	9.799500E+01	  0.119599201	9.793000E+00
499	  0.119799607	-9.691000E+00	  0.119799607	6.497000E+00	  0.119799607	9.782300E+01	  0.119799607	8.126000E+00
500	  0.120000005	-9.754000E+00	  0.120000005	5.292000E+00	  0.120000005	9.761500E+01	  0.120000005	6.550000E+00
