! Anritsu VNA Master:             	Model: MS2036C/10/77
! SN:             	1601066
! /bd0/18may26.balun/4b.r20.3.txt
! Existing Calibration Information:
! TYPE:             	Current Settings	Active Cal Settings
! TIME:             	05/26/2018 05:18:16 PM	05/26/2018 05:08:07 PM
! INTERNAL TEMP:    	52.8 C	52.5 C
! # POINTS:         	500	500
! START FREQ:       	20.000 MHz	20.000 MHz
! STOP FREQ:        	120.000 MHz	120.000 MHz
! SOURCE POWER:     	High	High
! IFBW:             	50 Hz	50 Hz
! AVG FACTOR:       	  1 	  1 
! REF PLANE 1:      	0 mm	0 mm
! REF PLANE 2:      	0 mm	0 mm
! CAL TYPE:         	Full S11	Full S11
! CAL METHOD:       	SOLT	SOLT
! CAL LINE TYPE:    	Coax	Coax
! DUT PORT 1:       	K-Conn(M)	K-Conn(M)
! DUT PORT 2:       	K-Conn(M)	K-Conn(M)
! CAL STATUS:       	OK: Accuracy High	--
! PROP-V:       	0.700
! CABLE LOSS:       	0.000 dB/m
! REF IMPEDANCE:       	50.0
! Trace Specific Parameters:	TR1	TR2	TR3	TR4
! TRACE.#.Y (GRAPH TYPE)	LOG MAG	PHASE	REAL IMPEDANCE	IMAGINARY IMPEDANCE
! TRACE.#.X 	FREQ.GHZ	FREQ.GHZ	FREQ.GHZ	FREQ.GHZ
! S-PARAMETER	S11	S11	S11	S11
! SMOOTH/APERTURE %	0	0	0	0
! WINDOW	NSL	NSL	NSL	NSL
! GATING	OFF	OFF	OFF	OFF
! FGTD	OFF	OFF	OFF	OFF
Marker Information per Trace:	TR1	TR2	TR3	TR4
!MK1	--	--	--	--
!MK2	--	--	--	--
!MK3	--	--	--	--
!MK4	--	--	--	--
!MK5	--	--	--	--
!MK6	--	--	--	--
!MK7	--	--	--	--
!MK8	--	--	--	--
PNT	TR1.FREQ.GHZ	TR1.LOG MAG.dB	TR2.FREQ.GHZ	TR2.PHASE.deg	TR3.FREQ.GHZ	TR3.REAL IMPEDANCE.ohm	TR4.FREQ.GHZ	TR4.IMAGINARY IMPEDANCE.ohm
1	  0.020000000	-7.288000E+00	  0.020000000	1.544430E+02	  0.020000000	2.068100E+01	  0.020000000	9.479000E+00
2	  0.020200402	-7.287000E+00	  0.020200402	1.542230E+02	  0.020200402	2.069200E+01	  0.020200402	9.563000E+00
3	  0.020400802	-7.282000E+00	  0.020400802	1.539780E+02	  0.020400802	2.069800E+01	  0.020400802	9.657000E+00
4	  0.020601204	-7.280000E+00	  0.020601204	1.537310E+02	  0.020601204	2.070900E+01	  0.020601204	9.752000E+00
5	  0.020801604	-7.278000E+00	  0.020801604	1.534890E+02	  0.020801604	2.072100E+01	  0.020801604	9.845000E+00
6	  0.021002004	-7.276000E+00	  0.021002004	1.532490E+02	  0.021002004	2.073300E+01	  0.021002004	9.936000E+00
7	  0.021202406	-7.273000E+00	  0.021202406	1.530110E+02	  0.021202406	2.074500E+01	  0.021202406	1.002800E+01
8	  0.021402806	-7.280000E+00	  0.021402806	1.527620E+02	  0.021402806	2.078000E+01	  0.021402806	1.011800E+01
9	  0.021603208	-7.279000E+00	  0.021603208	1.525770E+02	  0.021603208	2.079100E+01	  0.021603208	1.018900E+01
10	  0.021803608	-7.283000E+00	  0.021803608	1.523350E+02	  0.021803608	2.081700E+01	  0.021803608	1.027900E+01
11	  0.022004008	-7.292000E+00	  0.022004008	1.520840E+02	  0.022004008	2.085900E+01	  0.022004008	1.037000E+01
12	  0.022204408	-7.293000E+00	  0.022204408	1.518500E+02	  0.022204408	2.087900E+01	  0.022204408	1.045800E+01
13	  0.022404809	-7.296000E+00	  0.022404809	1.516100E+02	  0.022404809	2.090600E+01	  0.022404809	1.054700E+01
14	  0.022605211	-7.298000E+00	  0.022605211	1.513580E+02	  0.022605211	2.093000E+01	  0.022605211	1.064200E+01
15	  0.022805611	-7.301000E+00	  0.022805611	1.510920E+02	  0.022805611	2.095900E+01	  0.022805611	1.074100E+01
16	  0.023006011	-7.298000E+00	  0.023006011	1.508390E+02	  0.023006011	2.097100E+01	  0.023006011	1.083900E+01
17	  0.023206413	-7.300000E+00	  0.023206413	1.505760E+02	  0.023206413	2.099700E+01	  0.023206413	1.093800E+01
18	  0.023406813	-7.301000E+00	  0.023406813	1.502800E+02	  0.023406813	2.102300E+01	  0.023406813	1.105000E+01
19	  0.023607215	-7.299000E+00	  0.023607215	1.500310E+02	  0.023607215	2.103800E+01	  0.023607215	1.114600E+01
20	  0.023807615	-7.300000E+00	  0.023807615	1.497450E+02	  0.023807615	2.106400E+01	  0.023807615	1.125500E+01
21	  0.024008015	-7.295000E+00	  0.024008015	1.494760E+02	  0.024008015	2.107400E+01	  0.024008015	1.136000E+01
22	  0.024208417	-7.296000E+00	  0.024208417	1.492310E+02	  0.024208417	2.109800E+01	  0.024208417	1.145300E+01
23	  0.024408817	-7.301000E+00	  0.024408817	1.489980E+02	  0.024408817	2.112900E+01	  0.024408817	1.153900E+01
24	  0.024609219	-7.300000E+00	  0.024609219	1.487950E+02	  0.024609219	2.114500E+01	  0.024609219	1.161700E+01
25	  0.024809619	-7.302000E+00	  0.024809619	1.485730E+02	  0.024809619	2.116900E+01	  0.024809619	1.170100E+01
26	  0.025010020	-7.299000E+00	  0.025010020	1.483280E+02	  0.025010020	2.118200E+01	  0.025010020	1.179600E+01
27	  0.025210422	-7.301000E+00	  0.025210422	1.480790E+02	  0.025210422	2.121100E+01	  0.025210422	1.189000E+01
28	  0.025410822	-7.305000E+00	  0.025410822	1.478250E+02	  0.025410822	2.124300E+01	  0.025410822	1.198400E+01
29	  0.025611224	-7.306000E+00	  0.025611224	1.475710E+02	  0.025611224	2.126800E+01	  0.025611224	1.208100E+01
30	  0.025811624	-7.301000E+00	  0.025811624	1.472970E+02	  0.025811624	2.127900E+01	  0.025811624	1.218900E+01
31	  0.026012026	-7.298000E+00	  0.026012026	1.470390E+02	  0.026012026	2.129600E+01	  0.026012026	1.229000E+01
32	  0.026212426	-7.297000E+00	  0.026212426	1.467780E+02	  0.026212426	2.131800E+01	  0.026212426	1.239000E+01
33	  0.026412826	-7.298000E+00	  0.026412826	1.465360E+02	  0.026412826	2.134300E+01	  0.026412826	1.248300E+01
34	  0.026613226	-7.296000E+00	  0.026613226	1.463010E+02	  0.026613226	2.135900E+01	  0.026613226	1.257400E+01
35	  0.026813626	-7.295000E+00	  0.026813626	1.460930E+02	  0.026813626	2.137700E+01	  0.026813626	1.265500E+01
36	  0.027014028	-7.298000E+00	  0.027014028	1.458910E+02	  0.027014028	2.140300E+01	  0.027014028	1.273100E+01
37	  0.027214428	-7.302000E+00	  0.027214428	1.457080E+02	  0.027214428	2.143100E+01	  0.027214428	1.279900E+01
38	  0.027414829	-7.308000E+00	  0.027414829	1.454950E+02	  0.027414829	2.146500E+01	  0.027414829	1.287700E+01
39	  0.027615231	-7.309000E+00	  0.027615231	1.452620E+02	  0.027615231	2.149000E+01	  0.027615231	1.296600E+01
40	  0.027815631	-7.320000E+00	  0.027815631	1.449950E+02	  0.027815631	2.154500E+01	  0.027815631	1.306100E+01
41	  0.028016033	-7.325000E+00	  0.028016033	1.447290E+02	  0.028016033	2.158300E+01	  0.028016033	1.316100E+01
42	  0.028216433	-7.329000E+00	  0.028216433	1.444290E+02	  0.028216433	2.162500E+01	  0.028216433	1.327400E+01
43	  0.028416833	-7.331000E+00	  0.028416833	1.441380E+02	  0.028416833	2.165900E+01	  0.028416833	1.338500E+01
44	  0.028617235	-7.331000E+00	  0.028617235	1.438240E+02	  0.028617235	2.169000E+01	  0.028617235	1.350600E+01
45	  0.028817635	-7.333000E+00	  0.028817635	1.435210E+02	  0.028817635	2.172700E+01	  0.028817635	1.362200E+01
46	  0.029018037	-7.332000E+00	  0.029018037	1.432150E+02	  0.029018037	2.175600E+01	  0.029018037	1.374000E+01
47	  0.029218437	-7.331000E+00	  0.029218437	1.429240E+02	  0.029218437	2.178200E+01	  0.029218437	1.385400E+01
48	  0.029418837	-7.323000E+00	  0.029418837	1.426690E+02	  0.029418837	2.179100E+01	  0.029418837	1.395800E+01
49	  0.029619239	-7.318000E+00	  0.029619239	1.424370E+02	  0.029619239	2.180300E+01	  0.029619239	1.405100E+01
50	  0.029819639	-7.315000E+00	  0.029819639	1.422200E+02	  0.029819639	2.181800E+01	  0.029819639	1.413800E+01
51	  0.030020041	-7.311000E+00	  0.030020041	1.420220E+02	  0.030020041	2.182900E+01	  0.030020041	1.421800E+01
52	  0.030220442	-7.310000E+00	  0.030220442	1.418050E+02	  0.030220442	2.184900E+01	  0.030220442	1.430300E+01
53	  0.030420844	-7.312000E+00	  0.030420844	1.415830E+02	  0.030420844	2.187900E+01	  0.030420844	1.438800E+01
54	  0.030621244	-7.322000E+00	  0.030621244	1.413270E+02	  0.030621244	2.193200E+01	  0.030621244	1.448000E+01
55	  0.030821644	-7.325000E+00	  0.030821644	1.410640E+02	  0.030821644	2.196900E+01	  0.030821644	1.458000E+01
56	  0.031022044	-7.323000E+00	  0.031022044	1.407630E+02	  0.031022044	2.199900E+01	  0.031022044	1.469900E+01
57	  0.031222444	-7.312000E+00	  0.031222444	1.405390E+02	  0.031222444	2.199600E+01	  0.031222444	1.479400E+01
58	  0.031422846	-7.311000E+00	  0.031422846	1.402430E+02	  0.031422846	2.202800E+01	  0.031422846	1.491000E+01
59	  0.031623244	-7.311000E+00	  0.031623244	1.399940E+02	  0.031623244	2.205600E+01	  0.031623244	1.500800E+01
60	  0.031823646	-7.305000E+00	  0.031823646	1.397320E+02	  0.031823646	2.207000E+01	  0.031823646	1.511500E+01
61	  0.032024048	-7.299000E+00	  0.032024048	1.394980E+02	  0.032024048	2.208300E+01	  0.032024048	1.521100E+01
62	  0.032224450	-7.292000E+00	  0.032224450	1.392750E+02	  0.032224450	2.209200E+01	  0.032224450	1.530300E+01
63	  0.032424849	-7.287000E+00	  0.032424849	1.390440E+02	  0.032424849	2.210500E+01	  0.032424849	1.539900E+01
64	  0.032625251	-7.282000E+00	  0.032625251	1.388300E+02	  0.032625251	2.211900E+01	  0.032625251	1.548600E+01
65	  0.032825653	-7.282000E+00	  0.032825653	1.386260E+02	  0.032825653	2.214200E+01	  0.032825653	1.556600E+01
66	  0.033026051	-7.285000E+00	  0.033026051	1.384240E+02	  0.033026051	2.217400E+01	  0.033026051	1.564400E+01
67	  0.033226453	-7.288000E+00	  0.033226453	1.381800E+02	  0.033226453	2.221300E+01	  0.033226453	1.573700E+01
68	  0.033426855	-7.296000E+00	  0.033426855	1.379240E+02	  0.033426855	2.226400E+01	  0.033426855	1.583100E+01
69	  0.033627257	-7.300000E+00	  0.033627257	1.376710E+02	  0.033627257	2.230600E+01	  0.033627257	1.592800E+01
70	  0.033827655	-7.306000E+00	  0.033827655	1.374020E+02	  0.033827655	2.235500E+01	  0.033827655	1.602900E+01
71	  0.034028057	-7.309000E+00	  0.034028057	1.370850E+02	  0.034028057	2.240300E+01	  0.034028057	1.615100E+01
72	  0.034228459	-7.314000E+00	  0.034228459	1.368000E+02	  0.034228459	2.245000E+01	  0.034228459	1.626000E+01
73	  0.034428857	-7.317000E+00	  0.034428857	1.365090E+02	  0.034428857	2.249600E+01	  0.034428857	1.637200E+01
74	  0.034629259	-7.314000E+00	  0.034629259	1.362400E+02	  0.034629259	2.252300E+01	  0.034629259	1.648000E+01
75	  0.034829661	-7.310000E+00	  0.034829661	1.359730E+02	  0.034829661	2.254700E+01	  0.034829661	1.659000E+01
76	  0.035030060	-7.300000E+00	  0.035030060	1.356960E+02	  0.035030060	2.255700E+01	  0.035030060	1.670800E+01
77	  0.035230462	-7.291000E+00	  0.035230462	1.354580E+02	  0.035230462	2.256600E+01	  0.035230462	1.681000E+01
78	  0.035430863	-7.282000E+00	  0.035430863	1.352170E+02	  0.035430863	2.257400E+01	  0.035430863	1.691400E+01
79	  0.035631265	-7.275000E+00	  0.035631265	1.350190E+02	  0.035631265	2.258200E+01	  0.035631265	1.699900E+01
80	  0.035831664	-7.275000E+00	  0.035831664	1.348520E+02	  0.035831664	2.260500E+01	  0.035831664	1.706500E+01
81	  0.036032066	-7.276000E+00	  0.036032066	1.346660E+02	  0.036032066	2.263200E+01	  0.036032066	1.713800E+01
82	  0.036232468	-7.285000E+00	  0.036232468	1.344520E+02	  0.036232468	2.268400E+01	  0.036232468	1.721500E+01
83	  0.036432866	-7.291000E+00	  0.036432866	1.342220E+02	  0.036432866	2.273200E+01	  0.036432866	1.730100E+01
84	  0.036633268	-7.297000E+00	  0.036633268	1.339490E+02	  0.036633268	2.278700E+01	  0.036633268	1.740500E+01
85	  0.036833670	-7.301000E+00	  0.036833670	1.336670E+02	  0.036833670	2.283600E+01	  0.036833670	1.751300E+01
86	  0.037034072	-7.305000E+00	  0.037034072	1.334540E+02	  0.037034072	2.287700E+01	  0.037034072	1.759400E+01
87	  0.037234470	-7.306000E+00	  0.037234470	1.331600E+02	  0.037234470	2.292000E+01	  0.037234470	1.771100E+01
88	  0.037434869	-7.303000E+00	  0.037434869	1.329010E+02	  0.037434869	2.294900E+01	  0.037434869	1.781800E+01
89	  0.037635271	-7.296000E+00	  0.037635271	1.326530E+02	  0.037635271	2.296500E+01	  0.037635271	1.792400E+01
90	  0.037835669	-7.289000E+00	  0.037835669	1.324190E+02	  0.037835669	2.298200E+01	  0.037835669	1.802400E+01
91	  0.038036071	-7.286000E+00	  0.038036071	1.321970E+02	  0.038036071	2.300500E+01	  0.038036071	1.811600E+01
92	  0.038236473	-7.282000E+00	  0.038236473	1.319950E+02	  0.038236473	2.302500E+01	  0.038236473	1.820000E+01
93	  0.038436871	-7.288000E+00	  0.038436871	1.317950E+02	  0.038436871	2.307000E+01	  0.038436871	1.827500E+01
94	  0.038637273	-7.295000E+00	  0.038637273	1.315800E+02	  0.038637273	2.312100E+01	  0.038637273	1.835400E+01
95	  0.038837675	-7.305000E+00	  0.038837675	1.313250E+02	  0.038837675	2.318400E+01	  0.038837675	1.844700E+01
96	  0.039038073	-7.310000E+00	  0.039038073	1.310400E+02	  0.039038073	2.323900E+01	  0.039038073	1.855700E+01
97	  0.039238475	-7.318000E+00	  0.039238475	1.307680E+02	  0.039238475	2.330300E+01	  0.039238475	1.865900E+01
98	  0.039438877	-7.325000E+00	  0.039438877	1.304630E+02	  0.039438877	2.336700E+01	  0.039438877	1.877400E+01
99	  0.039639279	-7.328000E+00	  0.039639279	1.301810E+02	  0.039639279	2.341900E+01	  0.039639279	1.888500E+01
100	  0.039839678	-7.327000E+00	  0.039839678	1.298820E+02	  0.039839678	2.346200E+01	  0.039839678	1.900600E+01
101	  0.040040080	-7.321000E+00	  0.040040080	1.295890E+02	  0.040040080	2.349200E+01	  0.040040080	1.913100E+01
102	  0.040240481	-7.316000E+00	  0.040240481	1.292900E+02	  0.040240481	2.352500E+01	  0.040240481	1.925700E+01
103	  0.040440880	-7.307000E+00	  0.040440880	1.289970E+02	  0.040440880	2.355000E+01	  0.040440880	1.938400E+01
104	  0.040641282	-7.301000E+00	  0.040641282	1.286920E+02	  0.040641282	2.358200E+01	  0.040641282	1.951500E+01
105	  0.040841684	-7.290000E+00	  0.040841684	1.284580E+02	  0.040841684	2.359100E+01	  0.040841684	1.962100E+01
106	  0.041042086	-7.285000E+00	  0.041042086	1.282340E+02	  0.041042086	2.361400E+01	  0.041042086	1.971700E+01
107	  0.041242484	-7.280000E+00	  0.041242484	1.280480E+02	  0.041242484	2.363100E+01	  0.041242484	1.979800E+01
108	  0.041442886	-7.283000E+00	  0.041442886	1.278540E+02	  0.041442886	2.366900E+01	  0.041442886	1.987500E+01
109	  0.041643288	-7.288000E+00	  0.041643288	1.276110E+02	  0.041643288	2.372200E+01	  0.041643288	1.996900E+01
110	  0.041843686	-7.290000E+00	  0.041843686	1.273590E+02	  0.041843686	2.377100E+01	  0.041843686	2.006900E+01
111	  0.042044088	-7.291000E+00	  0.042044088	1.271080E+02	  0.042044088	2.381600E+01	  0.042044088	2.017000E+01
112	  0.042244490	-7.292000E+00	  0.042244490	1.268810E+02	  0.042244490	2.385600E+01	  0.042244490	2.026100E+01
113	  0.042444889	-7.290000E+00	  0.042444889	1.266160E+02	  0.042444889	2.389400E+01	  0.042444889	2.037300E+01
114	  0.042645290	-7.287000E+00	  0.042645290	1.263620E+02	  0.042645290	2.392900E+01	  0.042645290	2.048000E+01
115	  0.042845692	-7.281000E+00	  0.042845692	1.261290E+02	  0.042845692	2.395400E+01	  0.042845692	2.058200E+01
116	  0.043046094	-7.275000E+00	  0.043046094	1.258500E+02	  0.043046094	2.398600E+01	  0.043046094	2.070300E+01
117	  0.043246493	-7.267000E+00	  0.043246493	1.256570E+02	  0.043246493	2.399900E+01	  0.043246493	2.079100E+01
118	  0.043446895	-7.263000E+00	  0.043446895	1.254560E+02	  0.043446895	2.402200E+01	  0.043446895	2.087900E+01
119	  0.043647297	-7.257000E+00	  0.043647297	1.252400E+02	  0.043647297	2.404300E+01	  0.043647297	2.097600E+01
120	  0.043847695	-7.262000E+00	  0.043847695	1.250540E+02	  0.043847695	2.409100E+01	  0.043847695	2.104600E+01
121	  0.044048097	-7.270000E+00	  0.044048097	1.248730E+02	  0.044048097	2.414300E+01	  0.044048097	2.111200E+01
122	  0.044248499	-7.271000E+00	  0.044248499	1.246500E+02	  0.044248499	2.418700E+01	  0.044248499	2.120200E+01
123	  0.044448901	-7.276000E+00	  0.044448901	1.243920E+02	  0.044448901	2.424500E+01	  0.044448901	2.130300E+01
124	  0.044649299	-7.284000E+00	  0.044649299	1.241810E+02	  0.044649299	2.430600E+01	  0.044649299	2.138100E+01
125	  0.044849701	-7.289000E+00	  0.044849701	1.239200E+02	  0.044849701	2.436700E+01	  0.044849701	2.148200E+01
126	  0.045050103	-7.290000E+00	  0.045050103	1.236820E+02	  0.045050103	2.441300E+01	  0.045050103	2.158000E+01
127	  0.045250501	-7.294000E+00	  0.045250501	1.234180E+02	  0.045250501	2.447300E+01	  0.045250501	2.168400E+01
128	  0.045450903	-7.293000E+00	  0.045450903	1.231590E+02	  0.045450903	2.451800E+01	  0.045450903	2.179300E+01
129	  0.045651305	-7.291000E+00	  0.045651305	1.228630E+02	  0.045651305	2.456900E+01	  0.045651305	2.191700E+01
130	  0.045851704	-7.286000E+00	  0.045851704	1.225820E+02	  0.045851704	2.461000E+01	  0.045851704	2.204000E+01
131	  0.046052106	-7.282000E+00	  0.046052106	1.223260E+02	  0.046052106	2.464600E+01	  0.046052106	2.215200E+01
132	  0.046252504	-7.279000E+00	  0.046252504	1.220850E+02	  0.046252504	2.468300E+01	  0.046252504	2.225600E+01
133	  0.046452906	-7.278000E+00	  0.046452906	1.218820E+02	  0.046452906	2.472100E+01	  0.046452906	2.234100E+01
134	  0.046653304	-7.281000E+00	  0.046653304	1.217120E+02	  0.046653304	2.476200E+01	  0.046653304	2.240800E+01
135	  0.046853706	-7.286000E+00	  0.046853706	1.214650E+02	  0.046853706	2.482200E+01	  0.046853706	2.250500E+01
136	  0.047054108	-7.294000E+00	  0.047054108	1.212200E+02	  0.047054108	2.489300E+01	  0.047054108	2.259700E+01
137	  0.047254506	-7.298000E+00	  0.047254506	1.209540E+02	  0.047254506	2.495600E+01	  0.047254506	2.270300E+01
138	  0.047454908	-7.303000E+00	  0.047454908	1.207210E+02	  0.047454908	2.501600E+01	  0.047454908	2.279400E+01
139	  0.047655310	-7.305000E+00	  0.047655310	1.204280E+02	  0.047655310	2.508000E+01	  0.047655310	2.291400E+01
140	  0.047855709	-7.305000E+00	  0.047855709	1.201530E+02	  0.047855709	2.513700E+01	  0.047855709	2.302800E+01
141	  0.048056111	-7.306000E+00	  0.048056111	1.198620E+02	  0.048056111	2.519700E+01	  0.048056111	2.315000E+01
142	  0.048256513	-7.297000E+00	  0.048256513	1.195510E+02	  0.048256513	2.523600E+01	  0.048256513	2.329200E+01
143	  0.048456915	-7.290000E+00	  0.048456915	1.193050E+02	  0.048456915	2.526700E+01	  0.048456915	2.340500E+01
144	  0.048657313	-7.285000E+00	  0.048657313	1.190570E+02	  0.048657313	2.530400E+01	  0.048657313	2.351600E+01
145	  0.048857715	-7.281000E+00	  0.048857715	1.188360E+02	  0.048857715	2.534000E+01	  0.048857715	2.361400E+01
146	  0.049058117	-7.281000E+00	  0.049058117	1.185990E+02	  0.049058117	2.539000E+01	  0.049058117	2.371400E+01
147	  0.049258515	-7.280000E+00	  0.049258515	1.184080E+02	  0.049258515	2.542700E+01	  0.049258515	2.379600E+01
148	  0.049458917	-7.282000E+00	  0.049458917	1.181760E+02	  0.049458917	2.548100E+01	  0.049458917	2.389200E+01
149	  0.049659319	-7.285000E+00	  0.049659319	1.179280E+02	  0.049659319	2.554200E+01	  0.049659319	2.399300E+01
150	  0.049859721	-7.287000E+00	  0.049859721	1.177120E+02	  0.049859721	2.559500E+01	  0.049859721	2.408100E+01
151	  0.050060119	-7.287000E+00	  0.050060119	1.174570E+02	  0.050060119	2.565000E+01	  0.050060119	2.418900E+01
152	  0.050260521	-7.289000E+00	  0.050260521	1.172120E+02	  0.050260521	2.571000E+01	  0.050260521	2.428900E+01
153	  0.050460923	-7.287000E+00	  0.050460923	1.169830E+02	  0.050460923	2.575200E+01	  0.050460923	2.439000E+01
154	  0.050661322	-7.291000E+00	  0.050661322	1.167180E+02	  0.050661322	2.582200E+01	  0.050661322	2.449700E+01
155	  0.050861724	-7.286000E+00	  0.050861724	1.164510E+02	  0.050861724	2.586700E+01	  0.050861724	2.461800E+01
156	  0.051062126	-7.277000E+00	  0.051062126	1.161580E+02	  0.051062126	2.590700E+01	  0.051062126	2.475500E+01
157	  0.051262524	-7.273000E+00	  0.051262524	1.159010E+02	  0.051262524	2.595500E+01	  0.051262524	2.487000E+01
158	  0.051462926	-7.267000E+00	  0.051462926	1.156680E+02	  0.051462926	2.599100E+01	  0.051462926	2.497800E+01
159	  0.051663328	-7.264000E+00	  0.051663328	1.154840E+02	  0.051663328	2.602300E+01	  0.051663328	2.506200E+01
160	  0.051863730	-7.262000E+00	  0.051863730	1.152740E+02	  0.051863730	2.606600E+01	  0.051863730	2.515500E+01
161	  0.052064128	-7.266000E+00	  0.052064128	1.150840E+02	  0.052064128	2.612100E+01	  0.052064128	2.523000E+01
162	  0.052264530	-7.270000E+00	  0.052264530	1.148680E+02	  0.052264530	2.618100E+01	  0.052264530	2.531700E+01
163	  0.052464932	-7.272000E+00	  0.052464932	1.146290E+02	  0.052464932	2.624400E+01	  0.052464932	2.541600E+01
164	  0.052665330	-7.277000E+00	  0.052665330	1.143910E+02	  0.052665330	2.631200E+01	  0.052665330	2.551100E+01
165	  0.052865732	-7.282000E+00	  0.052865732	1.141240E+02	  0.052865732	2.638900E+01	  0.052865732	2.561800E+01
166	  0.053066134	-7.287000E+00	  0.053066134	1.138860E+02	  0.053066134	2.645900E+01	  0.053066134	2.571200E+01
167	  0.053266536	-7.289000E+00	  0.053266536	1.135990E+02	  0.053266536	2.653300E+01	  0.053266536	2.583300E+01
168	  0.053466935	-7.283000E+00	  0.053466935	1.133040E+02	  0.053466935	2.658800E+01	  0.053466935	2.596900E+01
169	  0.053667337	-7.278000E+00	  0.053667337	1.130360E+02	  0.053667337	2.664000E+01	  0.053667337	2.609200E+01
170	  0.053867739	-7.273000E+00	  0.053867739	1.127790E+02	  0.053867739	2.668800E+01	  0.053867739	2.621100E+01
171	  0.054068137	-7.274000E+00	  0.054068137	1.125400E+02	  0.054068137	2.674900E+01	  0.054068137	2.631200E+01
172	  0.054268539	-7.269000E+00	  0.054268539	1.123240E+02	  0.054268539	2.678600E+01	  0.054268539	2.641500E+01
173	  0.054468941	-7.269000E+00	  0.054468941	1.120880E+02	  0.054468941	2.684600E+01	  0.054468941	2.651600E+01
174	  0.054669339	-7.271000E+00	  0.054669339	1.118920E+02	  0.054669339	2.690100E+01	  0.054669339	2.659800E+01
175	  0.054869737	-7.273000E+00	  0.054869737	1.116770E+02	  0.054869737	2.696100E+01	  0.054869737	2.668800E+01
176	  0.055070139	-7.271000E+00	  0.055070139	1.114400E+02	  0.055070139	2.701300E+01	  0.055070139	2.679500E+01
177	  0.055270538	-7.273000E+00	  0.055270538	1.111920E+02	  0.055270538	2.708300E+01	  0.055270538	2.689800E+01
178	  0.055470940	-7.277000E+00	  0.055470940	1.109690E+02	  0.055470940	2.715000E+01	  0.055470940	2.699000E+01
179	  0.055671342	-7.279000E+00	  0.055671342	1.107280E+02	  0.055671342	2.721800E+01	  0.055671342	2.709000E+01
180	  0.055871744	-7.283000E+00	  0.055871744	1.105040E+02	  0.055871744	2.728900E+01	  0.055871744	2.718000E+01
181	  0.056072142	-7.277000E+00	  0.056072142	1.101910E+02	  0.056072142	2.735200E+01	  0.056072142	2.732800E+01
182	  0.056272544	-7.274000E+00	  0.056272544	1.099380E+02	  0.056272544	2.741000E+01	  0.056272544	2.744300E+01
183	  0.056472946	-7.274000E+00	  0.056472946	1.096610E+02	  0.056472946	2.748300E+01	  0.056472946	2.756400E+01
184	  0.056673344	-7.274000E+00	  0.056673344	1.093880E+02	  0.056673344	2.755600E+01	  0.056673344	2.768300E+01
185	  0.056873746	-7.275000E+00	  0.056873746	1.091800E+02	  0.056873746	2.761200E+01	  0.056873746	2.777400E+01
186	  0.057074148	-7.270000E+00	  0.057074148	1.089300E+02	  0.057074148	2.766700E+01	  0.057074148	2.789100E+01
187	  0.057274550	-7.272000E+00	  0.057274550	1.086870E+02	  0.057274550	2.773700E+01	  0.057274550	2.799500E+01
188	  0.057474948	-7.271000E+00	  0.057474948	1.084560E+02	  0.057474948	2.779800E+01	  0.057474948	2.809700E+01
189	  0.057675350	-7.277000E+00	  0.057675350	1.082270E+02	  0.057675350	2.787700E+01	  0.057675350	2.818800E+01
190	  0.057875752	-7.279000E+00	  0.057875752	1.079730E+02	  0.057875752	2.795400E+01	  0.057875752	2.829500E+01
191	  0.058076151	-7.283000E+00	  0.058076151	1.077300E+02	  0.058076151	2.803100E+01	  0.058076151	2.839500E+01
192	  0.058276553	-7.288000E+00	  0.058276553	1.074590E+02	  0.058276553	2.812200E+01	  0.058276553	2.850500E+01
193	  0.058476955	-7.288000E+00	  0.058476955	1.071780E+02	  0.058476955	2.820100E+01	  0.058476955	2.862900E+01
194	  0.058677353	-7.284000E+00	  0.058677353	1.068780E+02	  0.058677353	2.827500E+01	  0.058677353	2.876800E+01
195	  0.058877755	-7.282000E+00	  0.058877755	1.065950E+02	  0.058877755	2.834800E+01	  0.058877755	2.889800E+01
196	  0.059078157	-7.280000E+00	  0.059078157	1.062960E+02	  0.059078157	2.843000E+01	  0.059078157	2.903300E+01
197	  0.059278559	-7.274000E+00	  0.059278559	1.060450E+02	  0.059278559	2.848500E+01	  0.059278559	2.915500E+01
198	  0.059478957	-7.270000E+00	  0.059478957	1.057930E+02	  0.059478957	2.854700E+01	  0.059478957	2.927400E+01
199	  0.059679359	-7.266000E+00	  0.059679359	1.055600E+02	  0.059679359	2.860300E+01	  0.059679359	2.938600E+01
200	  0.059879761	-7.258000E+00	  0.059879761	1.053210E+02	  0.059879761	2.864800E+01	  0.059879761	2.950900E+01
201	  0.060080159	-7.257000E+00	  0.060080159	1.050970E+02	  0.060080159	2.871200E+01	  0.060080159	2.961000E+01
202	  0.060280561	-7.253000E+00	  0.060280561	1.048810E+02	  0.060280561	2.876500E+01	  0.060280561	2.971400E+01
203	  0.060480963	-7.252000E+00	  0.060480963	1.046430E+02	  0.060480963	2.883300E+01	  0.060480963	2.982200E+01
204	  0.060681365	-7.251000E+00	  0.060681365	1.044450E+02	  0.060681365	2.888900E+01	  0.060681365	2.991300E+01
205	  0.060881764	-7.250000E+00	  0.060881764	1.042390E+02	  0.060881764	2.894900E+01	  0.060881764	3.000700E+01
206	  0.061082166	-7.248000E+00	  0.061082166	1.039970E+02	  0.061082166	2.901800E+01	  0.061082166	3.011800E+01
207	  0.061282568	-7.242000E+00	  0.061282568	1.037410E+02	  0.061282568	2.907700E+01	  0.061282568	3.024600E+01
208	  0.061482966	-7.239000E+00	  0.061482966	1.034910E+02	  0.061482966	2.914400E+01	  0.061482966	3.036500E+01
209	  0.061683368	-7.239000E+00	  0.061683368	1.032380E+02	  0.061683368	2.922300E+01	  0.061683368	3.047900E+01
210	  0.061883770	-7.239000E+00	  0.061883770	1.030040E+02	  0.061883770	2.929600E+01	  0.061883770	3.058400E+01
211	  0.062084168	-7.234000E+00	  0.062084168	1.028030E+02	  0.062084168	2.934600E+01	  0.062084168	3.068300E+01
212	  0.062284570	-7.237000E+00	  0.062284570	1.025660E+02	  0.062284570	2.942900E+01	  0.062284570	3.078400E+01
213	  0.062484972	-7.228000E+00	  0.062484972	1.023920E+02	  0.062484972	2.945600E+01	  0.062484972	3.088200E+01
214	  0.062685370	-7.224000E+00	  0.062685370	1.021780E+02	  0.062685370	2.951200E+01	  0.062685370	3.098700E+01
215	  0.062885776	-7.226000E+00	  0.062885776	1.019390E+02	  0.062885776	2.959500E+01	  0.062885776	3.109100E+01
216	  0.063086174	-7.231000E+00	  0.063086174	1.017660E+02	  0.063086174	2.966600E+01	  0.063086174	3.115900E+01
217	  0.063286573	-7.233000E+00	  0.063286573	1.014950E+02	  0.063286573	2.975900E+01	  0.063286573	3.127700E+01
218	  0.063486971	-7.240000E+00	  0.063486971	1.012870E+02	  0.063486971	2.984800E+01	  0.063486971	3.135600E+01
219	  0.063687377	-7.242000E+00	  0.063687377	1.010120E+02	  0.063687377	2.994600E+01	  0.063687377	3.147500E+01
220	  0.063887775	-7.242000E+00	  0.063887775	1.007420E+02	  0.063887775	3.003500E+01	  0.063887775	3.159700E+01
221	  0.064088173	-7.245000E+00	  0.064088173	1.004550E+02	  0.064088173	3.013800E+01	  0.064088173	3.172100E+01
222	  0.064288579	-7.250000E+00	  0.064288579	1.001490E+02	  0.064288579	3.025600E+01	  0.064288579	3.184900E+01
223	  0.064488977	-7.243000E+00	  0.064488977	9.986800E+01	  0.064488977	3.033000E+01	  0.064488977	3.199200E+01
224	  0.064689375	-7.234000E+00	  0.064689375	9.961600E+01	  0.064689375	3.038900E+01	  0.064689375	3.212700E+01
225	  0.064889781	-7.236000E+00	  0.064889781	9.938000E+01	  0.064889781	3.047400E+01	  0.064889781	3.223000E+01
226	  0.065090179	-7.230000E+00	  0.065090179	9.911000E+01	  0.065090179	3.055100E+01	  0.065090179	3.236600E+01
227	  0.065290578	-7.225000E+00	  0.065290578	9.891800E+01	  0.065290578	3.060100E+01	  0.065290578	3.246600E+01
228	  0.065490983	-7.222000E+00	  0.065490983	9.868100E+01	  0.065490983	3.067400E+01	  0.065490983	3.258100E+01
229	  0.065691382	-7.220000E+00	  0.065691382	9.846200E+01	  0.065691382	3.074500E+01	  0.065691382	3.268600E+01
230	  0.065891780	-7.222000E+00	  0.065891780	9.821600E+01	  0.065891780	3.083800E+01	  0.065891780	3.279400E+01
231	  0.066092186	-7.211000E+00	  0.066092186	9.804000E+01	  0.066092186	3.086800E+01	  0.066092186	3.289900E+01
232	  0.066292584	-7.210000E+00	  0.066292584	9.779900E+01	  0.066292584	3.095100E+01	  0.066292584	3.301200E+01
233	  0.066492982	-7.208000E+00	  0.066492982	9.760500E+01	  0.066492982	3.101200E+01	  0.066492982	3.310700E+01
234	  0.066693388	-7.208000E+00	  0.066693388	9.732100E+01	  0.066693388	3.111600E+01	  0.066693388	3.323700E+01
235	  0.066893786	-7.212000E+00	  0.066893786	9.709000E+01	  0.066893786	3.121100E+01	  0.066893786	3.333400E+01
236	  0.067094192	-7.212000E+00	  0.067094192	9.691400E+01	  0.067094192	3.127400E+01	  0.067094192	3.341600E+01
237	  0.067294590	-7.207000E+00	  0.067294590	9.667300E+01	  0.067294590	3.134900E+01	  0.067294590	3.353800E+01
238	  0.067494988	-7.202000E+00	  0.067494988	9.645700E+01	  0.067494988	3.141400E+01	  0.067494988	3.364900E+01
239	  0.067695394	-7.204000E+00	  0.067695394	9.622300E+01	  0.067695394	3.150500E+01	  0.067695394	3.375300E+01
240	  0.067895792	-7.201000E+00	  0.067895792	9.601300E+01	  0.067895792	3.157400E+01	  0.067895792	3.385700E+01
241	  0.068096191	-7.203000E+00	  0.068096191	9.579600E+01	  0.068096191	3.166100E+01	  0.068096191	3.395300E+01
242	  0.068296596	-7.214000E+00	  0.068296596	9.559000E+01	  0.068296596	3.177300E+01	  0.068296596	3.402100E+01
243	  0.068496995	-7.211000E+00	  0.068496995	9.536400E+01	  0.068496995	3.184800E+01	  0.068496995	3.413300E+01
244	  0.068697393	-7.217000E+00	  0.068697393	9.512500E+01	  0.068697393	3.195900E+01	  0.068697393	3.422800E+01
245	  0.068897791	-7.219000E+00	  0.068897791	9.491000E+01	  0.068897791	3.204800E+01	  0.068897791	3.432200E+01
246	  0.069098189	-7.222000E+00	  0.069098189	9.461800E+01	  0.069098189	3.216700E+01	  0.069098189	3.445200E+01
247	  0.069298595	-7.221000E+00	  0.069298595	9.433800E+01	  0.069298595	3.227200E+01	  0.069298595	3.458400E+01
248	  0.069498993	-7.229000E+00	  0.069498993	9.405700E+01	  0.069498993	3.240700E+01	  0.069498993	3.469300E+01
249	  0.069699399	-7.225000E+00	  0.069699399	9.378100E+01	  0.069699399	3.250400E+01	  0.069699399	3.483100E+01
250	  0.069899797	-7.235000E+00	  0.069899797	9.351000E+01	  0.069899797	3.264400E+01	  0.069899797	3.492900E+01
251	  0.070100196	-7.229000E+00	  0.070100196	9.325600E+01	  0.070100196	3.272500E+01	  0.070100196	3.506500E+01
252	  0.070300601	-7.233000E+00	  0.070300601	9.296000E+01	  0.070300601	3.285600E+01	  0.070300601	3.519200E+01
253	  0.070501000	-7.221000E+00	  0.070501000	9.268400E+01	  0.070501000	3.293200E+01	  0.070501000	3.535100E+01
254	  0.070701398	-7.215000E+00	  0.070701398	9.245000E+01	  0.070701398	3.300900E+01	  0.070701398	3.547600E+01
255	  0.070901804	-7.210000E+00	  0.070901804	9.221300E+01	  0.070901804	3.309000E+01	  0.070901804	3.560000E+01
256	  0.071102202	-7.205000E+00	  0.071102202	9.195900E+01	  0.071102202	3.317900E+01	  0.071102202	3.573300E+01
257	  0.071302600	-7.202000E+00	  0.071302600	9.176400E+01	  0.071302600	3.325000E+01	  0.071302600	3.583300E+01
258	  0.071503006	-7.199000E+00	  0.071503006	9.153800E+01	  0.071503006	3.333700E+01	  0.071503006	3.594500E+01
259	  0.071703404	-7.193000E+00	  0.071703404	9.129900E+01	  0.071703404	3.341900E+01	  0.071703404	3.607300E+01
260	  0.071903802	-7.188000E+00	  0.071903802	9.110100E+01	  0.071903802	3.348800E+01	  0.071903802	3.617900E+01
261	  0.072104208	-7.195000E+00	  0.072104208	9.088100E+01	  0.072104208	3.360100E+01	  0.072104208	3.626400E+01
262	  0.072304606	-7.191000E+00	  0.072304606	9.064200E+01	  0.072304606	3.369000E+01	  0.072304606	3.638800E+01
263	  0.072505005	-7.187000E+00	  0.072505005	9.043000E+01	  0.072505005	3.377000E+01	  0.072505005	3.649700E+01
264	  0.072705410	-7.187000E+00	  0.072705410	9.021100E+01	  0.072705410	3.386400E+01	  0.072705410	3.660200E+01
265	  0.072905809	-7.182000E+00	  0.072905809	9.003000E+01	  0.072905809	3.392800E+01	  0.072905809	3.670000E+01
266	  0.073106214	-7.181000E+00	  0.073106214	8.977600E+01	  0.073106214	3.403400E+01	  0.073106214	3.682400E+01
267	  0.073306613	-7.185000E+00	  0.073306613	8.959200E+01	  0.073306613	3.412900E+01	  0.073306613	3.689700E+01
268	  0.073507011	-7.185000E+00	  0.073507011	8.937400E+01	  0.073507011	3.422400E+01	  0.073507011	3.700000E+01
269	  0.073707417	-7.191000E+00	  0.073707417	8.919700E+01	  0.073707417	3.432200E+01	  0.073707417	3.706500E+01
270	  0.073907815	-7.191000E+00	  0.073907815	8.895900E+01	  0.073907815	3.442700E+01	  0.073907815	3.717900E+01
271	  0.074108213	-7.194000E+00	  0.074108213	8.875000E+01	  0.074108213	3.453100E+01	  0.074108213	3.726700E+01
272	  0.074308619	-7.194000E+00	  0.074308619	8.851300E+01	  0.074308619	3.463700E+01	  0.074308619	3.738000E+01
273	  0.074509017	-7.200000E+00	  0.074509017	8.825700E+01	  0.074509017	3.477100E+01	  0.074509017	3.748200E+01
274	  0.074709415	-7.205000E+00	  0.074709415	8.797600E+01	  0.074709415	3.491700E+01	  0.074709415	3.759700E+01
275	  0.074909821	-7.210000E+00	  0.074909821	8.773800E+01	  0.074909821	3.504100E+01	  0.074909821	3.769500E+01
276	  0.075110219	-7.219000E+00	  0.075110219	8.746700E+01	  0.075110219	3.519400E+01	  0.075110219	3.779400E+01
277	  0.075310618	-7.214000E+00	  0.075310618	8.719600E+01	  0.075310618	3.530500E+01	  0.075310618	3.793700E+01
278	  0.075511023	-7.218000E+00	  0.075511023	8.688900E+01	  0.075511023	3.546200E+01	  0.075511023	3.807000E+01
279	  0.075711422	-7.219000E+00	  0.075711422	8.662300E+01	  0.075711422	3.558900E+01	  0.075711422	3.819300E+01
280	  0.075911827	-7.208000E+00	  0.075911827	8.635500E+01	  0.075911827	3.568400E+01	  0.075911827	3.835200E+01
281	  0.076112226	-7.206000E+00	  0.076112226	8.609900E+01	  0.076112226	3.579800E+01	  0.076112226	3.848100E+01
282	  0.076312624	-7.200000E+00	  0.076312624	8.584900E+01	  0.076312624	3.590100E+01	  0.076312624	3.861700E+01
283	  0.076513030	-7.199000E+00	  0.076513030	8.565700E+01	  0.076513030	3.599000E+01	  0.076513030	3.871100E+01
284	  0.076713428	-7.190000E+00	  0.076713428	8.543100E+01	  0.076713428	3.607200E+01	  0.076713428	3.884700E+01
285	  0.076913826	-7.186000E+00	  0.076913826	8.516200E+01	  0.076913826	3.619200E+01	  0.076913826	3.898800E+01
286	  0.077114232	-7.188000E+00	  0.077114232	8.495300E+01	  0.077114232	3.630300E+01	  0.077114232	3.907800E+01
287	  0.077314630	-7.186000E+00	  0.077314630	8.468100E+01	  0.077314630	3.643100E+01	  0.077314630	3.921500E+01
288	  0.077515028	-7.187000E+00	  0.077515028	8.448900E+01	  0.077515028	3.652900E+01	  0.077515028	3.930200E+01
289	  0.077715434	-7.185000E+00	  0.077715434	8.424200E+01	  0.077715434	3.665000E+01	  0.077715434	3.942300E+01
290	  0.077915832	-7.183000E+00	  0.077915832	8.401200E+01	  0.077915832	3.675900E+01	  0.077915832	3.954000E+01
291	  0.078116231	-7.185000E+00	  0.078116231	8.373600E+01	  0.078116231	3.690400E+01	  0.078116231	3.966600E+01
292	  0.078316636	-7.184000E+00	  0.078316636	8.354800E+01	  0.078316636	3.699900E+01	  0.078316636	3.975600E+01
293	  0.078517035	-7.184000E+00	  0.078517035	8.329500E+01	  0.078517035	3.712900E+01	  0.078517035	3.987600E+01
294	  0.078717433	-7.182000E+00	  0.078717433	8.308600E+01	  0.078717433	3.723100E+01	  0.078717433	3.998200E+01
295	  0.078917839	-7.188000E+00	  0.078917839	8.287600E+01	  0.078917839	3.735900E+01	  0.078917839	4.006100E+01
296	  0.079118237	-7.184000E+00	  0.079118237	8.264600E+01	  0.079118237	3.746600E+01	  0.079118237	4.018500E+01
297	  0.079318643	-7.184000E+00	  0.079318643	8.241500E+01	  0.079318643	3.759000E+01	  0.079318643	4.029200E+01
298	  0.079519041	-7.187000E+00	  0.079519041	8.217900E+01	  0.079519041	3.772300E+01	  0.079519041	4.039500E+01
299	  0.079719439	-7.191000E+00	  0.079719439	8.193000E+01	  0.079719439	3.787100E+01	  0.079719439	4.049600E+01
300	  0.079919845	-7.195000E+00	  0.079919845	8.169100E+01	  0.079919845	3.800800E+01	  0.079919845	4.059800E+01
301	  0.080120243	-7.197000E+00	  0.080120243	8.140700E+01	  0.080120243	3.816900E+01	  0.080120243	4.072400E+01
302	  0.080320641	-7.205000E+00	  0.080320641	8.112300E+01	  0.080320641	3.835000E+01	  0.080320641	4.082700E+01
303	  0.080521047	-7.206000E+00	  0.080521047	8.085300E+01	  0.080521047	3.850000E+01	  0.080521047	4.095200E+01
304	  0.080721445	-7.206000E+00	  0.080721445	8.054500E+01	  0.080721445	3.867000E+01	  0.080721445	4.109700E+01
305	  0.080921844	-7.204000E+00	  0.080921844	8.024000E+01	  0.080921844	3.883400E+01	  0.080921844	4.124700E+01
306	  0.081122249	-7.199000E+00	  0.081122249	7.997000E+01	  0.081122249	3.897100E+01	  0.081122249	4.139000E+01
307	  0.081322648	-7.188000E+00	  0.081322648	7.968800E+01	  0.081322648	3.909500E+01	  0.081322648	4.156600E+01
308	  0.081523046	-7.176000E+00	  0.081523046	7.948100E+01	  0.081523046	3.917500E+01	  0.081523046	4.171000E+01
309	  0.081723452	-7.175000E+00	  0.081723452	7.921800E+01	  0.081723452	3.932200E+01	  0.081723452	4.183800E+01
310	  0.081923850	-7.163000E+00	  0.081923850	7.899800E+01	  0.081923850	3.941300E+01	  0.081923850	4.198600E+01
311	  0.082124248	-7.161000E+00	  0.082124248	7.878000E+01	  0.082124248	3.953100E+01	  0.082124248	4.209900E+01
312	  0.082324654	-7.152000E+00	  0.082324654	7.856100E+01	  0.082324654	3.963200E+01	  0.082324654	4.223500E+01
313	  0.082525052	-7.153000E+00	  0.082525052	7.830200E+01	  0.082525052	3.978800E+01	  0.082525052	4.235200E+01
314	  0.082725458	-7.147000E+00	  0.082725458	7.810700E+01	  0.082725458	3.988500E+01	  0.082725458	4.246800E+01
315	  0.082925856	-7.143000E+00	  0.082925856	7.790900E+01	  0.082925856	3.998800E+01	  0.082925856	4.257900E+01
316	  0.083126254	-7.139000E+00	  0.083126254	7.772200E+01	  0.083126254	4.008700E+01	  0.083126254	4.268300E+01
317	  0.083326660	-7.137000E+00	  0.083326660	7.747500E+01	  0.083326660	4.023000E+01	  0.083326660	4.280700E+01
318	  0.083527058	-7.137000E+00	  0.083527058	7.729300E+01	  0.083527058	4.034000E+01	  0.083527058	4.289300E+01
319	  0.083727457	-7.135000E+00	  0.083727457	7.708700E+01	  0.083727457	4.045800E+01	  0.083727457	4.299800E+01
320	  0.083927862	-7.140000E+00	  0.083927862	7.689700E+01	  0.083927862	4.058600E+01	  0.083927862	4.307100E+01
321	  0.084128261	-7.133000E+00	  0.084128261	7.666300E+01	  0.084128261	4.071000E+01	  0.084128261	4.320800E+01
322	  0.084328659	-7.134000E+00	  0.084328659	7.645200E+01	  0.084328659	4.084300E+01	  0.084328659	4.330400E+01
323	  0.084529065	-7.133000E+00	  0.084529065	7.628500E+01	  0.084529065	4.094400E+01	  0.084529065	4.338600E+01
324	  0.084729463	-7.135000E+00	  0.084729463	7.604300E+01	  0.084729463	4.110100E+01	  0.084729463	4.349100E+01
325	  0.084929861	-7.138000E+00	  0.084929861	7.584100E+01	  0.084929861	4.123600E+01	  0.084929861	4.357600E+01
326	  0.085130267	-7.148000E+00	  0.085130267	7.559800E+01	  0.085130267	4.141900E+01	  0.085130267	4.364800E+01
327	  0.085330658	-7.154000E+00	  0.085330658	7.535600E+01	  0.085330658	4.159100E+01	  0.085330658	4.373700E+01
328	  0.085531056	-7.160000E+00	  0.085531056	7.511400E+01	  0.085531056	4.176300E+01	  0.085531056	4.382600E+01
329	  0.085731462	-7.168000E+00	  0.085731462	7.485400E+01	  0.085731462	4.195500E+01	  0.085731462	4.391200E+01
330	  0.085931860	-7.169000E+00	  0.085931860	7.459300E+01	  0.085931860	4.212600E+01	  0.085931860	4.403100E+01
331	  0.086132258	-7.173000E+00	  0.086132258	7.428700E+01	  0.086132258	4.233600E+01	  0.086132258	4.415600E+01
332	  0.086332664	-7.169000E+00	  0.086332664	7.404800E+01	  0.086332664	4.248100E+01	  0.086332664	4.428500E+01
333	  0.086533062	-7.169000E+00	  0.086533062	7.374400E+01	  0.086533062	4.268200E+01	  0.086533062	4.442400E+01
334	  0.086733460	-7.165000E+00	  0.086733460	7.348600E+01	  0.086733460	4.284000E+01	  0.086733460	4.456200E+01
335	  0.086933866	-7.162000E+00	  0.086933866	7.321400E+01	  0.086933866	4.301400E+01	  0.086933866	4.469900E+01
336	  0.087134264	-7.153000E+00	  0.087134264	7.300400E+01	  0.087134264	4.312900E+01	  0.087134264	4.483500E+01
337	  0.087334670	-7.153000E+00	  0.087334670	7.273400E+01	  0.087334670	4.331000E+01	  0.087334670	4.496200E+01
338	  0.087535068	-7.146000E+00	  0.087535068	7.247700E+01	  0.087535068	4.346600E+01	  0.087535068	4.511100E+01
339	  0.087735467	-7.148000E+00	  0.087735467	7.224700E+01	  0.087735467	4.362900E+01	  0.087735467	4.520800E+01
340	  0.087935872	-7.143000E+00	  0.087935872	7.200800E+01	  0.087935872	4.378000E+01	  0.087935872	4.533900E+01
341	  0.088136271	-7.145000E+00	  0.088136271	7.179200E+01	  0.088136271	4.393500E+01	  0.088136271	4.543100E+01
342	  0.088336669	-7.142000E+00	  0.088336669	7.155400E+01	  0.088336669	4.409200E+01	  0.088336669	4.555500E+01
343	  0.088537075	-7.145000E+00	  0.088537075	7.129900E+01	  0.088537075	4.428100E+01	  0.088537075	4.565700E+01
344	  0.088737473	-7.141000E+00	  0.088737473	7.104700E+01	  0.088737473	4.444900E+01	  0.088737473	4.579000E+01
345	  0.088937871	-7.139000E+00	  0.088937871	7.083300E+01	  0.088937871	4.459200E+01	  0.088937871	4.590100E+01
346	  0.089138277	-7.135000E+00	  0.089138277	7.057900E+01	  0.089138277	4.476300E+01	  0.089138277	4.603300E+01
347	  0.089338675	-7.131000E+00	  0.089338675	7.037200E+01	  0.089338675	4.490000E+01	  0.089338675	4.615000E+01
348	  0.089539073	-7.129000E+00	  0.089539073	7.014800E+01	  0.089539073	4.505600E+01	  0.089539073	4.626000E+01
349	  0.089739479	-7.124000E+00	  0.089739479	6.994000E+01	  0.089739479	4.519200E+01	  0.089739479	4.638000E+01
350	  0.089939877	-7.120000E+00	  0.089939877	6.969100E+01	  0.089939877	4.536400E+01	  0.089939877	4.651100E+01
351	  0.090140276	-7.121000E+00	  0.090140276	6.949300E+01	  0.090140276	4.551400E+01	  0.090140276	4.659500E+01
352	  0.090340681	-7.130000E+00	  0.090340681	6.922700E+01	  0.090340681	4.573700E+01	  0.090340681	4.667400E+01
353	  0.090541080	-7.127000E+00	  0.090541080	6.901300E+01	  0.090541080	4.588800E+01	  0.090541080	4.678500E+01
354	  0.090741485	-7.126000E+00	  0.090741485	6.880100E+01	  0.090741485	4.604500E+01	  0.090741485	4.688500E+01
355	  0.090941884	-7.130000E+00	  0.090941884	6.854900E+01	  0.090941884	4.624800E+01	  0.090941884	4.697700E+01
356	  0.091142282	-7.133000E+00	  0.091142282	6.829800E+01	  0.091142282	4.644700E+01	  0.091142282	4.707600E+01
357	  0.091342688	-7.134000E+00	  0.091342688	6.800500E+01	  0.091342688	4.667400E+01	  0.091342688	4.720100E+01
358	  0.091543086	-7.134000E+00	  0.091543086	6.777400E+01	  0.091543086	4.685200E+01	  0.091543086	4.730400E+01
359	  0.091743484	-7.131000E+00	  0.091743484	6.752200E+01	  0.091743484	4.704100E+01	  0.091743484	4.743000E+01
360	  0.091943890	-7.127000E+00	  0.091943890	6.728900E+01	  0.091943890	4.721000E+01	  0.091943890	4.755300E+01
361	  0.092144288	-7.124000E+00	  0.092144288	6.704500E+01	  0.092144288	4.739500E+01	  0.092144288	4.767500E+01
362	  0.092344686	-7.115000E+00	  0.092344686	6.679900E+01	  0.092344686	4.756200E+01	  0.092344686	4.783200E+01
363	  0.092545092	-7.110000E+00	  0.092545092	6.656400E+01	  0.092545092	4.773600E+01	  0.092545092	4.795900E+01
364	  0.092745490	-7.109000E+00	  0.092745490	6.636100E+01	  0.092745490	4.789600E+01	  0.092745490	4.805400E+01
365	  0.092945889	-7.108000E+00	  0.092945889	6.611100E+01	  0.092945889	4.809300E+01	  0.092945889	4.817100E+01
366	  0.093146294	-7.108000E+00	  0.093146294	6.592800E+01	  0.093146294	4.824100E+01	  0.093146294	4.825200E+01
367	  0.093346693	-7.101000E+00	  0.093346693	6.571200E+01	  0.093346693	4.839700E+01	  0.093346693	4.838300E+01
368	  0.093547091	-7.102000E+00	  0.093547091	6.550000E+01	  0.093547091	4.857400E+01	  0.093547091	4.846900E+01
369	  0.093747497	-7.105000E+00	  0.093747497	6.527900E+01	  0.093747497	4.876600E+01	  0.093747497	4.854700E+01
370	  0.093947895	-7.111000E+00	  0.093947895	6.505100E+01	  0.093947895	4.896900E+01	  0.093947895	4.861700E+01
371	  0.094148301	-7.111000E+00	  0.094148301	6.481700E+01	  0.094148301	4.916500E+01	  0.094148301	4.871700E+01
372	  0.094348699	-7.114000E+00	  0.094348699	6.457000E+01	  0.094348699	4.938000E+01	  0.094348699	4.880600E+01
373	  0.094549097	-7.107000E+00	  0.094549097	6.434400E+01	  0.094549097	4.955300E+01	  0.094549097	4.893800E+01
374	  0.094749503	-7.108000E+00	  0.094749503	6.411900E+01	  0.094749503	4.974600E+01	  0.094749503	4.903100E+01
375	  0.094949901	-7.109000E+00	  0.094949901	6.389900E+01	  0.094949901	4.993700E+01	  0.094949901	4.911700E+01
376	  0.095150299	-7.107000E+00	  0.095150299	6.367400E+01	  0.095150299	5.012500E+01	  0.095150299	4.922300E+01
377	  0.095350705	-7.110000E+00	  0.095350705	6.344200E+01	  0.095350705	5.033200E+01	  0.095350705	4.930600E+01
378	  0.095551103	-7.113000E+00	  0.095551103	6.320300E+01	  0.095551103	5.054900E+01	  0.095551103	4.938700E+01
379	  0.095751502	-7.113000E+00	  0.095751502	6.293500E+01	  0.095751502	5.078300E+01	  0.095751502	4.949800E+01
380	  0.095951907	-7.110000E+00	  0.095951907	6.271700E+01	  0.095951907	5.096800E+01	  0.095951907	4.960300E+01
381	  0.096152306	-7.108000E+00	  0.096152306	6.248600E+01	  0.096152306	5.116600E+01	  0.096152306	4.971200E+01
382	  0.096352704	-7.116000E+00	  0.096352704	6.220500E+01	  0.096352704	5.144000E+01	  0.096352704	4.977700E+01
383	  0.096553110	-7.119000E+00	  0.096553110	6.195000E+01	  0.096553110	5.167400E+01	  0.096553110	4.986500E+01
384	  0.096753508	-7.116000E+00	  0.096753508	6.171900E+01	  0.096753508	5.187600E+01	  0.096753508	4.997400E+01
385	  0.096953906	-7.113000E+00	  0.096953906	6.145600E+01	  0.096953906	5.210500E+01	  0.096953906	5.010100E+01
386	  0.097154312	-7.109000E+00	  0.097154312	6.118700E+01	  0.097154312	5.234100E+01	  0.097154312	5.023300E+01
387	  0.097354710	-7.100000E+00	  0.097354710	6.094900E+01	  0.097354710	5.253600E+01	  0.097354710	5.038400E+01
388	  0.097555116	-7.101000E+00	  0.097555116	6.071700E+01	  0.097555116	5.275700E+01	  0.097555116	5.046400E+01
389	  0.097755514	-7.096000E+00	  0.097755514	6.049600E+01	  0.097755514	5.294700E+01	  0.097755514	5.058600E+01
390	  0.097955912	-7.091000E+00	  0.097955912	6.026700E+01	  0.097955912	5.315100E+01	  0.097955912	5.070300E+01
391	  0.098156318	-7.089000E+00	  0.098156318	6.004000E+01	  0.098156318	5.335900E+01	  0.098156318	5.080500E+01
392	  0.098356716	-7.082000E+00	  0.098356716	5.983100E+01	  0.098356716	5.354000E+01	  0.098356716	5.093000E+01
393	  0.098557115	-7.079000E+00	  0.098557115	5.963300E+01	  0.098557115	5.371900E+01	  0.098557115	5.102900E+01
394	  0.098757520	-7.082000E+00	  0.098757520	5.940700E+01	  0.098757520	5.394600E+01	  0.098757520	5.109400E+01
395	  0.098957919	-7.080000E+00	  0.098957919	5.918700E+01	  0.098957919	5.415100E+01	  0.098957919	5.119500E+01
396	  0.099158317	-7.083000E+00	  0.099158317	5.899500E+01	  0.099158317	5.434500E+01	  0.099158317	5.124700E+01
397	  0.099358723	-7.087000E+00	  0.099358723	5.879700E+01	  0.099358723	5.454800E+01	  0.099358723	5.129700E+01
398	  0.099559121	-7.086000E+00	  0.099559121	5.854900E+01	  0.099559121	5.478900E+01	  0.099559121	5.139700E+01
399	  0.099759519	-7.082000E+00	  0.099759519	5.831600E+01	  0.099759519	5.500900E+01	  0.099759519	5.150800E+01
400	  0.099959925	-7.082000E+00	  0.099959925	5.814000E+01	  0.099959925	5.518400E+01	  0.099959925	5.157200E+01
401	  0.100160323	-7.085000E+00	  0.100160323	5.793200E+01	  0.100160323	5.539800E+01	  0.100160323	5.163200E+01
402	  0.100360721	-7.083000E+00	  0.100360721	5.767000E+01	  0.100360721	5.565600E+01	  0.100360721	5.173700E+01
403	  0.100561127	-7.087000E+00	  0.100561127	5.747400E+01	  0.100561127	5.586400E+01	  0.100561127	5.178000E+01
404	  0.100761525	-7.092000E+00	  0.100761525	5.718900E+01	  0.100761525	5.616400E+01	  0.100761525	5.184800E+01
405	  0.100961931	-7.087000E+00	  0.100961931	5.691400E+01	  0.100961931	5.643300E+01	  0.100961931	5.198000E+01
406	  0.101162329	-7.095000E+00	  0.101162329	5.668100E+01	  0.101162329	5.668900E+01	  0.101162329	5.201200E+01
407	  0.101362728	-7.095000E+00	  0.101362728	5.641900E+01	  0.101362728	5.696100E+01	  0.101362728	5.209700E+01
408	  0.101563133	-7.106000E+00	  0.101563133	5.617700E+01	  0.101563133	5.723700E+01	  0.101563133	5.210400E+01
409	  0.101763532	-7.101000E+00	  0.101763532	5.593900E+01	  0.101763532	5.747400E+01	  0.101763532	5.222300E+01
410	  0.101963930	-7.100000E+00	  0.101963930	5.568200E+01	  0.101963930	5.774300E+01	  0.101963930	5.231200E+01
411	  0.102164336	-7.096000E+00	  0.102164336	5.534800E+01	  0.102164336	5.808700E+01	  0.102164336	5.245000E+01
412	  0.102364734	-7.092000E+00	  0.102364734	5.513900E+01	  0.102364734	5.830000E+01	  0.102364734	5.255100E+01
413	  0.102565132	-7.086000E+00	  0.102565132	5.490500E+01	  0.102565132	5.854000E+01	  0.102565132	5.266500E+01
414	  0.102765530	-7.082000E+00	  0.102765530	5.457900E+01	  0.102765530	5.888400E+01	  0.102765530	5.279800E+01
415	  0.102965929	-7.081000E+00	  0.102965929	5.430000E+01	  0.102965929	5.918500E+01	  0.102965929	5.289500E+01
416	  0.103166327	-7.076000E+00	  0.103166327	5.408300E+01	  0.103166327	5.941200E+01	  0.103166327	5.299900E+01
417	  0.103366733	-7.068000E+00	  0.103366733	5.387800E+01	  0.103366733	5.962300E+01	  0.103366733	5.311700E+01
418	  0.103567131	-7.063000E+00	  0.103567131	5.365000E+01	  0.103567131	5.986500E+01	  0.103567131	5.322700E+01
419	  0.103767529	-7.051000E+00	  0.103767529	5.340000E+01	  0.103767529	6.011900E+01	  0.103767529	5.339500E+01
420	  0.103967935	-7.050000E+00	  0.103967935	5.322400E+01	  0.103967935	6.031600E+01	  0.103967935	5.345200E+01
421	  0.104168333	-7.049000E+00	  0.104168333	5.299700E+01	  0.104168333	6.057000E+01	  0.104168333	5.352500E+01
422	  0.104368731	-7.053000E+00	  0.104368731	5.279700E+01	  0.104368731	6.080300E+01	  0.104368731	5.355700E+01
423	  0.104569137	-7.046000E+00	  0.104569137	5.251400E+01	  0.104569137	6.111400E+01	  0.104569137	5.368700E+01
424	  0.104769535	-7.041000E+00	  0.104769535	5.232800E+01	  0.104769535	6.131800E+01	  0.104769535	5.378200E+01
425	  0.104969934	-7.043000E+00	  0.104969934	5.209500E+01	  0.104969934	6.159100E+01	  0.104969934	5.382900E+01
426	  0.105170339	-7.042000E+00	  0.105170339	5.195500E+01	  0.105170339	6.175000E+01	  0.105170339	5.388000E+01
427	  0.105370738	-7.042000E+00	  0.105370738	5.171100E+01	  0.105370738	6.203400E+01	  0.105370738	5.394900E+01
428	  0.105571143	-7.040000E+00	  0.105571143	5.151100E+01	  0.105571143	6.226600E+01	  0.105571143	5.401700E+01
429	  0.105771542	-7.045000E+00	  0.105771542	5.132600E+01	  0.105771542	6.249100E+01	  0.105771542	5.402800E+01
430	  0.105971940	-7.044000E+00	  0.105971940	5.110500E+01	  0.105971940	6.275200E+01	  0.105971940	5.409500E+01
431	  0.106172346	-7.050000E+00	  0.106172346	5.088400E+01	  0.106172346	6.302400E+01	  0.106172346	5.410400E+01
432	  0.106372744	-7.045000E+00	  0.106372744	5.063900E+01	  0.106372744	6.330800E+01	  0.106372744	5.420400E+01
433	  0.106573142	-7.055000E+00	  0.106573142	5.043300E+01	  0.106573142	6.357100E+01	  0.106573142	5.417800E+01
434	  0.106773548	-7.061000E+00	  0.106773548	5.019500E+01	  0.106773548	6.386800E+01	  0.106773548	5.418500E+01
435	  0.106973946	-7.060000E+00	  0.106973946	4.992600E+01	  0.106973946	6.419200E+01	  0.106973946	5.425700E+01
436	  0.107174344	-7.061000E+00	  0.107174344	4.976400E+01	  0.107174344	6.439300E+01	  0.107174344	5.428100E+01
437	  0.107374750	-7.061000E+00	  0.107374750	4.951000E+01	  0.107374750	6.470300E+01	  0.107374750	5.433700E+01
438	  0.107575148	-7.059000E+00	  0.107575148	4.924500E+01	  0.107575148	6.502600E+01	  0.107575148	5.441400E+01
439	  0.107775547	-7.068000E+00	  0.107775547	4.898400E+01	  0.107775547	6.536100E+01	  0.107775547	5.439800E+01
440	  0.107975952	-7.061000E+00	  0.107975952	4.866000E+01	  0.107975952	6.575600E+01	  0.107975952	5.452100E+01
441	  0.108176351	-7.062000E+00	  0.108176351	4.841500E+01	  0.108176351	6.606400E+01	  0.108176351	5.456100E+01
442	  0.108376749	-7.062000E+00	  0.108376749	4.818600E+01	  0.108376749	6.635300E+01	  0.108376749	5.460600E+01
443	  0.108577155	-7.060000E+00	  0.108577155	4.796700E+01	  0.108577155	6.662900E+01	  0.108577155	5.466000E+01
444	  0.108777553	-7.045000E+00	  0.108777553	4.769700E+01	  0.108777553	6.695500E+01	  0.108777553	5.483900E+01
445	  0.108977959	-7.054000E+00	  0.108977959	4.751800E+01	  0.108977959	6.719600E+01	  0.108977959	5.478900E+01
446	  0.109178357	-7.050000E+00	  0.109178357	4.724700E+01	  0.109178357	6.754100E+01	  0.109178357	5.487200E+01
447	  0.109378755	-7.042000E+00	  0.109378755	4.697600E+01	  0.109378755	6.788400E+01	  0.109378755	5.498800E+01
448	  0.109579161	-7.047000E+00	  0.109579161	4.674500E+01	  0.109579161	6.819100E+01	  0.109579161	5.497700E+01
449	  0.109779559	-7.042000E+00	  0.109779559	4.653600E+01	  0.109779559	6.846000E+01	  0.109779559	5.505100E+01
450	  0.109979957	-7.045000E+00	  0.109979957	4.631100E+01	  0.109979957	6.875900E+01	  0.109979957	5.505600E+01
451	  0.110180363	-7.035000E+00	  0.110180363	4.607900E+01	  0.110180363	6.905700E+01	  0.110180363	5.517900E+01
452	  0.110380761	-7.035000E+00	  0.110380761	4.586400E+01	  0.110380761	6.934400E+01	  0.110380761	5.520300E+01
453	  0.110581160	-7.039000E+00	  0.110581160	4.558900E+01	  0.110581160	6.971600E+01	  0.110581160	5.520800E+01
454	  0.110781565	-7.035000E+00	  0.110781565	4.538000E+01	  0.110781565	6.999500E+01	  0.110781565	5.526200E+01
455	  0.110981964	-7.033000E+00	  0.110981964	4.519900E+01	  0.110981964	7.023800E+01	  0.110981964	5.530500E+01
456	  0.111182362	-7.033000E+00	  0.111182362	4.497000E+01	  0.111182362	7.054900E+01	  0.111182362	5.533000E+01
457	  0.111382768	-7.029000E+00	  0.111382768	4.472400E+01	  0.111382768	7.088300E+01	  0.111382768	5.538400E+01
458	  0.111583166	-7.030000E+00	  0.111583166	4.451500E+01	  0.111583166	7.117100E+01	  0.111583166	5.539500E+01
459	  0.111783572	-7.033000E+00	  0.111783572	4.425200E+01	  0.111783572	7.153500E+01	  0.111783572	5.539200E+01
460	  0.111983970	-7.034000E+00	  0.111983970	4.405500E+01	  0.111983970	7.180900E+01	  0.111983970	5.540000E+01
461	  0.112184368	-7.037000E+00	  0.112184368	4.382000E+01	  0.112184368	7.213700E+01	  0.112184368	5.538700E+01
462	  0.112384774	-7.035000E+00	  0.112384774	4.359700E+01	  0.112384774	7.244900E+01	  0.112384774	5.541800E+01
463	  0.112585172	-7.035000E+00	  0.112585172	4.337300E+01	  0.112585172	7.276200E+01	  0.112585172	5.542900E+01
464	  0.112785570	-7.034000E+00	  0.112785570	4.318400E+01	  0.112785570	7.302900E+01	  0.112785570	5.544500E+01
465	  0.112985976	-7.039000E+00	  0.112985976	4.289900E+01	  0.112985976	7.343500E+01	  0.112985976	5.540700E+01
466	  0.113186374	-7.035000E+00	  0.113186374	4.265800E+01	  0.113186374	7.377700E+01	  0.113186374	5.545000E+01
467	  0.113386773	-7.031000E+00	  0.113386773	4.244600E+01	  0.113386773	7.408000E+01	  0.113386773	5.549600E+01
468	  0.113587178	-7.035000E+00	  0.113587178	4.219700E+01	  0.113587178	7.443800E+01	  0.113587178	5.545900E+01
469	  0.113787577	-7.027000E+00	  0.113787577	4.201200E+01	  0.113787577	7.470600E+01	  0.113787577	5.553400E+01
470	  0.113987975	-7.025000E+00	  0.113987975	4.175900E+01	  0.113987975	7.507300E+01	  0.113987975	5.555300E+01
471	  0.114188381	-7.020000E+00	  0.114188381	4.152000E+01	  0.114188381	7.542200E+01	  0.114188381	5.560000E+01
472	  0.114388779	-7.030000E+00	  0.114388779	4.124100E+01	  0.114388779	7.582900E+01	  0.114388779	5.550300E+01
473	  0.114589177	-7.026000E+00	  0.114589177	4.102200E+01	  0.114589177	7.615300E+01	  0.114589177	5.552700E+01
474	  0.114789583	-7.031000E+00	  0.114789583	4.079500E+01	  0.114789583	7.648700E+01	  0.114789583	5.546800E+01
475	  0.114989981	-7.026000E+00	  0.114989981	4.055900E+01	  0.114989981	7.683900E+01	  0.114989981	5.550400E+01
476	  0.115190387	-7.022000E+00	  0.115190387	4.032900E+01	  0.115190387	7.718500E+01	  0.115190387	5.553700E+01
477	  0.115390785	-7.018000E+00	  0.115390785	4.011900E+01	  0.115390785	7.750100E+01	  0.115390785	5.556100E+01
478	  0.115591183	-7.021000E+00	  0.115591183	3.987300E+01	  0.115591183	7.786900E+01	  0.115591183	5.550600E+01
479	  0.115791589	-7.023000E+00	  0.115791589	3.964300E+01	  0.115791589	7.821700E+01	  0.115791589	5.546900E+01
480	  0.115991987	-7.021000E+00	  0.115991987	3.936600E+01	  0.115991987	7.863800E+01	  0.115991987	5.546400E+01
481	  0.116192386	-7.024000E+00	  0.116192386	3.917600E+01	  0.116192386	7.892600E+01	  0.116192386	5.540700E+01
482	  0.116392791	-7.018000E+00	  0.116392791	3.891600E+01	  0.116392791	7.932800E+01	  0.116392791	5.543800E+01
483	  0.116593190	-7.017000E+00	  0.116593190	3.869400E+01	  0.116593190	7.967100E+01	  0.116593190	5.542300E+01
484	  0.116793588	-7.017000E+00	  0.116793588	3.845400E+01	  0.116793588	8.004100E+01	  0.116793588	5.538700E+01
485	  0.116993994	-7.016000E+00	  0.116993994	3.821900E+01	  0.116993994	8.040700E+01	  0.116993994	5.535800E+01
486	  0.117194392	-7.017000E+00	  0.117194392	3.801500E+01	  0.117194392	8.072400E+01	  0.117194392	5.531400E+01
487	  0.117394790	-7.019000E+00	  0.117394790	3.775300E+01	  0.117394790	8.113000E+01	  0.117394790	5.524900E+01
488	  0.117595196	-7.018000E+00	  0.117595196	3.754100E+01	  0.117595196	8.146400E+01	  0.117595196	5.522300E+01
489	  0.117795594	-7.016000E+00	  0.117795594	3.733100E+01	  0.117795594	8.179800E+01	  0.117795594	5.520600E+01
490	  0.117995992	-7.008000E+00	  0.117995992	3.707300E+01	  0.117995992	8.221500E+01	  0.117995992	5.523000E+01
491	  0.118196398	-7.006000E+00	  0.118196398	3.684500E+01	  0.118196398	8.258000E+01	  0.118196398	5.520000E+01
492	  0.118396796	-7.010000E+00	  0.118396796	3.664700E+01	  0.118396796	8.289000E+01	  0.118396796	5.511400E+01
493	  0.118597202	-7.012000E+00	  0.118597202	3.639400E+01	  0.118597202	8.329000E+01	  0.118597202	5.503600E+01
494	  0.118797600	-7.012000E+00	  0.118797600	3.615600E+01	  0.118797600	8.367200E+01	  0.118797600	5.497300E+01
495	  0.118997999	-7.010000E+00	  0.118997999	3.593300E+01	  0.118997999	8.403400E+01	  0.118997999	5.493600E+01
496	  0.119198404	-7.008000E+00	  0.119198404	3.572800E+01	  0.119198404	8.436800E+01	  0.119198404	5.490000E+01
497	  0.119398803	-7.007000E+00	  0.119398803	3.550700E+01	  0.119398803	8.473000E+01	  0.119398803	5.485500E+01
498	  0.119599201	-7.006000E+00	  0.119599201	3.523600E+01	  0.119599201	8.517200E+01	  0.119599201	5.478500E+01
499	  0.119799607	-7.006000E+00	  0.119799607	3.500300E+01	  0.119799607	8.555100E+01	  0.119799607	5.470600E+01
500	  0.120000005	-7.007000E+00	  0.120000005	3.479800E+01	  0.120000005	8.588400E+01	  0.120000005	5.462700E+01
