! Anritsu VNA Master:             	Model: MS2036C/10/77
! SN:             	1601066
! /bd0/18may26.balun/4b.r50.txt
! Existing Calibration Information:
! TYPE:             	Current Settings	Active Cal Settings
! TIME:             	05/26/2018 04:43:20 PM	05/26/2018 04:28:16 PM
! INTERNAL TEMP:    	55.3 C	56.3 C
! # POINTS:         	500	500
! START FREQ:       	20.000 MHz	20.000 MHz
! STOP FREQ:        	120.000 MHz	120.000 MHz
! SOURCE POWER:     	High	High
! IFBW:             	50 Hz	50 Hz
! AVG FACTOR:       	  1 	  1 
! REF PLANE 1:      	0 mm	0 mm
! REF PLANE 2:      	0 mm	0 mm
! CAL TYPE:         	Full S11	Full S11
! CAL METHOD:       	SOLT	SOLT
! CAL LINE TYPE:    	Coax	Coax
! DUT PORT 1:       	K-Conn(M)	K-Conn(M)
! DUT PORT 2:       	K-Conn(M)	K-Conn(M)
! CAL STATUS:       	OK: Accuracy High	--
! PROP-V:       	0.700
! CABLE LOSS:       	0.000 dB/m
! REF IMPEDANCE:       	50.0
! Trace Specific Parameters:	TR1	TR2	TR3	TR4
! TRACE.#.Y (GRAPH TYPE)	LOG MAG	PHASE	REAL IMPEDANCE	IMAGINARY IMPEDANCE
! TRACE.#.X 	FREQ.GHZ	FREQ.GHZ	FREQ.GHZ	FREQ.GHZ
! S-PARAMETER	S11	S11	S11	S11
! SMOOTH/APERTURE %	0	0	0	0
! WINDOW	NSL	NSL	NSL	NSL
! GATING	OFF	OFF	OFF	OFF
! FGTD	OFF	OFF	OFF	OFF
Marker Information per Trace:	TR1	TR2	TR3	TR4
!MK1	--	--	--	--
!MK2	--	--	--	--
!MK3	--	--	--	--
!MK4	--	--	--	--
!MK5	--	--	--	--
!MK6	--	--	--	--
!MK7	--	--	--	--
!MK8	--	--	--	--
PNT	TR1.FREQ.GHZ	TR1.LOG MAG.dB	TR2.FREQ.GHZ	TR2.PHASE.deg	TR3.FREQ.GHZ	TR3.REAL IMPEDANCE.ohm	TR4.FREQ.GHZ	TR4.IMAGINARY IMPEDANCE.ohm
1	  0.020000000	-3.872800E+01	  0.020000000	4.950900E+01	  0.020000000	5.074900E+01	  0.020000000	8.930000E-01
2	  0.020200402	-3.870000E+01	  0.020200402	4.977900E+01	  0.020200402	5.074700E+01	  0.020200402	9.000000E-01
3	  0.020400802	-3.866000E+01	  0.020400802	5.045100E+01	  0.020400802	5.074000E+01	  0.020400802	9.130000E-01
4	  0.020601204	-3.860500E+01	  0.020601204	4.997600E+01	  0.020601204	5.075200E+01	  0.020601204	9.120000E-01
5	  0.020801604	-3.865700E+01	  0.020801604	5.070400E+01	  0.020801604	5.073600E+01	  0.020801604	9.160000E-01
6	  0.021002004	-3.864400E+01	  0.021002004	5.036900E+01	  0.021002004	5.074200E+01	  0.021002004	9.130000E-01
7	  0.021202406	-3.869100E+01	  0.021202406	5.046800E+01	  0.021202406	5.073700E+01	  0.021202406	9.090000E-01
8	  0.021402806	-3.862800E+01	  0.021402806	5.023700E+01	  0.021402806	5.074600E+01	  0.021402806	9.130000E-01
9	  0.021603208	-3.868800E+01	  0.021603208	4.993000E+01	  0.021603208	5.074600E+01	  0.021603208	9.030000E-01
10	  0.021803608	-3.866100E+01	  0.021803608	4.971400E+01	  0.021803608	5.075100E+01	  0.021803608	9.030000E-01
11	  0.022004008	-3.859700E+01	  0.022004008	5.031100E+01	  0.022004008	5.074700E+01	  0.022004008	9.180000E-01
12	  0.022204408	-3.864400E+01	  0.022204408	4.890000E+01	  0.022204408	5.076600E+01	  0.022204408	8.940000E-01
13	  0.022404809	-3.857700E+01	  0.022404809	4.849500E+01	  0.022404809	5.077800E+01	  0.022404809	8.960000E-01
14	  0.022605211	-3.851200E+01	  0.022605211	4.751600E+01	  0.022605211	5.080000E+01	  0.022605211	8.890000E-01
15	  0.022805611	-3.844300E+01	  0.022805611	4.705200E+01	  0.022805611	5.081300E+01	  0.022805611	8.900000E-01
16	  0.023006011	-3.832300E+01	  0.023006011	4.684200E+01	  0.023006011	5.082800E+01	  0.023006011	8.990000E-01
17	  0.023206413	-3.826800E+01	  0.023206413	4.673600E+01	  0.023206413	5.083500E+01	  0.023206413	9.030000E-01
18	  0.023406813	-3.821500E+01	  0.023406813	4.672100E+01	  0.023406813	5.084000E+01	  0.023406813	9.090000E-01
19	  0.023607215	-3.808800E+01	  0.023607215	4.712700E+01	  0.023607215	5.084600E+01	  0.023607215	9.280000E-01
20	  0.023807615	-3.802500E+01	  0.023807615	4.664200E+01	  0.023807615	5.086000E+01	  0.023807615	9.280000E-01
21	  0.024008015	-3.802400E+01	  0.024008015	4.699800E+01	  0.024008015	5.085400E+01	  0.024008015	9.340000E-01
22	  0.024208417	-3.784400E+01	  0.024208417	4.681000E+01	  0.024208417	5.087600E+01	  0.024208417	9.510000E-01
23	  0.024408817	-3.779000E+01	  0.024408817	4.723900E+01	  0.024408817	5.087400E+01	  0.024408817	9.630000E-01
24	  0.024609219	-3.774600E+01	  0.024609219	4.682400E+01	  0.024609219	5.088500E+01	  0.024609219	9.620000E-01
25	  0.024809619	-3.779600E+01	  0.024809619	4.726900E+01	  0.024809619	5.087300E+01	  0.024809619	9.630000E-01
26	  0.025010020	-3.772600E+01	  0.025010020	4.679500E+01	  0.025010020	5.088800E+01	  0.025010020	9.640000E-01
27	  0.025210422	-3.775800E+01	  0.025210422	4.643300E+01	  0.025210422	5.089100E+01	  0.025210422	9.540000E-01
28	  0.025410822	-3.771100E+01	  0.025410822	4.660400E+01	  0.025410822	5.089300E+01	  0.025410822	9.620000E-01
29	  0.025611224	-3.767300E+01	  0.025611224	4.665200E+01	  0.025611224	5.089600E+01	  0.025611224	9.670000E-01
30	  0.025811624	-3.771200E+01	  0.025811624	4.626400E+01	  0.025811624	5.089800E+01	  0.025811624	9.570000E-01
31	  0.026012026	-3.758300E+01	  0.026012026	4.617600E+01	  0.026012026	5.091300E+01	  0.026012026	9.700000E-01
32	  0.026212426	-3.756400E+01	  0.026212426	4.523600E+01	  0.026212426	5.093100E+01	  0.026212426	9.570000E-01
33	  0.026412826	-3.756400E+01	  0.026412826	4.487500E+01	  0.026412826	5.093700E+01	  0.026412826	9.510000E-01
34	  0.026613226	-3.747100E+01	  0.026613226	4.374900E+01	  0.026613226	5.096700E+01	  0.026613226	9.430000E-01
35	  0.026813626	-3.736900E+01	  0.026813626	4.353400E+01	  0.026813626	5.098200E+01	  0.026813626	9.500000E-01
36	  0.027014028	-3.735700E+01	  0.027014028	4.305200E+01	  0.027014028	5.099100E+01	  0.027014028	9.430000E-01
37	  0.027214428	-3.721400E+01	  0.027214428	4.244100E+01	  0.027214428	5.101800E+01	  0.027214428	9.490000E-01
38	  0.027414829	-3.712200E+01	  0.027414829	4.177600E+01	  0.027414829	5.104000E+01	  0.027414829	9.470000E-01
39	  0.027615231	-3.703700E+01	  0.027615231	4.170200E+01	  0.027615231	5.105200E+01	  0.027615231	9.550000E-01
40	  0.027815631	-3.687900E+01	  0.027815631	4.163100E+01	  0.027815631	5.107200E+01	  0.027815631	9.720000E-01
41	  0.028016033	-3.671800E+01	  0.028016033	4.130800E+01	  0.028016033	5.109800E+01	  0.028016033	9.840000E-01
42	  0.028216433	-3.653200E+01	  0.028216433	4.134500E+01	  0.028216433	5.112100E+01	  0.028216433	1.007000E+00
43	  0.028416833	-3.640900E+01	  0.028416833	4.213500E+01	  0.028416833	5.112300E+01	  0.028416833	1.037000E+00
44	  0.028617235	-3.626500E+01	  0.028617235	4.206000E+01	  0.028617235	5.114300E+01	  0.028617235	1.053000E+00
45	  0.028817635	-3.608000E+01	  0.028817635	4.222900E+01	  0.028817635	5.116400E+01	  0.028817635	1.080000E+00
46	  0.029018037	-3.608300E+01	  0.029018037	4.293400E+01	  0.029018037	5.115000E+01	  0.029018037	1.094000E+00
47	  0.029218437	-3.604000E+01	  0.029218437	4.341600E+01	  0.029218437	5.114700E+01	  0.029218437	1.109000E+00
48	  0.029418837	-3.593600E+01	  0.029418837	4.432200E+01	  0.029418837	5.114200E+01	  0.029418837	1.141000E+00
49	  0.029619239	-3.586000E+01	  0.029619239	4.455600E+01	  0.029619239	5.114700E+01	  0.029619239	1.156000E+00
50	  0.029819639	-3.582600E+01	  0.029819639	4.518200E+01	  0.029819639	5.113900E+01	  0.029819639	1.173000E+00
51	  0.030020041	-3.583200E+01	  0.030020041	4.556700E+01	  0.030020041	5.113000E+01	  0.030020041	1.180000E+00
52	  0.030220442	-3.579000E+01	  0.030220442	4.604000E+01	  0.030220442	5.112500E+01	  0.030220442	1.195000E+00
53	  0.030420844	-3.582500E+01	  0.030420844	4.675600E+01	  0.030420844	5.110500E+01	  0.030420844	1.204000E+00
54	  0.030621244	-3.585800E+01	  0.030621244	4.672400E+01	  0.030621244	5.110200E+01	  0.030621244	1.199000E+00
55	  0.030821644	-3.590000E+01	  0.030821644	4.649500E+01	  0.030821644	5.110200E+01	  0.030821644	1.188000E+00
56	  0.031022044	-3.593800E+01	  0.031022044	4.719400E+01	  0.031022044	5.108200E+01	  0.031022044	1.196000E+00
57	  0.031222444	-3.598500E+01	  0.031222444	4.695800E+01	  0.031222444	5.108100E+01	  0.031222444	1.185000E+00
58	  0.031422846	-3.604400E+01	  0.031422846	4.638200E+01	  0.031422846	5.108600E+01	  0.031422846	1.166000E+00
59	  0.031623244	-3.600200E+01	  0.031623244	4.592900E+01	  0.031623244	5.110000E+01	  0.031623244	1.163000E+00
60	  0.031823646	-3.601000E+01	  0.031823646	4.605300E+01	  0.031823646	5.109700E+01	  0.031823646	1.164000E+00
61	  0.032024048	-3.615200E+01	  0.032024048	4.536900E+01	  0.032024048	5.109300E+01	  0.032024048	1.132000E+00
62	  0.032224450	-3.608700E+01	  0.032224450	4.469000E+01	  0.032224450	5.111500E+01	  0.032224450	1.128000E+00
63	  0.032424849	-3.603100E+01	  0.032424849	4.429500E+01	  0.032424849	5.113000E+01	  0.032424849	1.128000E+00
64	  0.032625251	-3.602400E+01	  0.032625251	4.333500E+01	  0.032625251	5.115000E+01	  0.032625251	1.109000E+00
65	  0.032825653	-3.586900E+01	  0.032825653	4.277400E+01	  0.032825653	5.118200E+01	  0.032825653	1.118000E+00
66	  0.033026051	-3.581600E+01	  0.033026051	4.271800E+01	  0.033026051	5.119100E+01	  0.033026051	1.124000E+00
67	  0.033226453	-3.571700E+01	  0.033226453	4.239700E+01	  0.033226453	5.121100E+01	  0.033226453	1.130000E+00
68	  0.033426855	-3.555500E+01	  0.033426855	4.196200E+01	  0.033426855	5.124300E+01	  0.033426855	1.143000E+00
69	  0.033627257	-3.552500E+01	  0.033627257	4.172200E+01	  0.033627257	5.125200E+01	  0.033627257	1.142000E+00
70	  0.033827655	-3.527600E+01	  0.033827655	4.173900E+01	  0.033827655	5.128800E+01	  0.033827655	1.176000E+00
71	  0.034028057	-3.521900E+01	  0.034028057	4.147100E+01	  0.034028057	5.130200E+01	  0.034028057	1.178000E+00
72	  0.034228459	-3.516900E+01	  0.034228459	4.174700E+01	  0.034228459	5.130400E+01	  0.034228459	1.191000E+00
73	  0.034428857	-3.502400E+01	  0.034428857	4.215300E+01	  0.034428857	5.131700E+01	  0.034428857	1.221000E+00
74	  0.034629259	-3.498800E+01	  0.034629259	4.225100E+01	  0.034629259	5.132000E+01	  0.034629259	1.229000E+00
75	  0.034829661	-3.496600E+01	  0.034829661	4.267600E+01	  0.034829661	5.131400E+01	  0.034829661	1.242000E+00
76	  0.035030060	-3.482700E+01	  0.035030060	4.358100E+01	  0.035030060	5.131500E+01	  0.035030060	1.283000E+00
77	  0.035230462	-3.484500E+01	  0.035230462	4.388800E+01	  0.035230462	5.130500E+01	  0.035230462	1.288000E+00
78	  0.035430863	-3.485000E+01	  0.035430863	4.473100E+01	  0.035430863	5.128500E+01	  0.035430863	1.306000E+00
79	  0.035631265	-3.486500E+01	  0.035631265	4.502800E+01	  0.035631265	5.127500E+01	  0.035631265	1.310000E+00
80	  0.035831664	-3.487300E+01	  0.035831664	4.548600E+01	  0.035831664	5.126400E+01	  0.035831664	1.319000E+00
81	  0.036032066	-3.500100E+01	  0.036032066	4.516500E+01	  0.036032066	5.125200E+01	  0.036032066	1.292000E+00
82	  0.036232468	-3.501200E+01	  0.036232468	4.555800E+01	  0.036232468	5.124200E+01	  0.036232468	1.299000E+00
83	  0.036432866	-3.501000E+01	  0.036432866	4.536700E+01	  0.036432866	5.124600E+01	  0.036432866	1.295000E+00
84	  0.036633268	-3.515100E+01	  0.036633268	4.475400E+01	  0.036633268	5.124000E+01	  0.036633268	1.261000E+00
85	  0.036833670	-3.514200E+01	  0.036833670	4.459400E+01	  0.036833670	5.124500E+01	  0.036833670	1.259000E+00
86	  0.037034072	-3.516400E+01	  0.037034072	4.461400E+01	  0.037034072	5.124200E+01	  0.037034072	1.256000E+00
87	  0.037234470	-3.523300E+01	  0.037234470	4.360800E+01	  0.037234470	5.125400E+01	  0.037234470	1.224000E+00
88	  0.037434869	-3.521000E+01	  0.037434869	4.292700E+01	  0.037434869	5.127200E+01	  0.037434869	1.212000E+00
89	  0.037635271	-3.520900E+01	  0.037635271	4.262600E+01	  0.037635271	5.127900E+01	  0.037635271	1.205000E+00
90	  0.037835669	-3.514500E+01	  0.037835669	4.141500E+01	  0.037835669	5.131400E+01	  0.037835669	1.187000E+00
91	  0.038036071	-3.514800E+01	  0.038036071	4.134900E+01	  0.038036071	5.131500E+01	  0.038036071	1.185000E+00
92	  0.038236473	-3.505500E+01	  0.038236473	4.081400E+01	  0.038236473	5.134100E+01	  0.038236473	1.186000E+00
93	  0.038436871	-3.489500E+01	  0.038436871	4.008800E+01	  0.038436871	5.138200E+01	  0.038436871	1.191000E+00
94	  0.038637273	-3.488600E+01	  0.038637273	3.936400E+01	  0.038637273	5.139800E+01	  0.038637273	1.175000E+00
95	  0.038837675	-3.471500E+01	  0.038837675	3.871200E+01	  0.038837675	5.144000E+01	  0.038837675	1.182000E+00
96	  0.039038073	-3.461700E+01	  0.039038073	3.875700E+01	  0.039038073	5.145600E+01	  0.039038073	1.197000E+00
97	  0.039238475	-3.450200E+01	  0.039238475	3.913700E+01	  0.039238475	5.146700E+01	  0.039238475	1.223000E+00
98	  0.039438877	-3.431600E+01	  0.039438877	3.883600E+01	  0.039438877	5.150600E+01	  0.039438877	1.243000E+00
99	  0.039639279	-3.417800E+01	  0.039639279	3.921200E+01	  0.039639279	5.152100E+01	  0.039639279	1.273000E+00
100	  0.039839678	-3.412100E+01	  0.039839678	3.926800E+01	  0.039839678	5.153000E+01	  0.039839678	1.284000E+00
101	  0.040040080	-3.399300E+01	  0.040040080	3.979600E+01	  0.040040080	5.154000E+01	  0.040040080	1.317000E+00
102	  0.040240481	-3.398500E+01	  0.040240481	4.049000E+01	  0.040240481	5.152500E+01	  0.040240481	1.337000E+00
103	  0.040440880	-3.388800E+01	  0.040440880	4.029000E+01	  0.040440880	5.154700E+01	  0.040440880	1.347000E+00
104	  0.040641282	-3.389900E+01	  0.040641282	4.170700E+01	  0.040641282	5.151100E+01	  0.040641282	1.384000E+00
105	  0.040841684	-3.383500E+01	  0.040841684	4.231200E+01	  0.040841684	5.150700E+01	  0.040841684	1.410000E+00
106	  0.041042086	-3.390800E+01	  0.041042086	4.253900E+01	  0.041042086	5.148800E+01	  0.041042086	1.404000E+00
107	  0.041242484	-3.395900E+01	  0.041242484	4.280300E+01	  0.041242484	5.147300E+01	  0.041242484	1.402000E+00
108	  0.041442886	-3.393200E+01	  0.041442886	4.314400E+01	  0.041442886	5.146900E+01	  0.041442886	1.416000E+00
109	  0.041643288	-3.406100E+01	  0.041643288	4.331800E+01	  0.041643288	5.144300E+01	  0.041643288	1.399000E+00
110	  0.041843686	-3.398100E+01	  0.041843686	4.302300E+01	  0.041843686	5.146400E+01	  0.041843686	1.404000E+00
111	  0.042044088	-3.414400E+01	  0.042044088	4.287900E+01	  0.042044088	5.144000E+01	  0.042044088	1.374000E+00
112	  0.042244490	-3.414300E+01	  0.042244490	4.273200E+01	  0.042244490	5.144400E+01	  0.042244490	1.370000E+00
113	  0.042444889	-3.411300E+01	  0.042444889	4.248500E+01	  0.042444889	5.145500E+01	  0.042444889	1.369000E+00
114	  0.042645290	-3.413900E+01	  0.042645290	4.215100E+01	  0.042645290	5.145900E+01	  0.042645290	1.356000E+00
115	  0.042845692	-3.420800E+01	  0.042845692	4.183600E+01	  0.042845692	5.145500E+01	  0.042845692	1.337000E+00
116	  0.043046094	-3.425700E+01	  0.043046094	4.145000E+01	  0.043046094	5.145600E+01	  0.043046094	1.320000E+00
117	  0.043246493	-3.423600E+01	  0.043246493	4.123100E+01	  0.043246493	5.146400E+01	  0.043246493	1.317000E+00
118	  0.043446895	-3.421900E+01	  0.043446895	4.031900E+01	  0.043446895	5.148900E+01	  0.043446895	1.296000E+00
119	  0.043647297	-3.416100E+01	  0.043647297	3.977300E+01	  0.043647297	5.151100E+01	  0.043647297	1.291000E+00
120	  0.043847695	-3.406500E+01	  0.043847695	3.971200E+01	  0.043847695	5.153000E+01	  0.043847695	1.304000E+00
121	  0.044048097	-3.395000E+01	  0.044048097	3.907100E+01	  0.044048097	5.156500E+01	  0.044048097	1.304000E+00
122	  0.044248499	-3.387600E+01	  0.044248499	3.931000E+01	  0.044248499	5.157300E+01	  0.044248499	1.322000E+00
123	  0.044448901	-3.381600E+01	  0.044448901	3.869500E+01	  0.044448901	5.159900E+01	  0.044448901	1.315000E+00
124	  0.044649299	-3.376400E+01	  0.044649299	3.858400E+01	  0.044649299	5.161100E+01	  0.044649299	1.320000E+00
125	  0.044849701	-3.371900E+01	  0.044849701	3.829700E+01	  0.044849701	5.162600E+01	  0.044849701	1.319000E+00
126	  0.045050103	-3.363500E+01	  0.045050103	3.855200E+01	  0.045050103	5.163600E+01	  0.045050103	1.339000E+00
127	  0.045250501	-3.359000E+01	  0.045250501	3.848300E+01	  0.045250501	5.164600E+01	  0.045250501	1.344000E+00
128	  0.045450903	-3.349900E+01	  0.045450903	3.890700E+01	  0.045450903	5.165300E+01	  0.045450903	1.372000E+00
129	  0.045651305	-3.347700E+01	  0.045651305	3.936000E+01	  0.045651305	5.164600E+01	  0.045651305	1.388000E+00
130	  0.045851704	-3.348400E+01	  0.045851704	3.962200E+01	  0.045851704	5.163800E+01	  0.045851704	1.395000E+00
131	  0.046052106	-3.343500E+01	  0.046052106	3.985600E+01	  0.046052106	5.164200E+01	  0.046052106	1.410000E+00
132	  0.046252504	-3.344500E+01	  0.046252504	4.048000E+01	  0.046252504	5.162400E+01	  0.046252504	1.426000E+00
133	  0.046452906	-3.344900E+01	  0.046452906	4.048500E+01	  0.046452906	5.162300E+01	  0.046452906	1.425000E+00
134	  0.046653304	-3.346000E+01	  0.046653304	4.071900E+01	  0.046653304	5.161500E+01	  0.046653304	1.430000E+00
135	  0.046853706	-3.345700E+01	  0.046853706	4.118100E+01	  0.046853706	5.160300E+01	  0.046853706	1.443000E+00
136	  0.047054108	-3.353100E+01	  0.047054108	4.078200E+01	  0.047054108	5.160000E+01	  0.047054108	1.420000E+00
137	  0.047254506	-3.356400E+01	  0.047254506	4.067900E+01	  0.047254506	5.159600E+01	  0.047254506	1.411000E+00
138	  0.047454908	-3.356700E+01	  0.047454908	4.009600E+01	  0.047454908	5.161100E+01	  0.047454908	1.394000E+00
139	  0.047655310	-3.368300E+01	  0.047655310	4.014300E+01	  0.047655310	5.158800E+01	  0.047655310	1.377000E+00
140	  0.047855709	-3.365500E+01	  0.047855709	4.042400E+01	  0.047855709	5.158600E+01	  0.047855709	1.389000E+00
141	  0.048056111	-3.368600E+01	  0.048056111	3.990200E+01	  0.048056111	5.159300E+01	  0.048056111	1.369000E+00
142	  0.048256513	-3.369900E+01	  0.048256513	3.918000E+01	  0.048256513	5.160900E+01	  0.048256513	1.347000E+00
143	  0.048456915	-3.372000E+01	  0.048456915	3.864800E+01	  0.048456915	5.161800E+01	  0.048456915	1.329000E+00
144	  0.048657313	-3.367700E+01	  0.048657313	3.809400E+01	  0.048657313	5.163900E+01	  0.048657313	1.320000E+00
145	  0.048857715	-3.362400E+01	  0.048857715	3.757900E+01	  0.048857715	5.166100E+01	  0.048857715	1.313000E+00
146	  0.049058117	-3.364700E+01	  0.049058117	3.755400E+01	  0.049058117	5.165800E+01	  0.049058117	1.309000E+00
147	  0.049258515	-3.355700E+01	  0.049258515	3.686500E+01	  0.049258515	5.169100E+01	  0.049258515	1.302000E+00
148	  0.049458917	-3.348200E+01	  0.049458917	3.642100E+01	  0.049458917	5.171700E+01	  0.049458917	1.301000E+00
149	  0.049659319	-3.343700E+01	  0.049659319	3.643500E+01	  0.049659319	5.172500E+01	  0.049659319	1.308000E+00
150	  0.049859721	-3.343300E+01	  0.049859721	3.623900E+01	  0.049859721	5.173100E+01	  0.049859721	1.303000E+00
151	  0.050060119	-3.337500E+01	  0.050060119	3.588300E+01	  0.050060119	5.175100E+01	  0.050060119	1.301000E+00
152	  0.050260521	-3.327500E+01	  0.050260521	3.634100E+01	  0.050260521	5.176000E+01	  0.050260521	1.331000E+00
153	  0.050460923	-3.321300E+01	  0.050460923	3.597900E+01	  0.050460923	5.178200E+01	  0.050460923	1.329000E+00
154	  0.050661322	-3.319000E+01	  0.050661322	3.599200E+01	  0.050661322	5.178600E+01	  0.050661322	1.333000E+00
155	  0.050861724	-3.318400E+01	  0.050861724	3.652600E+01	  0.050861724	5.177400E+01	  0.050861724	1.351000E+00
156	  0.051062126	-3.313900E+01	  0.051062126	3.655800E+01	  0.051062126	5.178300E+01	  0.051062126	1.359000E+00
157	  0.051262524	-3.308900E+01	  0.051262524	3.652200E+01	  0.051262524	5.179400E+01	  0.051262524	1.366000E+00
158	  0.051462926	-3.312800E+01	  0.051462926	3.680800E+01	  0.051462926	5.177900E+01	  0.051462926	1.369000E+00
159	  0.051663328	-3.310200E+01	  0.051663328	3.675700E+01	  0.051663328	5.178600E+01	  0.051663328	1.372000E+00
160	  0.051863730	-3.323200E+01	  0.051863730	3.716100E+01	  0.051863730	5.174900E+01	  0.051863730	1.363000E+00
161	  0.052064128	-3.310800E+01	  0.052064128	3.699800E+01	  0.052064128	5.177800E+01	  0.052064128	1.378000E+00
162	  0.052264530	-3.318700E+01	  0.052264530	3.690500E+01	  0.052264530	5.176400E+01	  0.052264530	1.362000E+00
163	  0.052464932	-3.318600E+01	  0.052464932	3.663600E+01	  0.052464932	5.177100E+01	  0.052464932	1.354000E+00
164	  0.052665330	-3.322100E+01	  0.052665330	3.621100E+01	  0.052665330	5.177400E+01	  0.052665330	1.335000E+00
165	  0.052865732	-3.331200E+01	  0.052865732	3.677000E+01	  0.052865732	5.174200E+01	  0.052865732	1.338000E+00
166	  0.053066134	-3.330600E+01	  0.053066134	3.591200E+01	  0.053066134	5.176400E+01	  0.053066134	1.312000E+00
167	  0.053266536	-3.329200E+01	  0.053266536	3.557700E+01	  0.053266536	5.177500E+01	  0.053266536	1.304000E+00
168	  0.053466935	-3.325800E+01	  0.053466935	3.520600E+01	  0.053466935	5.179100E+01	  0.053466935	1.298000E+00
169	  0.053667337	-3.331400E+01	  0.053667337	3.463400E+01	  0.053667337	5.179200E+01	  0.053667337	1.271000E+00
170	  0.053867739	-3.322500E+01	  0.053867739	3.418200E+01	  0.053867739	5.182100E+01	  0.053867739	1.270000E+00
171	  0.054068137	-3.322800E+01	  0.054068137	3.350900E+01	  0.054068137	5.183600E+01	  0.054068137	1.248000E+00
172	  0.054268539	-3.318900E+01	  0.054268539	3.313400E+01	  0.054268539	5.185300E+01	  0.054268539	1.242000E+00
173	  0.054468941	-3.311000E+01	  0.054468941	3.264800E+01	  0.054468941	5.188100E+01	  0.054468941	1.237000E+00
174	  0.054669339	-3.310500E+01	  0.054669339	3.218200E+01	  0.054669339	5.189200E+01	  0.054669339	1.223000E+00
175	  0.054869737	-3.304000E+01	  0.054869737	3.238500E+01	  0.054869737	5.190200E+01	  0.054869737	1.239000E+00
176	  0.055070139	-3.291500E+01	  0.055070139	3.162600E+01	  0.055070139	5.194700E+01	  0.055070139	1.232000E+00
177	  0.055270538	-3.284200E+01	  0.055270538	3.141200E+01	  0.055270538	5.196900E+01	  0.055270538	1.235000E+00
178	  0.055470940	-3.281300E+01	  0.055470940	3.156400E+01	  0.055470940	5.197200E+01	  0.055470940	1.245000E+00
179	  0.055671342	-3.276300E+01	  0.055671342	3.157900E+01	  0.055671342	5.198300E+01	  0.055671342	1.253000E+00
180	  0.055871744	-3.265700E+01	  0.055871744	3.132400E+01	  0.055871744	5.201400E+01	  0.055871744	1.260000E+00
181	  0.056072142	-3.262300E+01	  0.056072142	3.136600E+01	  0.056072142	5.202100E+01	  0.056072142	1.266000E+00
182	  0.056272544	-3.261600E+01	  0.056272544	3.152700E+01	  0.056272544	5.201900E+01	  0.056272544	1.273000E+00
183	  0.056472946	-3.255700E+01	  0.056472946	3.183700E+01	  0.056472946	5.202500E+01	  0.056472946	1.293000E+00
184	  0.056673344	-3.252700E+01	  0.056673344	3.102400E+01	  0.056673344	5.205100E+01	  0.056673344	1.269000E+00
185	  0.056873746	-3.246500E+01	  0.056873746	3.177900E+01	  0.056873746	5.204900E+01	  0.056873746	1.306000E+00
186	  0.057074148	-3.248600E+01	  0.057074148	3.154100E+01	  0.057074148	5.204900E+01	  0.057074148	1.294000E+00
187	  0.057274550	-3.245800E+01	  0.057274550	3.200200E+01	  0.057274550	5.204500E+01	  0.057274550	1.315000E+00
188	  0.057474948	-3.255100E+01	  0.057474948	3.186500E+01	  0.057474948	5.202600E+01	  0.057474948	1.295000E+00
189	  0.057675350	-3.252700E+01	  0.057675350	3.190000E+01	  0.057675350	5.203100E+01	  0.057675350	1.300000E+00
190	  0.057875752	-3.260700E+01	  0.057875752	3.169500E+01	  0.057875752	5.201700E+01	  0.057875752	1.280000E+00
191	  0.058076151	-3.254500E+01	  0.058076151	3.137400E+01	  0.058076151	5.203900E+01	  0.058076151	1.278000E+00
192	  0.058276553	-3.255400E+01	  0.058276553	3.099100E+01	  0.058276553	5.204600E+01	  0.058276553	1.263000E+00
193	  0.058476955	-3.259700E+01	  0.058476955	3.071600E+01	  0.058476955	5.204200E+01	  0.058476955	1.247000E+00
194	  0.058677353	-3.252700E+01	  0.058677353	3.054200E+01	  0.058677353	5.206200E+01	  0.058677353	1.251000E+00
195	  0.058877755	-3.251200E+01	  0.058877755	3.007000E+01	  0.058877755	5.207700E+01	  0.058877755	1.236000E+00
196	  0.059078157	-3.252700E+01	  0.059078157	2.954900E+01	  0.059078157	5.208500E+01	  0.059078157	1.215000E+00
197	  0.059278559	-3.247500E+01	  0.059278559	2.958700E+01	  0.059278559	5.209700E+01	  0.059278559	1.224000E+00
198	  0.059478957	-3.238600E+01	  0.059478957	2.865900E+01	  0.059478957	5.213900E+01	  0.059478957	1.202000E+00
199	  0.059679359	-3.235600E+01	  0.059679359	2.885500E+01	  0.059679359	5.214200E+01	  0.059679359	1.214000E+00
200	  0.059879761	-3.228100E+01	  0.059879761	2.811900E+01	  0.059879761	5.217700E+01	  0.059879761	1.196000E+00
201	  0.060080159	-3.216400E+01	  0.060080159	2.849600E+01	  0.060080159	5.219900E+01	  0.060080159	1.228000E+00
202	  0.060280561	-3.210900E+01	  0.060280561	2.814100E+01	  0.060280561	5.222100E+01	  0.060280561	1.222000E+00
203	  0.060480963	-3.199000E+01	  0.060480963	2.762100E+01	  0.060480963	5.226400E+01	  0.060480963	1.219000E+00
204	  0.060681365	-3.194100E+01	  0.060681365	2.793500E+01	  0.060681365	5.227000E+01	  0.060681365	1.239000E+00
205	  0.060881764	-3.192000E+01	  0.060881764	2.777000E+01	  0.060881764	5.227900E+01	  0.060881764	1.235000E+00
206	  0.061082166	-3.178600E+01	  0.061082166	2.834700E+01	  0.061082166	5.230200E+01	  0.061082166	1.279000E+00
207	  0.061282568	-3.173500E+01	  0.061282568	2.835200E+01	  0.061282568	5.231500E+01	  0.061282568	1.287000E+00
208	  0.061482966	-3.170100E+01	  0.061482966	2.870900E+01	  0.061482966	5.231600E+01	  0.061482966	1.307000E+00
209	  0.061683368	-3.167000E+01	  0.061683368	2.857400E+01	  0.061683368	5.232800E+01	  0.061683368	1.306000E+00
210	  0.061883770	-3.164900E+01	  0.061883770	2.890400E+01	  0.061883770	5.232600E+01	  0.061883770	1.323000E+00
211	  0.062084168	-3.163900E+01	  0.062084168	2.941500E+01	  0.062084168	5.231600E+01	  0.062084168	1.346000E+00
212	  0.062284570	-3.156000E+01	  0.062284570	2.979600E+01	  0.062284570	5.232800E+01	  0.062284570	1.375000E+00
213	  0.062484972	-3.157600E+01	  0.062484972	3.036700E+01	  0.062484972	5.230900E+01	  0.062484972	1.395000E+00
214	  0.062685370	-3.157300E+01	  0.062685370	3.018100E+01	  0.062685370	5.231400E+01	  0.062685370	1.388000E+00
215	  0.062885776	-3.160100E+01	  0.062885776	3.070900E+01	  0.062885776	5.229300E+01	  0.062885776	1.405000E+00
216	  0.063086174	-3.166700E+01	  0.063086174	3.048300E+01	  0.063086174	5.228200E+01	  0.063086174	1.385000E+00
217	  0.063286573	-3.169700E+01	  0.063286573	3.087700E+01	  0.063286573	5.226400E+01	  0.063286573	1.396000E+00
218	  0.063486971	-3.179200E+01	  0.063486971	3.113300E+01	  0.063486971	5.223200E+01	  0.063486971	1.390000E+00
219	  0.063687377	-3.171300E+01	  0.063687377	3.087200E+01	  0.063687377	5.225900E+01	  0.063687377	1.393000E+00
220	  0.063887775	-3.185300E+01	  0.063887775	3.087200E+01	  0.063887775	5.222300E+01	  0.063887775	1.370000E+00
221	  0.064088173	-3.178700E+01	  0.064088173	3.026800E+01	  0.064088173	5.225500E+01	  0.064088173	1.356000E+00
222	  0.064288579	-3.187400E+01	  0.064288579	2.999800E+01	  0.064288579	5.223900E+01	  0.064288579	1.332000E+00
223	  0.064488977	-3.184300E+01	  0.064488977	3.006000E+01	  0.064488977	5.224500E+01	  0.064488977	1.339000E+00
224	  0.064689375	-3.188900E+01	  0.064689375	2.987700E+01	  0.064689375	5.223800E+01	  0.064689375	1.324000E+00
225	  0.064889781	-3.190700E+01	  0.064889781	2.994600E+01	  0.064889781	5.223200E+01	  0.064889781	1.324000E+00
226	  0.065090179	-3.194700E+01	  0.065090179	2.914100E+01	  0.065090179	5.224000E+01	  0.065090179	1.286000E+00
227	  0.065290578	-3.192500E+01	  0.065290578	2.934900E+01	  0.065290578	5.224100E+01	  0.065290578	1.298000E+00
228	  0.065490983	-3.187600E+01	  0.065490983	2.896400E+01	  0.065490983	5.226300E+01	  0.065490983	1.290000E+00
229	  0.065691382	-3.193300E+01	  0.065691382	2.857700E+01	  0.065691382	5.225700E+01	  0.065691382	1.266000E+00
230	  0.065891780	-3.185700E+01	  0.065891780	2.847700E+01	  0.065891780	5.228000E+01	  0.065891780	1.273000E+00
231	  0.066092186	-3.186400E+01	  0.066092186	2.793100E+01	  0.066092186	5.229000E+01	  0.066092186	1.250000E+00
232	  0.066292584	-3.189900E+01	  0.066292584	2.804700E+01	  0.066292584	5.227800E+01	  0.066292584	1.250000E+00
233	  0.066492982	-3.188700E+01	  0.066492982	2.766800E+01	  0.066492982	5.229000E+01	  0.066492982	1.236000E+00
234	  0.066693388	-3.181700E+01	  0.066693388	2.698800E+01	  0.066693388	5.232400E+01	  0.066693388	1.219000E+00
235	  0.066893786	-3.174400E+01	  0.066893786	2.723300E+01	  0.066893786	5.233900E+01	  0.066893786	1.240000E+00
236	  0.067094192	-3.175900E+01	  0.067094192	2.684000E+01	  0.067094192	5.234300E+01	  0.067094192	1.221000E+00
237	  0.067294590	-3.164900E+01	  0.067294590	2.679900E+01	  0.067294590	5.237500E+01	  0.067294590	1.235000E+00
238	  0.067494988	-3.169300E+01	  0.067494988	2.668600E+01	  0.067494988	5.236500E+01	  0.067494988	1.224000E+00
239	  0.067695394	-3.171200E+01	  0.067695394	2.662900E+01	  0.067695394	5.236100E+01	  0.067695394	1.219000E+00
240	  0.067895792	-3.166800E+01	  0.067895792	2.642200E+01	  0.067895792	5.237800E+01	  0.067895792	1.217000E+00
241	  0.068096191	-3.157000E+01	  0.068096191	2.619000E+01	  0.068096191	5.241100E+01	  0.068096191	1.221000E+00
242	  0.068296596	-3.160500E+01	  0.068296596	2.620200E+01	  0.068296596	5.240100E+01	  0.068296596	1.217000E+00
243	  0.068496995	-3.161900E+01	  0.068496995	2.613200E+01	  0.068496995	5.239800E+01	  0.068496995	1.212000E+00
244	  0.068697393	-3.155200E+01	  0.068697393	2.577900E+01	  0.068697393	5.242500E+01	  0.068697393	1.206000E+00
245	  0.068897791	-3.165400E+01	  0.068897791	2.590500E+01	  0.068897791	5.239300E+01	  0.068897791	1.197000E+00
246	  0.069098189	-3.155100E+01	  0.069098189	2.568800E+01	  0.069098189	5.242700E+01	  0.069098189	1.203000E+00
247	  0.069298595	-3.154800E+01	  0.069298595	2.602100E+01	  0.069298595	5.242100E+01	  0.069298595	1.217000E+00
248	  0.069498993	-3.156700E+01	  0.069498993	2.540500E+01	  0.069498993	5.242900E+01	  0.069498993	1.188000E+00
249	  0.069699399	-3.160300E+01	  0.069699399	2.554000E+01	  0.069699399	5.241600E+01	  0.069699399	1.189000E+00
250	  0.069899797	-3.156000E+01	  0.069899797	2.489800E+01	  0.069899797	5.244200E+01	  0.069899797	1.167000E+00
251	  0.070100196	-3.149200E+01	  0.070100196	2.562900E+01	  0.070100196	5.244500E+01	  0.070100196	1.209000E+00
252	  0.070300601	-3.154300E+01	  0.070300601	2.468100E+01	  0.070300601	5.245100E+01	  0.070300601	1.160000E+00
253	  0.070501000	-3.138900E+01	  0.070501000	2.519700E+01	  0.070501000	5.248500E+01	  0.070501000	1.205000E+00
254	  0.070701398	-3.144300E+01	  0.070701398	2.496400E+01	  0.070701398	5.247400E+01	  0.070701398	1.187000E+00
255	  0.070901804	-3.145300E+01	  0.070901804	2.466400E+01	  0.070901804	5.247800E+01	  0.070901804	1.172000E+00
256	  0.071102202	-3.141700E+01	  0.071102202	2.482300E+01	  0.071102202	5.248500E+01	  0.071102202	1.184000E+00
257	  0.071302600	-3.137200E+01	  0.071302600	2.493800E+01	  0.071302600	5.249500E+01	  0.071302600	1.196000E+00
258	  0.071503006	-3.144500E+01	  0.071503006	2.472400E+01	  0.071503006	5.247900E+01	  0.071503006	1.176000E+00
259	  0.071703404	-3.142500E+01	  0.071703404	2.425400E+01	  0.071703404	5.249500E+01	  0.071703404	1.158000E+00
260	  0.071903802	-3.140700E+01	  0.071903802	2.460900E+01	  0.071903802	5.249200E+01	  0.071903802	1.176000E+00
261	  0.072104208	-3.145700E+01	  0.072104208	2.400200E+01	  0.072104208	5.249000E+01	  0.072104208	1.142000E+00
262	  0.072304606	-3.146900E+01	  0.072304606	2.410500E+01	  0.072304606	5.248500E+01	  0.072304606	1.145000E+00
263	  0.072505005	-3.144500E+01	  0.072505005	2.382700E+01	  0.072505005	5.249800E+01	  0.072505005	1.136000E+00
264	  0.072705410	-3.139600E+01	  0.072705410	2.380900E+01	  0.072705410	5.251300E+01	  0.072705410	1.142000E+00
265	  0.072905809	-3.139800E+01	  0.072905809	2.331800E+01	  0.072905809	5.252200E+01	  0.072905809	1.120000E+00
266	  0.073106214	-3.135200E+01	  0.073106214	2.365100E+01	  0.073106214	5.252900E+01	  0.073106214	1.141000E+00
267	  0.073306613	-3.150100E+01	  0.073306613	2.348700E+01	  0.073306613	5.248800E+01	  0.073306613	1.113000E+00
268	  0.073507011	-3.147600E+01	  0.073507011	2.338600E+01	  0.073507011	5.249800E+01	  0.073507011	1.112000E+00
269	  0.073707417	-3.137500E+01	  0.073707417	2.324200E+01	  0.073707417	5.253000E+01	  0.073707417	1.119000E+00
270	  0.073907815	-3.145600E+01	  0.073907815	2.250000E+01	  0.073907815	5.252100E+01	  0.073907815	1.075000E+00
271	  0.074108213	-3.146100E+01	  0.074108213	2.286400E+01	  0.074108213	5.251300E+01	  0.074108213	1.091000E+00
272	  0.074308619	-3.145800E+01	  0.074308619	2.250700E+01	  0.074308619	5.252000E+01	  0.074308619	1.075000E+00
273	  0.074509017	-3.141700E+01	  0.074509017	2.224400E+01	  0.074509017	5.253800E+01	  0.074509017	1.069000E+00
274	  0.074709415	-3.138000E+01	  0.074709415	2.188600E+01	  0.074709415	5.255600E+01	  0.074709415	1.057000E+00
275	  0.074909821	-3.131000E+01	  0.074909821	2.144400E+01	  0.074909821	5.258600E+01	  0.074909821	1.046000E+00
276	  0.075110219	-3.131800E+01	  0.075110219	2.086000E+01	  0.075110219	5.259400E+01	  0.075110219	1.018000E+00
277	  0.075310618	-3.126900E+01	  0.075310618	2.138200E+01	  0.075310618	5.259900E+01	  0.075310618	1.048000E+00
278	  0.075511023	-3.126900E+01	  0.075511023	2.108600E+01	  0.075511023	5.260500E+01	  0.075511023	1.034000E+00
279	  0.075711422	-3.126900E+01	  0.075711422	2.148200E+01	  0.075711422	5.259700E+01	  0.075711422	1.053000E+00
280	  0.075911827	-3.126600E+01	  0.075911827	2.080000E+01	  0.075911827	5.261100E+01	  0.075911827	1.022000E+00
281	  0.076112226	-3.114800E+01	  0.076112226	2.117900E+01	  0.076112226	5.264000E+01	  0.076112226	1.054000E+00
282	  0.076312624	-3.116900E+01	  0.076312624	2.078000E+01	  0.076312624	5.264200E+01	  0.076312624	1.033000E+00
283	  0.076513030	-3.115300E+01	  0.076513030	2.084700E+01	  0.076513030	5.264500E+01	  0.076513030	1.038000E+00
284	  0.076713428	-3.125500E+01	  0.076713428	2.087600E+01	  0.076713428	5.261300E+01	  0.076713428	1.026000E+00
285	  0.076913826	-3.111900E+01	  0.076913826	2.091900E+01	  0.076913826	5.265500E+01	  0.076913826	1.046000E+00
286	  0.077114232	-3.115200E+01	  0.077114232	2.088100E+01	  0.077114232	5.264500E+01	  0.077114232	1.040000E+00
287	  0.077314630	-3.120800E+01	  0.077314630	2.062600E+01	  0.077314630	5.263300E+01	  0.077314630	1.021000E+00
288	  0.077515028	-3.127500E+01	  0.077515028	2.049700E+01	  0.077515028	5.261400E+01	  0.077515028	1.006000E+00
289	  0.077715434	-3.114400E+01	  0.077715434	2.052400E+01	  0.077715434	5.265400E+01	  0.077715434	1.024000E+00
290	  0.077915832	-3.121100E+01	  0.077915832	2.010300E+01	  0.077915832	5.264100E+01	  0.077915832	9.960000E-01
291	  0.078116231	-3.134600E+01	  0.078116231	2.001900E+01	  0.078116231	5.260100E+01	  0.078116231	9.760000E-01
292	  0.078316636	-3.125900E+01	  0.078316636	1.939800E+01	  0.078316636	5.263900E+01	  0.078316636	9.570000E-01
293	  0.078517035	-3.122500E+01	  0.078517035	1.986100E+01	  0.078517035	5.264100E+01	  0.078517035	9.820000E-01
294	  0.078717433	-3.128200E+01	  0.078717433	1.905500E+01	  0.078717433	5.263800E+01	  0.078717433	9.380000E-01
295	  0.078917839	-3.127700E+01	  0.078917839	1.826900E+01	  0.078917839	5.265300E+01	  0.078917839	9.010000E-01
296	  0.079118237	-3.130900E+01	  0.079118237	1.834900E+01	  0.079118237	5.264200E+01	  0.079118237	9.020000E-01
297	  0.079318643	-3.120200E+01	  0.079318643	1.769200E+01	  0.079318643	5.268600E+01	  0.079318643	8.820000E-01
298	  0.079519041	-3.122500E+01	  0.079519041	1.688900E+01	  0.079519041	5.269100E+01	  0.079519041	8.410000E-01
299	  0.079719439	-3.123500E+01	  0.079719439	1.682700E+01	  0.079719439	5.268900E+01	  0.079719439	8.370000E-01
300	  0.079919845	-3.115300E+01	  0.079919845	1.688700E+01	  0.079919845	5.271400E+01	  0.079919845	8.480000E-01
301	  0.080120243	-3.116300E+01	  0.080120243	1.641200E+01	  0.080120243	5.271800E+01	  0.080120243	8.240000E-01
302	  0.080320641	-3.095800E+01	  0.080320641	1.603200E+01	  0.080320641	5.279100E+01	  0.080320641	8.260000E-01
303	  0.080521047	-3.096100E+01	  0.080521047	1.560500E+01	  0.080521047	5.279600E+01	  0.080521047	8.040000E-01
304	  0.080721445	-3.088700E+01	  0.080721445	1.549100E+01	  0.080721445	5.282300E+01	  0.080721445	8.060000E-01
305	  0.080921844	-3.086000E+01	  0.080921844	1.529200E+01	  0.080921844	5.283400E+01	  0.080921844	7.980000E-01
306	  0.081122249	-3.072700E+01	  0.081122249	1.500700E+01	  0.081122249	5.288300E+01	  0.081122249	7.970000E-01
307	  0.081322648	-3.070300E+01	  0.081322648	1.536700E+01	  0.081322648	5.288600E+01	  0.081322648	8.180000E-01
308	  0.081523046	-3.066000E+01	  0.081523046	1.563800E+01	  0.081523046	5.289700E+01	  0.081523046	8.360000E-01
309	  0.081723452	-3.055700E+01	  0.081723452	1.538000E+01	  0.081723452	5.293600E+01	  0.081723452	8.330000E-01
310	  0.081923850	-3.060600E+01	  0.081923850	1.558800E+01	  0.081923850	5.291600E+01	  0.081923850	8.390000E-01
311	  0.082124248	-3.053400E+01	  0.082124248	1.599200E+01	  0.082124248	5.293500E+01	  0.082124248	8.680000E-01
312	  0.082324654	-3.054800E+01	  0.082324654	1.592500E+01	  0.082324654	5.293100E+01	  0.082324654	8.630000E-01
313	  0.082525052	-3.050400E+01	  0.082525052	1.624300E+01	  0.082525052	5.294100E+01	  0.082525052	8.840000E-01
314	  0.082725458	-3.048700E+01	  0.082725458	1.607700E+01	  0.082725458	5.295000E+01	  0.082725458	8.770000E-01
315	  0.082925856	-3.048900E+01	  0.082925856	1.674500E+01	  0.082925856	5.293800E+01	  0.082925856	9.120000E-01
316	  0.083126254	-3.053800E+01	  0.083126254	1.660600E+01	  0.083126254	5.292300E+01	  0.083126254	8.990000E-01
317	  0.083326660	-3.055800E+01	  0.083326660	1.663600E+01	  0.083326660	5.291600E+01	  0.083326660	8.990000E-01
318	  0.083527058	-3.058900E+01	  0.083527058	1.676500E+01	  0.083527058	5.290300E+01	  0.083527058	9.020000E-01
319	  0.083727457	-3.061900E+01	  0.083727457	1.665500E+01	  0.083727457	5.289500E+01	  0.083727457	8.930000E-01
320	  0.083927862	-3.065900E+01	  0.083927862	1.697800E+01	  0.083927862	5.287600E+01	  0.083927862	9.050000E-01
321	  0.084128261	-3.070200E+01	  0.084128261	1.692200E+01	  0.084128261	5.286200E+01	  0.084128261	8.980000E-01
322	  0.084328659	-3.071100E+01	  0.084328659	1.678100E+01	  0.084328659	5.286100E+01	  0.084328659	8.900000E-01
323	  0.084529065	-3.067100E+01	  0.084529065	1.647400E+01	  0.084529065	5.288000E+01	  0.084529065	8.780000E-01
324	  0.084729463	-3.072600E+01	  0.084729463	1.616900E+01	  0.084729463	5.286600E+01	  0.084729463	8.570000E-01
325	  0.084929861	-3.072800E+01	  0.084929861	1.618100E+01	  0.084929861	5.286500E+01	  0.084929861	8.570000E-01
326	  0.085130267	-3.076400E+01	  0.085130267	1.609400E+01	  0.085130267	5.285500E+01	  0.085130267	8.490000E-01
327	  0.085330658	-3.076400E+01	  0.085330658	1.542500E+01	  0.085330658	5.286500E+01	  0.085330658	8.150000E-01
328	  0.085531056	-3.072600E+01	  0.085531056	1.467300E+01	  0.085531056	5.288900E+01	  0.085531056	7.800000E-01
329	  0.085731462	-3.068200E+01	  0.085731462	1.455600E+01	  0.085731462	5.290500E+01	  0.085731462	7.780000E-01
330	  0.085931860	-3.070500E+01	  0.085931860	1.438700E+01	  0.085931860	5.290000E+01	  0.085931860	7.670000E-01
331	  0.086132258	-3.071300E+01	  0.086132258	1.397300E+01	  0.086132258	5.290300E+01	  0.086132258	7.440000E-01
332	  0.086332664	-3.066100E+01	  0.086332664	1.380500E+01	  0.086332664	5.292300E+01	  0.086332664	7.400000E-01
333	  0.086533062	-3.062000E+01	  0.086533062	1.343500E+01	  0.086533062	5.294300E+01	  0.086533062	7.250000E-01
334	  0.086733460	-3.057400E+01	  0.086733460	1.342200E+01	  0.086733460	5.295900E+01	  0.086733460	7.280000E-01
335	  0.086933866	-3.055900E+01	  0.086933866	1.323100E+01	  0.086933866	5.296700E+01	  0.086933866	7.190000E-01
336	  0.087134264	-3.054700E+01	  0.087134264	1.299700E+01	  0.087134264	5.297400E+01	  0.087134264	7.080000E-01
337	  0.087334670	-3.056200E+01	  0.087334670	1.283900E+01	  0.087334670	5.297100E+01	  0.087334670	6.980000E-01
338	  0.087535068	-3.047200E+01	  0.087535068	1.338300E+01	  0.087535068	5.299500E+01	  0.087535068	7.350000E-01
339	  0.087735467	-3.040900E+01	  0.087735467	1.290200E+01	  0.087735467	5.302400E+01	  0.087735467	7.140000E-01
340	  0.087935872	-3.048200E+01	  0.087935872	1.294400E+01	  0.087935872	5.299700E+01	  0.087935872	7.100000E-01
341	  0.088136271	-3.043700E+01	  0.088136271	1.319700E+01	  0.088136271	5.301000E+01	  0.088136271	7.280000E-01
342	  0.088336669	-3.043000E+01	  0.088336669	1.261600E+01	  0.088336669	5.302000E+01	  0.088336669	6.970000E-01
343	  0.088537075	-3.047300E+01	  0.088537075	1.311800E+01	  0.088537075	5.299800E+01	  0.088537075	7.210000E-01
344	  0.088737473	-3.036100E+01	  0.088737473	1.297800E+01	  0.088737473	5.304000E+01	  0.088737473	7.230000E-01
345	  0.088937871	-3.045500E+01	  0.088937871	1.292000E+01	  0.088937871	5.300700E+01	  0.088937871	7.110000E-01
346	  0.089138277	-3.052700E+01	  0.089138277	1.267000E+01	  0.089138277	5.298500E+01	  0.089138277	6.920000E-01
347	  0.089338675	-3.049700E+01	  0.089338675	1.245600E+01	  0.089338675	5.299900E+01	  0.089338675	6.830000E-01
348	  0.089539073	-3.050400E+01	  0.089539073	1.266400E+01	  0.089539073	5.299300E+01	  0.089539073	6.930000E-01
349	  0.089739479	-3.052200E+01	  0.089739479	1.228500E+01	  0.089739479	5.299200E+01	  0.089739479	6.720000E-01
350	  0.089939877	-3.055100E+01	  0.089939877	1.213500E+01	  0.089939877	5.298300E+01	  0.089939877	6.610000E-01
351	  0.090140276	-3.054300E+01	  0.090140276	1.155700E+01	  0.090140276	5.299300E+01	  0.090140276	6.310000E-01
352	  0.090340681	-3.054000E+01	  0.090340681	1.157500E+01	  0.090340681	5.299400E+01	  0.090340681	6.320000E-01
353	  0.090541080	-3.052100E+01	  0.090541080	1.161600E+01	  0.090541080	5.300000E+01	  0.090541080	6.360000E-01
354	  0.090741485	-3.056300E+01	  0.090741485	1.102700E+01	  0.090741485	5.299200E+01	  0.090741485	6.010000E-01
355	  0.090941884	-3.053800E+01	  0.090941884	1.038700E+01	  0.090941884	5.300800E+01	  0.090941884	5.680000E-01
356	  0.091142282	-3.048500E+01	  0.091142282	1.018400E+01	  0.091142282	5.302900E+01	  0.091142282	5.610000E-01
357	  0.091342688	-3.045500E+01	  0.091342688	1.021200E+01	  0.091342688	5.303900E+01	  0.091342688	5.640000E-01
358	  0.091543086	-3.043900E+01	  0.091543086	1.026800E+01	  0.091543086	5.304500E+01	  0.091543086	5.690000E-01
359	  0.091743484	-3.045200E+01	  0.091743484	9.798000E+00	  0.091743484	5.304500E+01	  0.091743484	5.420000E-01
360	  0.091943890	-3.037200E+01	  0.091943890	9.407000E+00	  0.091943890	5.307800E+01	  0.091943890	5.260000E-01
361	  0.092144288	-3.038000E+01	  0.092144288	9.163000E+00	  0.092144288	5.307700E+01	  0.092144288	5.120000E-01
362	  0.092344686	-3.033000E+01	  0.092344686	9.292000E+00	  0.092344686	5.309400E+01	  0.092344686	5.220000E-01
363	  0.092545092	-3.028700E+01	  0.092545092	9.242000E+00	  0.092545092	5.311100E+01	  0.092545092	5.220000E-01
364	  0.092745490	-3.026200E+01	  0.092745490	9.021000E+00	  0.092745490	5.312200E+01	  0.092745490	5.110000E-01
365	  0.092945889	-3.027700E+01	  0.092945889	9.162000E+00	  0.092945889	5.311500E+01	  0.092945889	5.180000E-01
366	  0.093146294	-3.028400E+01	  0.093146294	9.040000E+00	  0.093146294	5.311400E+01	  0.093146294	5.110000E-01
367	  0.093346693	-3.024800E+01	  0.093346693	9.141000E+00	  0.093346693	5.312600E+01	  0.093346693	5.190000E-01
368	  0.093547091	-3.022800E+01	  0.093547091	8.802000E+00	  0.093547091	5.313700E+01	  0.093547091	5.010000E-01
369	  0.093747497	-3.025400E+01	  0.093747497	9.005000E+00	  0.093747497	5.312500E+01	  0.093747497	5.110000E-01
370	  0.093947895	-3.026700E+01	  0.093947895	8.652000E+00	  0.093947895	5.312300E+01	  0.093947895	4.900000E-01
371	  0.094148301	-3.026200E+01	  0.094148301	8.568000E+00	  0.094148301	5.312600E+01	  0.094148301	4.860000E-01
372	  0.094348699	-3.022200E+01	  0.094348699	8.673000E+00	  0.094348699	5.314000E+01	  0.094348699	4.940000E-01
373	  0.094549097	-3.024400E+01	  0.094549097	8.149000E+00	  0.094549097	5.313600E+01	  0.094549097	4.630000E-01
374	  0.094749503	-3.020400E+01	  0.094749503	8.572000E+00	  0.094749503	5.314700E+01	  0.094749503	4.890000E-01
375	  0.094949901	-3.021300E+01	  0.094949901	8.120000E+00	  0.094949901	5.314800E+01	  0.094949901	4.630000E-01
376	  0.095150299	-3.017600E+01	  0.095150299	7.972000E+00	  0.095150299	5.316300E+01	  0.095150299	4.570000E-01
377	  0.095350705	-3.028200E+01	  0.095350705	8.038000E+00	  0.095350705	5.312300E+01	  0.095350705	4.550000E-01
378	  0.095551103	-3.017700E+01	  0.095551103	7.618000E+00	  0.095551103	5.316600E+01	  0.095551103	4.370000E-01
379	  0.095751502	-3.021900E+01	  0.095751502	7.918000E+00	  0.095751502	5.314800E+01	  0.095751502	4.510000E-01
380	  0.095951907	-3.017000E+01	  0.095951907	7.199000E+00	  0.095951907	5.317200E+01	  0.095951907	4.130000E-01
381	  0.096152306	-3.014400E+01	  0.096152306	6.947000E+00	  0.096152306	5.318400E+01	  0.096152306	4.000000E-01
382	  0.096352704	-3.013700E+01	  0.096352704	7.047000E+00	  0.096352704	5.318500E+01	  0.096352704	4.060000E-01
383	  0.096553110	-3.014200E+01	  0.096553110	6.956000E+00	  0.096553110	5.318400E+01	  0.096553110	4.010000E-01
384	  0.096753508	-3.008700E+01	  0.096753508	6.417000E+00	  0.096753508	5.320900E+01	  0.096753508	3.720000E-01
385	  0.096953906	-3.006000E+01	  0.096953906	6.463000E+00	  0.096953906	5.321900E+01	  0.096953906	3.760000E-01
386	  0.097154312	-3.005600E+01	  0.097154312	6.667000E+00	  0.097154312	5.321900E+01	  0.097154312	3.880000E-01
387	  0.097354710	-3.003400E+01	  0.097354710	6.906000E+00	  0.097354710	5.322600E+01	  0.097354710	4.030000E-01
388	  0.097555116	-3.005800E+01	  0.097555116	6.349000E+00	  0.097555116	5.322100E+01	  0.097555116	3.700000E-01
389	  0.097755514	-3.003700E+01	  0.097755514	6.723000E+00	  0.097755514	5.322600E+01	  0.097755514	3.920000E-01
390	  0.097955912	-3.003400E+01	  0.097955912	6.294000E+00	  0.097955912	5.323000E+01	  0.097955912	3.680000E-01
391	  0.098156318	-3.005000E+01	  0.098156318	6.587000E+00	  0.098156318	5.322200E+01	  0.098156318	3.840000E-01
392	  0.098356716	-3.006100E+01	  0.098356716	6.405000E+00	  0.098356716	5.321900E+01	  0.098356716	3.730000E-01
393	  0.098557115	-3.002300E+01	  0.098557115	6.486000E+00	  0.098557115	5.323300E+01	  0.098557115	3.790000E-01
394	  0.098757520	-3.005900E+01	  0.098757520	6.411000E+00	  0.098757520	5.322000E+01	  0.098757520	3.730000E-01
395	  0.098957919	-3.004400E+01	  0.098957919	6.338000E+00	  0.098957919	5.322600E+01	  0.098957919	3.700000E-01
396	  0.099158317	-3.006500E+01	  0.099158317	6.282000E+00	  0.099158317	5.321800E+01	  0.099158317	3.650000E-01
397	  0.099358723	-3.016400E+01	  0.099358723	5.679000E+00	  0.099358723	5.318500E+01	  0.099358723	3.260000E-01
398	  0.099559121	-3.012000E+01	  0.099559121	5.844000E+00	  0.099559121	5.320000E+01	  0.099559121	3.380000E-01
399	  0.099759519	-3.017100E+01	  0.099759519	5.810000E+00	  0.099759519	5.318100E+01	  0.099759519	3.340000E-01
400	  0.099959925	-3.017800E+01	  0.099959925	5.318000E+00	  0.099959925	5.318100E+01	  0.099959925	3.050000E-01
401	  0.100160323	-3.013000E+01	  0.100160323	4.914000E+00	  0.100160323	5.320200E+01	  0.100160323	2.840000E-01
402	  0.100360721	-3.024500E+01	  0.100360721	5.163000E+00	  0.100360721	5.315700E+01	  0.100360721	2.940000E-01
403	  0.100561127	-3.025800E+01	  0.100561127	4.535000E+00	  0.100561127	5.315600E+01	  0.100561127	2.580000E-01
404	  0.100761525	-3.026600E+01	  0.100761525	3.771000E+00	  0.100761525	5.315600E+01	  0.100761525	2.140000E-01
405	  0.100961931	-3.015200E+01	  0.100961931	3.687000E+00	  0.100961931	5.319900E+01	  0.100961931	2.120000E-01
406	  0.101162329	-3.003300E+01	  0.101162329	3.373000E+00	  0.101162329	5.324600E+01	  0.101162329	1.970000E-01
407	  0.101362728	-3.003300E+01	  0.101362728	2.668000E+00	  0.101362728	5.324800E+01	  0.101362728	1.560000E-01
408	  0.101563133	-3.003500E+01	  0.101563133	2.617000E+00	  0.101563133	5.324800E+01	  0.101563133	1.530000E-01
409	  0.101763532	-2.999400E+01	  0.101763532	2.489000E+00	  0.101763532	5.326400E+01	  0.101763532	1.460000E-01
410	  0.101963930	-2.998700E+01	  0.101963930	1.755000E+00	  0.101963930	5.326800E+01	  0.101963930	1.030000E-01
411	  0.102164336	-2.983600E+01	  0.102164336	2.045000E+00	  0.102164336	5.332700E+01	  0.102164336	1.220000E-01
412	  0.102364734	-2.977800E+01	  0.102364734	2.414000E+00	  0.102364734	5.334900E+01	  0.102364734	1.460000E-01
413	  0.102565132	-2.975600E+01	  0.102565132	2.038000E+00	  0.102565132	5.335900E+01	  0.102565132	1.230000E-01
414	  0.102765530	-2.964700E+01	  0.102765530	1.871000E+00	  0.102765530	5.340300E+01	  0.102765530	1.150000E-01
415	  0.102965929	-2.961200E+01	  0.102965929	1.877000E+00	  0.102965929	5.341700E+01	  0.102965929	1.150000E-01
416	  0.103166327	-2.953400E+01	  0.103166327	2.586000E+00	  0.103166327	5.344700E+01	  0.103166327	1.610000E-01
417	  0.103366733	-2.950300E+01	  0.103366733	2.391000E+00	  0.103366733	5.346100E+01	  0.103366733	1.490000E-01
418	  0.103567131	-2.944400E+01	  0.103567131	3.181000E+00	  0.103567131	5.348200E+01	  0.103567131	2.000000E-01
419	  0.103767529	-2.946700E+01	  0.103767529	3.138000E+00	  0.103767529	5.347300E+01	  0.103767529	1.970000E-01
420	  0.103967935	-2.950400E+01	  0.103967935	3.926000E+00	  0.103967935	5.345400E+01	  0.103967935	2.450000E-01
421	  0.104168333	-2.947000E+01	  0.104168333	4.204000E+00	  0.104168333	5.346700E+01	  0.104168333	2.630000E-01
422	  0.104368731	-2.956000E+01	  0.104368731	4.678000E+00	  0.104368731	5.342800E+01	  0.104368731	2.900000E-01
423	  0.104569137	-2.955900E+01	  0.104569137	4.898000E+00	  0.104569137	5.342700E+01	  0.104569137	3.030000E-01
424	  0.104769535	-2.961000E+01	  0.104769535	5.207000E+00	  0.104769535	5.340400E+01	  0.104769535	3.200000E-01
425	  0.104969934	-2.972300E+01	  0.104969934	5.652000E+00	  0.104969934	5.335600E+01	  0.104969934	3.430000E-01
426	  0.105170339	-2.973100E+01	  0.105170339	5.654000E+00	  0.105170339	5.335300E+01	  0.105170339	3.430000E-01
427	  0.105370738	-2.994100E+01	  0.105370738	5.177000E+00	  0.105370738	5.327300E+01	  0.105370738	3.060000E-01
428	  0.105571143	-2.989700E+01	  0.105571143	4.970000E+00	  0.105571143	5.329100E+01	  0.105571143	2.950000E-01
429	  0.105771542	-2.999000E+01	  0.105771542	5.435000E+00	  0.105771542	5.325300E+01	  0.105771542	3.190000E-01
430	  0.105971940	-3.011300E+01	  0.105971940	4.942000E+00	  0.105971940	5.320800E+01	  0.105971940	2.860000E-01
431	  0.106172346	-3.015400E+01	  0.106172346	3.961000E+00	  0.106172346	5.319700E+01	  0.106172346	2.280000E-01
432	  0.106372744	-3.009600E+01	  0.106372744	4.350000E+00	  0.106372744	5.321800E+01	  0.106372744	2.520000E-01
433	  0.106573142	-3.014900E+01	  0.106573142	3.752000E+00	  0.106573142	5.320000E+01	  0.106573142	2.160000E-01
434	  0.106773548	-3.028200E+01	  0.106773548	2.954000E+00	  0.106773548	5.315300E+01	  0.106773548	1.670000E-01
435	  0.106973946	-3.035200E+01	  0.106973946	2.574000E+00	  0.106973946	5.312800E+01	  0.106973946	1.450000E-01
436	  0.107174344	-3.020400E+01	  0.107174344	2.189000E+00	  0.107174344	5.318400E+01	  0.107174344	1.250000E-01
437	  0.107374750	-3.032400E+01	  0.107374750	1.432000E+00	  0.107374750	5.314100E+01	  0.107374750	8.100000E-02
438	  0.107575148	-3.030600E+01	  0.107575148	1.071000E+00	  0.107575148	5.314700E+01	  0.107575148	6.000000E-02
439	  0.107775547	-3.025000E+01	  0.107775547	5.280000E-01	  0.107775547	5.316900E+01	  0.107775547	3.000000E-02
440	  0.107975952	-3.028500E+01	  0.107975952	-2.000000E-02	  0.107975952	5.315600E+01	  0.107975952	-1.000000E-03
441	  0.108176351	-3.012900E+01	  0.108176351	-7.670000E-01	  0.108176351	5.321500E+01	  0.108176351	-4.400000E-02
442	  0.108376749	-3.015200E+01	  0.108376749	-8.700000E-01	  0.108376749	5.320600E+01	  0.108376749	-5.000000E-02
443	  0.108577155	-3.008700E+01	  0.108577155	-1.085000E+00	  0.108577155	5.323100E+01	  0.108577155	-6.300000E-02
444	  0.108777553	-3.003500E+01	  0.108777553	-1.073000E+00	  0.108777553	5.325100E+01	  0.108777553	-6.200000E-02
445	  0.108977959	-2.994700E+01	  0.108977959	-1.497000E+00	  0.108977959	5.328400E+01	  0.108977959	-8.800000E-02
446	  0.109178357	-2.982300E+01	  0.109178357	-1.671000E+00	  0.109178357	5.333300E+01	  0.109178357	-1.000000E-01
447	  0.109378755	-2.988300E+01	  0.109378755	-1.259000E+00	  0.109378755	5.331000E+01	  0.109378755	-7.500000E-02
448	  0.109579161	-2.981800E+01	  0.109579161	-1.331000E+00	  0.109579161	5.333500E+01	  0.109579161	-8.000000E-02
449	  0.109779559	-2.974700E+01	  0.109779559	-1.582000E+00	  0.109779559	5.336300E+01	  0.109779559	-9.600000E-02
450	  0.109979957	-2.976800E+01	  0.109979957	-6.420000E-01	  0.109979957	5.335600E+01	  0.109979957	-3.800000E-02
451	  0.110180363	-2.974000E+01	  0.110180363	-4.510000E-01	  0.110180363	5.336700E+01	  0.110180363	-2.700000E-02
452	  0.110380761	-2.969300E+01	  0.110380761	-1.640000E-01	  0.110380761	5.338600E+01	  0.110380761	-1.000000E-02
453	  0.110581160	-2.976800E+01	  0.110581160	-5.040000E-01	  0.110581160	5.335600E+01	  0.110581160	-3.000000E-02
454	  0.110781565	-2.978300E+01	  0.110781565	4.810000E-01	  0.110781565	5.335000E+01	  0.110781565	2.900000E-02
455	  0.110981964	-2.979800E+01	  0.110981964	5.850000E-01	  0.110981964	5.334400E+01	  0.110981964	3.500000E-02
456	  0.111182362	-2.985000E+01	  0.111182362	5.500000E-02	  0.111182362	5.332300E+01	  0.111182362	3.000000E-03
457	  0.111382768	-2.988600E+01	  0.111382768	2.740000E-01	  0.111382768	5.330900E+01	  0.111382768	1.600000E-02
458	  0.111583166	-2.998800E+01	  0.111583166	1.160000E-01	  0.111583166	5.327000E+01	  0.111583166	6.000000E-03
459	  0.111783572	-3.002200E+01	  0.111783572	-2.910000E-01	  0.111783572	5.325600E+01	  0.111783572	-1.700000E-02
460	  0.111983970	-3.005800E+01	  0.111983970	2.790000E-01	  0.111983970	5.324300E+01	  0.111983970	1.600000E-02
461	  0.112184368	-3.005300E+01	  0.112184368	-2.520000E-01	  0.112184368	5.324400E+01	  0.112184368	-1.400000E-02
462	  0.112384774	-3.010100E+01	  0.112384774	-2.830000E-01	  0.112384774	5.322600E+01	  0.112384774	-1.600000E-02
463	  0.112585172	-3.018500E+01	  0.112585172	-7.160000E-01	  0.112585172	5.319300E+01	  0.112585172	-4.100000E-02
464	  0.112785570	-3.024800E+01	  0.112785570	-1.643000E+00	  0.112785570	5.316800E+01	  0.112785570	-9.300000E-02
465	  0.112985976	-3.030600E+01	  0.112985976	-1.717000E+00	  0.112985976	5.314700E+01	  0.112985976	-9.700000E-02
466	  0.113186374	-3.023700E+01	  0.113186374	-2.466000E+00	  0.113186374	5.317100E+01	  0.113186374	-1.400000E-01
467	  0.113386773	-3.022500E+01	  0.113386773	-2.243000E+00	  0.113386773	5.317600E+01	  0.113386773	-1.280000E-01
468	  0.113587178	-3.024000E+01	  0.113587178	-3.375000E+00	  0.113587178	5.316700E+01	  0.113587178	-1.920000E-01
469	  0.113787577	-3.021300E+01	  0.113787577	-3.573000E+00	  0.113787577	5.317700E+01	  0.113787577	-2.040000E-01
470	  0.113987975	-3.019900E+01	  0.113987975	-4.176000E+00	  0.113987975	5.317900E+01	  0.113987975	-2.390000E-01
471	  0.114188381	-3.014900E+01	  0.114188381	-4.618000E+00	  0.114188381	5.319600E+01	  0.114188381	-2.660000E-01
472	  0.114388779	-3.022100E+01	  0.114388779	-4.731000E+00	  0.114388779	5.316800E+01	  0.114388779	-2.700000E-01
473	  0.114589177	-3.014000E+01	  0.114589177	-5.050000E+00	  0.114589177	5.319700E+01	  0.114589177	-2.910000E-01
474	  0.114789583	-3.020400E+01	  0.114789583	-5.359000E+00	  0.114789583	5.317100E+01	  0.114789583	-3.070000E-01
475	  0.114989981	-3.016300E+01	  0.114989981	-5.184000E+00	  0.114989981	5.318800E+01	  0.114989981	-2.980000E-01
476	  0.115190387	-3.014100E+01	  0.115190387	-5.715000E+00	  0.115190387	5.319300E+01	  0.115190387	-3.290000E-01
477	  0.115390785	-3.004100E+01	  0.115390785	-6.005000E+00	  0.115390785	5.322900E+01	  0.115390785	-3.500000E-01
478	  0.115591183	-3.009100E+01	  0.115591183	-5.425000E+00	  0.115591183	5.321400E+01	  0.115591183	-3.150000E-01
479	  0.115791589	-3.010300E+01	  0.115791589	-5.487000E+00	  0.115791589	5.320900E+01	  0.115791589	-3.180000E-01
480	  0.115991987	-3.005000E+01	  0.115991987	-5.569000E+00	  0.115991987	5.322900E+01	  0.115991987	-3.250000E-01
481	  0.116192386	-3.004700E+01	  0.116192386	-6.539000E+00	  0.116192386	5.322300E+01	  0.116192386	-3.810000E-01
482	  0.116392791	-3.005500E+01	  0.116392791	-6.417000E+00	  0.116392791	5.322100E+01	  0.116392791	-3.740000E-01
483	  0.116593190	-3.002800E+01	  0.116593190	-5.962000E+00	  0.116593190	5.323500E+01	  0.116593190	-3.480000E-01
484	  0.116793588	-3.007900E+01	  0.116793588	-5.967000E+00	  0.116793588	5.321500E+01	  0.116793588	-3.470000E-01
485	  0.116993994	-3.007800E+01	  0.116993994	-6.637000E+00	  0.116993994	5.321100E+01	  0.116993994	-3.850000E-01
486	  0.117194392	-3.007700E+01	  0.117194392	-6.649000E+00	  0.117194392	5.321100E+01	  0.117194392	-3.860000E-01
487	  0.117394790	-3.009100E+01	  0.117394790	-6.927000E+00	  0.117394790	5.320400E+01	  0.117394790	-4.020000E-01
488	  0.117595196	-3.013400E+01	  0.117595196	-7.339000E+00	  0.117595196	5.318400E+01	  0.117595196	-4.230000E-01
489	  0.117795594	-3.015400E+01	  0.117795594	-7.628000E+00	  0.117795594	5.317500E+01	  0.117795594	-4.390000E-01
490	  0.117995992	-3.007500E+01	  0.117995992	-7.771000E+00	  0.117995992	5.320300E+01	  0.117995992	-4.510000E-01
491	  0.118196398	-3.005100E+01	  0.118196398	-7.853000E+00	  0.118196398	5.321200E+01	  0.118196398	-4.570000E-01
492	  0.118396796	-3.008400E+01	  0.118396796	-9.046000E+00	  0.118396796	5.318800E+01	  0.118396796	-5.240000E-01
493	  0.118597202	-3.010600E+01	  0.118597202	-8.719000E+00	  0.118597202	5.318300E+01	  0.118597202	-5.040000E-01
494	  0.118797600	-3.016200E+01	  0.118797600	-9.127000E+00	  0.118797600	5.315800E+01	  0.118797600	-5.230000E-01
495	  0.118997999	-3.007400E+01	  0.118997999	-9.034000E+00	  0.118997999	5.319200E+01	  0.118997999	-5.240000E-01
496	  0.119198404	-3.004000E+01	  0.119198404	-1.011600E+01	  0.119198404	5.319400E+01	  0.119198404	-5.880000E-01
497	  0.119398803	-3.004500E+01	  0.119398803	-1.011800E+01	  0.119398803	5.319200E+01	  0.119398803	-5.880000E-01
498	  0.119599201	-2.989100E+01	  0.119599201	-1.039100E+01	  0.119599201	5.324800E+01	  0.119599201	-6.150000E-01
499	  0.119799607	-2.996200E+01	  0.119799607	-1.032200E+01	  0.119799607	5.322100E+01	  0.119799607	-6.060000E-01
500	  0.120000005	-2.992900E+01	  0.120000005	-1.053000E+01	  0.120000005	5.323100E+01	  0.120000005	-6.200000E-01
