! Anritsu VNA Master:             	Model: MS2036C/10/77
! SN:             	1601066
! /bd0/18may26.balun/4b.r200.txt
! Existing Calibration Information:
! TYPE:             	Current Settings	Active Cal Settings
! TIME:             	05/26/2018 04:44:45 PM	05/26/2018 04:28:16 PM
! INTERNAL TEMP:    	55.0 C	56.3 C
! # POINTS:         	500	500
! START FREQ:       	20.000 MHz	20.000 MHz
! STOP FREQ:        	120.000 MHz	120.000 MHz
! SOURCE POWER:     	High	High
! IFBW:             	50 Hz	50 Hz
! AVG FACTOR:       	  1 	  1 
! REF PLANE 1:      	0 mm	0 mm
! REF PLANE 2:      	0 mm	0 mm
! CAL TYPE:         	Full S11	Full S11
! CAL METHOD:       	SOLT	SOLT
! CAL LINE TYPE:    	Coax	Coax
! DUT PORT 1:       	K-Conn(M)	K-Conn(M)
! DUT PORT 2:       	K-Conn(M)	K-Conn(M)
! CAL STATUS:       	OK: Accuracy High	--
! PROP-V:       	0.700
! CABLE LOSS:       	0.000 dB/m
! REF IMPEDANCE:       	50.0
! Trace Specific Parameters:	TR1	TR2	TR3	TR4
! TRACE.#.Y (GRAPH TYPE)	LOG MAG	PHASE	REAL IMPEDANCE	IMAGINARY IMPEDANCE
! TRACE.#.X 	FREQ.GHZ	FREQ.GHZ	FREQ.GHZ	FREQ.GHZ
! S-PARAMETER	S11	S11	S11	S11
! SMOOTH/APERTURE %	0	0	0	0
! WINDOW	NSL	NSL	NSL	NSL
! GATING	OFF	OFF	OFF	OFF
! FGTD	OFF	OFF	OFF	OFF
Marker Information per Trace:	TR1	TR2	TR3	TR4
!MK1	--	--	--	--
!MK2	--	--	--	--
!MK3	--	--	--	--
!MK4	--	--	--	--
!MK5	--	--	--	--
!MK6	--	--	--	--
!MK7	--	--	--	--
!MK8	--	--	--	--
PNT	TR1.FREQ.GHZ	TR1.LOG MAG.dB	TR2.FREQ.GHZ	TR2.PHASE.deg	TR3.FREQ.GHZ	TR3.REAL IMPEDANCE.ohm	TR4.FREQ.GHZ	TR4.IMAGINARY IMPEDANCE.ohm
1	  0.020000000	-4.519000E+00	  0.020000000	-2.278100E+01	  0.020000000	1.256890E+02	  0.020000000	-8.945100E+01
2	  0.020200402	-4.518000E+00	  0.020200402	-2.299800E+01	  0.020200402	1.248420E+02	  0.020200402	-8.966700E+01
3	  0.020400802	-4.520000E+00	  0.020400802	-2.324200E+01	  0.020400802	1.238790E+02	  0.020400802	-8.982200E+01
4	  0.020601204	-4.523000E+00	  0.020601204	-2.348700E+01	  0.020601204	1.229130E+02	  0.020601204	-8.993500E+01
5	  0.020801604	-4.521000E+00	  0.020801604	-2.372800E+01	  0.020801604	1.219960E+02	  0.020801604	-9.017500E+01
6	  0.021002004	-4.521000E+00	  0.021002004	-2.398500E+01	  0.021002004	1.210100E+02	  0.021002004	-9.035700E+01
7	  0.021202406	-4.523000E+00	  0.021202406	-2.426000E+01	  0.021202406	1.199580E+02	  0.021202406	-9.050100E+01
8	  0.021402806	-4.524000E+00	  0.021402806	-2.450600E+01	  0.021402806	1.190260E+02	  0.021402806	-9.062400E+01
9	  0.021603208	-4.526000E+00	  0.021603208	-2.473700E+01	  0.021603208	1.181520E+02	  0.021603208	-9.071500E+01
10	  0.021803608	-4.530000E+00	  0.021803608	-2.496700E+01	  0.021803608	1.172790E+02	  0.021803608	-9.074000E+01
11	  0.022004008	-4.533000E+00	  0.022004008	-2.520100E+01	  0.022004008	1.164010E+02	  0.022004008	-9.077900E+01
12	  0.022204408	-4.532000E+00	  0.022204408	-2.541300E+01	  0.022204408	1.156250E+02	  0.022204408	-9.091200E+01
13	  0.022404809	-4.529000E+00	  0.022404809	-2.564800E+01	  0.022404809	1.147730E+02	  0.022404809	-9.108600E+01
14	  0.022605211	-4.527000E+00	  0.022605211	-2.589700E+01	  0.022605211	1.138720E+02	  0.022605211	-9.121800E+01
15	  0.022805611	-4.532000E+00	  0.022805611	-2.614700E+01	  0.022805611	1.129570E+02	  0.022805611	-9.119700E+01
16	  0.023006011	-4.532000E+00	  0.023006011	-2.636200E+01	  0.023006011	1.121870E+02	  0.023006011	-9.126800E+01
17	  0.023206413	-4.530000E+00	  0.023206413	-2.659200E+01	  0.023206413	1.113720E+02	  0.023206413	-9.139200E+01
18	  0.023406813	-4.528000E+00	  0.023406813	-2.682700E+01	  0.023406813	1.105430E+02	  0.023406813	-9.149900E+01
19	  0.023607215	-4.522000E+00	  0.023607215	-2.705800E+01	  0.023607215	1.097380E+02	  0.023607215	-9.168600E+01
20	  0.023807615	-4.519000E+00	  0.023807615	-2.729300E+01	  0.023807615	1.089200E+02	  0.023807615	-9.178900E+01
21	  0.024008015	-4.523000E+00	  0.024008015	-2.753500E+01	  0.024008015	1.080740E+02	  0.024008015	-9.172300E+01
22	  0.024208417	-4.527000E+00	  0.024208417	-2.771900E+01	  0.024208417	1.074350E+02	  0.024208417	-9.166500E+01
23	  0.024408817	-4.527000E+00	  0.024408817	-2.791200E+01	  0.024408817	1.067770E+02	  0.024408817	-9.168700E+01
24	  0.024609219	-4.532000E+00	  0.024609219	-2.812200E+01	  0.024609219	1.060580E+02	  0.024609219	-9.159000E+01
25	  0.024809619	-4.537000E+00	  0.024809619	-2.834000E+01	  0.024809619	1.053190E+02	  0.024809619	-9.148100E+01
26	  0.025010020	-4.541000E+00	  0.025010020	-2.855900E+01	  0.025010020	1.045850E+02	  0.025010020	-9.141000E+01
27	  0.025210422	-4.545000E+00	  0.025210422	-2.879100E+01	  0.025210422	1.038150E+02	  0.025210422	-9.131400E+01
28	  0.025410822	-4.550000E+00	  0.025410822	-2.904900E+01	  0.025410822	1.029670E+02	  0.025410822	-9.119300E+01
29	  0.025611224	-4.549000E+00	  0.025611224	-2.929400E+01	  0.025611224	1.021650E+02	  0.025611224	-9.121800E+01
30	  0.025811624	-4.548000E+00	  0.025811624	-2.956500E+01	  0.025811624	1.012870E+02	  0.025811624	-9.120300E+01
31	  0.026012026	-4.551000E+00	  0.026012026	-2.981400E+01	  0.026012026	1.004890E+02	  0.026012026	-9.112600E+01
32	  0.026212426	-4.550000E+00	  0.026212426	-3.008400E+01	  0.026212426	9.962900E+01	  0.026212426	-9.109400E+01
33	  0.026412826	-4.548000E+00	  0.026412826	-3.036200E+01	  0.026412826	9.875100E+01	  0.026412826	-9.110600E+01
34	  0.026613226	-4.542000E+00	  0.026613226	-3.061500E+01	  0.026613226	9.795100E+01	  0.026613226	-9.117200E+01
35	  0.026813626	-4.535000E+00	  0.026813626	-3.083100E+01	  0.026813626	9.727000E+01	  0.026813626	-9.126400E+01
36	  0.027014028	-4.533000E+00	  0.027014028	-3.103400E+01	  0.027014028	9.664000E+01	  0.027014028	-9.125600E+01
37	  0.027214428	-4.534000E+00	  0.027214428	-3.120400E+01	  0.027214428	9.611800E+01	  0.027214428	-9.119500E+01
38	  0.027414829	-4.533000E+00	  0.027414829	-3.138900E+01	  0.027414829	9.555400E+01	  0.027414829	-9.116000E+01
39	  0.027615231	-4.534000E+00	  0.027615231	-3.159400E+01	  0.027615231	9.493400E+01	  0.027615231	-9.108300E+01
40	  0.027815631	-4.538000E+00	  0.027815631	-3.181000E+01	  0.027815631	9.429200E+01	  0.027815631	-9.092500E+01
41	  0.028016033	-4.547000E+00	  0.028016033	-3.204500E+01	  0.028016033	9.361400E+01	  0.028016033	-9.067500E+01
42	  0.028216433	-4.548000E+00	  0.028216433	-3.227800E+01	  0.028216433	9.293000E+01	  0.028216433	-9.056500E+01
43	  0.028416833	-4.547000E+00	  0.028416833	-3.255400E+01	  0.028416833	9.211700E+01	  0.028416833	-9.049300E+01
44	  0.028617235	-4.542000E+00	  0.028617235	-3.279200E+01	  0.028617235	9.141600E+01	  0.028617235	-9.048200E+01
45	  0.028817635	-4.538000E+00	  0.028817635	-3.304800E+01	  0.028817635	9.066600E+01	  0.028817635	-9.046600E+01
46	  0.029018037	-4.539000E+00	  0.029018037	-3.327800E+01	  0.029018037	9.001600E+01	  0.029018037	-9.033900E+01
47	  0.029218437	-4.535000E+00	  0.029218437	-3.349800E+01	  0.029218437	8.938200E+01	  0.029218437	-9.030700E+01
48	  0.029418837	-4.534000E+00	  0.029418837	-3.367000E+01	  0.029418837	8.889800E+01	  0.029418837	-9.024300E+01
49	  0.029619239	-4.531000E+00	  0.029619239	-3.385400E+01	  0.029619239	8.837200E+01	  0.029619239	-9.022200E+01
50	  0.029819639	-4.528000E+00	  0.029819639	-3.402000E+01	  0.029819639	8.790300E+01	  0.029819639	-9.017900E+01
51	  0.030020041	-4.528000E+00	  0.030020041	-3.418100E+01	  0.030020041	8.745700E+01	  0.030020041	-9.010200E+01
52	  0.030220442	-4.533000E+00	  0.030220442	-3.438200E+01	  0.030220442	8.692100E+01	  0.030220442	-8.991500E+01
53	  0.030420844	-4.540000E+00	  0.030420844	-3.461300E+01	  0.030420844	8.632200E+01	  0.030420844	-8.965200E+01
54	  0.030621244	-4.548000E+00	  0.030621244	-3.485300E+01	  0.030621244	8.570600E+01	  0.030621244	-8.938300E+01
55	  0.030821644	-4.554000E+00	  0.030821644	-3.510800E+01	  0.030821644	8.505000E+01	  0.030821644	-8.914000E+01
56	  0.031022044	-4.558000E+00	  0.031022044	-3.537300E+01	  0.031022044	8.436400E+01	  0.031022044	-8.892500E+01
57	  0.031222444	-4.545000E+00	  0.031222444	-3.558600E+01	  0.031222444	8.376000E+01	  0.031222444	-8.902400E+01
58	  0.031422846	-4.551000E+00	  0.031422846	-3.585600E+01	  0.031422846	8.308400E+01	  0.031422846	-8.875500E+01
59	  0.031623244	-4.550000E+00	  0.031623244	-3.613500E+01	  0.031623244	8.236700E+01	  0.031623244	-8.859900E+01
60	  0.031823646	-4.558000E+00	  0.031823646	-3.641400E+01	  0.031823646	8.168900E+01	  0.031823646	-8.830100E+01
61	  0.032024048	-4.559000E+00	  0.032024048	-3.667600E+01	  0.032024048	8.104200E+01	  0.032024048	-8.810300E+01
62	  0.032224450	-4.557000E+00	  0.032224450	-3.692000E+01	  0.032224450	8.042700E+01	  0.032224450	-8.797900E+01
63	  0.032424849	-4.550000E+00	  0.032424849	-3.715400E+01	  0.032424849	7.982200E+01	  0.032424849	-8.793600E+01
64	  0.032625251	-4.538000E+00	  0.032625251	-3.739800E+01	  0.032625251	7.917100E+01	  0.032625251	-8.796300E+01
65	  0.032825653	-4.538000E+00	  0.032825653	-3.758500E+01	  0.032825653	7.871900E+01	  0.032825653	-8.783200E+01
66	  0.033026051	-4.537000E+00	  0.033026051	-3.776100E+01	  0.033026051	7.828600E+01	  0.033026051	-8.773500E+01
67	  0.033226453	-4.539000E+00	  0.033226453	-3.793700E+01	  0.033226453	7.788000E+01	  0.033226453	-8.756900E+01
68	  0.033426855	-4.544000E+00	  0.033426855	-3.813600E+01	  0.033426855	7.742900E+01	  0.033426855	-8.735100E+01
69	  0.033627257	-4.550000E+00	  0.033627257	-3.838600E+01	  0.033627257	7.687200E+01	  0.033627257	-8.707000E+01
70	  0.033827655	-4.555000E+00	  0.033827655	-3.861200E+01	  0.033827655	7.637100E+01	  0.033827655	-8.683400E+01
71	  0.034028057	-4.561000E+00	  0.034028057	-3.888100E+01	  0.034028057	7.578200E+01	  0.034028057	-8.654000E+01
72	  0.034228459	-4.568000E+00	  0.034228459	-3.913700E+01	  0.034228459	7.523300E+01	  0.034228459	-8.624400E+01
73	  0.034428857	-4.567000E+00	  0.034428857	-3.937800E+01	  0.034428857	7.468400E+01	  0.034428857	-8.608200E+01
74	  0.034629259	-4.565000E+00	  0.034629259	-3.962500E+01	  0.034629259	7.412200E+01	  0.034629259	-8.592300E+01
75	  0.034829661	-4.561000E+00	  0.034829661	-3.987400E+01	  0.034829661	7.354800E+01	  0.034829661	-8.579500E+01
76	  0.035030060	-4.553000E+00	  0.035030060	-4.011400E+01	  0.035030060	7.298200E+01	  0.035030060	-8.572000E+01
77	  0.035230462	-4.550000E+00	  0.035230462	-4.031800E+01	  0.035230462	7.252500E+01	  0.035230462	-8.559400E+01
78	  0.035430863	-4.548000E+00	  0.035430863	-4.052200E+01	  0.035430863	7.206900E+01	  0.035430863	-8.547000E+01
79	  0.035631265	-4.545000E+00	  0.035631265	-4.072200E+01	  0.035631265	7.162500E+01	  0.035631265	-8.535000E+01
80	  0.035831664	-4.549000E+00	  0.035831664	-4.090400E+01	  0.035831664	7.126000E+01	  0.035831664	-8.514600E+01
81	  0.036032066	-4.552000E+00	  0.036032066	-4.114300E+01	  0.036032066	7.077700E+01	  0.036032066	-8.490100E+01
82	  0.036232468	-4.556000E+00	  0.036232468	-4.138000E+01	  0.036232468	7.030200E+01	  0.036232468	-8.465300E+01
83	  0.036432866	-4.564000E+00	  0.036432866	-4.163200E+01	  0.036432866	6.982500E+01	  0.036432866	-8.433400E+01
84	  0.036633268	-4.566000E+00	  0.036633268	-4.192700E+01	  0.036633268	6.923100E+01	  0.036633268	-8.406800E+01
85	  0.036833670	-4.573000E+00	  0.036833670	-4.218900E+01	  0.036833670	6.873900E+01	  0.036833670	-8.375800E+01
86	  0.037034072	-4.574000E+00	  0.037034072	-4.246200E+01	  0.037034072	6.819900E+01	  0.037034072	-8.351600E+01
87	  0.037234470	-4.575000E+00	  0.037234470	-4.270200E+01	  0.037234470	6.773100E+01	  0.037234470	-8.329800E+01
88	  0.037434869	-4.570000E+00	  0.037434869	-4.296800E+01	  0.037434869	6.718400E+01	  0.037434869	-8.313300E+01
89	  0.037635271	-4.566000E+00	  0.037635271	-4.321800E+01	  0.037635271	6.667400E+01	  0.037635271	-8.297300E+01
90	  0.037835669	-4.557000E+00	  0.037835669	-4.349200E+01	  0.037835669	6.609700E+01	  0.037835669	-8.284500E+01
91	  0.038036071	-4.555000E+00	  0.038036071	-4.374500E+01	  0.038036071	6.560200E+01	  0.038036071	-8.265600E+01
92	  0.038236473	-4.543000E+00	  0.038236473	-4.397000E+01	  0.038236473	6.511300E+01	  0.038236473	-8.259600E+01
93	  0.038436871	-4.539000E+00	  0.038436871	-4.410700E+01	  0.038436871	6.482800E+01	  0.038436871	-8.253200E+01
94	  0.038637273	-4.538000E+00	  0.038637273	-4.428700E+01	  0.038637273	6.448900E+01	  0.038637273	-8.238300E+01
95	  0.038837675	-4.543000E+00	  0.038837675	-4.443300E+01	  0.038837675	6.425300E+01	  0.038837675	-8.218300E+01
96	  0.039038073	-4.552000E+00	  0.039038073	-4.465300E+01	  0.039038073	6.389900E+01	  0.039038073	-8.188100E+01
97	  0.039238475	-4.560000E+00	  0.039238475	-4.486100E+01	  0.039238475	6.356500E+01	  0.039238475	-8.160500E+01
98	  0.039438877	-4.575000E+00	  0.039438877	-4.508700E+01	  0.039438877	6.324500E+01	  0.039438877	-8.122600E+01
99	  0.039639279	-4.580000E+00	  0.039639279	-4.531100E+01	  0.039639279	6.287800E+01	  0.039639279	-8.096200E+01
100	  0.039839678	-4.577000E+00	  0.039839678	-4.556100E+01	  0.039839678	6.241600E+01	  0.039839678	-8.078000E+01
101	  0.040040080	-4.578000E+00	  0.040040080	-4.581800E+01	  0.040040080	6.197300E+01	  0.040040080	-8.053600E+01
102	  0.040240481	-4.580000E+00	  0.040240481	-4.605800E+01	  0.040240481	6.156800E+01	  0.040240481	-8.029900E+01
103	  0.040440880	-4.568000E+00	  0.040440880	-4.630800E+01	  0.040440880	6.107100E+01	  0.040440880	-8.019900E+01
104	  0.040641282	-4.565000E+00	  0.040641282	-4.652700E+01	  0.040641282	6.067900E+01	  0.040641282	-8.003700E+01
105	  0.040841684	-4.564000E+00	  0.040841684	-4.672400E+01	  0.040841684	6.033900E+01	  0.040841684	-7.986800E+01
106	  0.041042086	-4.565000E+00	  0.041042086	-4.693300E+01	  0.041042086	5.999600E+01	  0.041042086	-7.966700E+01
107	  0.041242484	-4.574000E+00	  0.041242484	-4.714400E+01	  0.041242484	5.969900E+01	  0.041242484	-7.937500E+01
108	  0.041442886	-4.581000E+00	  0.041442886	-4.735700E+01	  0.041442886	5.939300E+01	  0.041442886	-7.910000E+01
109	  0.041643288	-4.589000E+00	  0.041643288	-4.763500E+01	  0.041643288	5.898200E+01	  0.041643288	-7.877000E+01
110	  0.041843686	-4.589000E+00	  0.041843686	-4.788300E+01	  0.041843686	5.858600E+01	  0.041843686	-7.853800E+01
111	  0.042044088	-4.593000E+00	  0.042044088	-4.817500E+01	  0.042044088	5.814200E+01	  0.042044088	-7.823000E+01
112	  0.042244490	-4.595000E+00	  0.042244490	-4.841900E+01	  0.042244490	5.777100E+01	  0.042244490	-7.798300E+01
113	  0.042444889	-4.596000E+00	  0.042444889	-4.866100E+01	  0.042444889	5.739600E+01	  0.042444889	-7.775400E+01
114	  0.042645290	-4.600000E+00	  0.042645290	-4.893100E+01	  0.042645290	5.700100E+01	  0.042645290	-7.746800E+01
115	  0.042845692	-4.602000E+00	  0.042845692	-4.919800E+01	  0.042845692	5.660600E+01	  0.042845692	-7.720000E+01
116	  0.043046094	-4.596000E+00	  0.043046094	-4.946800E+01	  0.043046094	5.615700E+01	  0.043046094	-7.701500E+01
117	  0.043246493	-4.590000E+00	  0.043246493	-4.975600E+01	  0.043246493	5.568900E+01	  0.043246493	-7.680800E+01
118	  0.043446895	-4.580000E+00	  0.043446895	-5.001000E+01	  0.043446895	5.525100E+01	  0.043446895	-7.666900E+01
119	  0.043647297	-4.575000E+00	  0.043647297	-5.020200E+01	  0.043647297	5.493900E+01	  0.043647297	-7.653600E+01
120	  0.043847695	-4.575000E+00	  0.043847695	-5.039200E+01	  0.043847695	5.465700E+01	  0.043847695	-7.636600E+01
121	  0.044048097	-4.574000E+00	  0.044048097	-5.054800E+01	  0.044048097	5.442900E+01	  0.044048097	-7.622400E+01
122	  0.044248499	-4.582000E+00	  0.044248499	-5.074200E+01	  0.044248499	5.419900E+01	  0.044248499	-7.596400E+01
123	  0.044448901	-4.588000E+00	  0.044448901	-5.095300E+01	  0.044448901	5.393000E+01	  0.044448901	-7.571600E+01
124	  0.044649299	-4.599000E+00	  0.044649299	-5.119000E+01	  0.044649299	5.366400E+01	  0.044649299	-7.539000E+01
125	  0.044849701	-4.603000E+00	  0.044849701	-5.143300E+01	  0.044849701	5.334400E+01	  0.044849701	-7.513100E+01
126	  0.045050103	-4.610000E+00	  0.045050103	-5.169000E+01	  0.045050103	5.303200E+01	  0.045050103	-7.482600E+01
127	  0.045250501	-4.615000E+00	  0.045250501	-5.195900E+01	  0.045250501	5.268700E+01	  0.045250501	-7.454000E+01
128	  0.045450903	-4.617000E+00	  0.045450903	-5.220800E+01	  0.045450903	5.235900E+01	  0.045450903	-7.429100E+01
129	  0.045651305	-4.613000E+00	  0.045651305	-5.248100E+01	  0.045651305	5.196600E+01	  0.045651305	-7.407700E+01
130	  0.045851704	-4.608000E+00	  0.045851704	-5.274900E+01	  0.045851704	5.157900E+01	  0.045851704	-7.387100E+01
131	  0.046052106	-4.607000E+00	  0.046052106	-5.297400E+01	  0.046052106	5.127500E+01	  0.046052106	-7.367000E+01
132	  0.046252504	-4.605000E+00	  0.046252504	-5.318800E+01	  0.046252504	5.098000E+01	  0.046252504	-7.349300E+01
133	  0.046452906	-4.609000E+00	  0.046452906	-5.341400E+01	  0.046452906	5.071200E+01	  0.046452906	-7.324700E+01
134	  0.046653304	-4.611000E+00	  0.046653304	-5.362200E+01	  0.046653304	5.045700E+01	  0.046653304	-7.303600E+01
135	  0.046853706	-4.615000E+00	  0.046853706	-5.385700E+01	  0.046853706	5.018000E+01	  0.046853706	-7.278700E+01
136	  0.047054108	-4.616000E+00	  0.047054108	-5.411300E+01	  0.047054108	4.986100E+01	  0.047054108	-7.254200E+01
137	  0.047254506	-4.621000E+00	  0.047254506	-5.436100E+01	  0.047254506	4.958000E+01	  0.047254506	-7.227100E+01
138	  0.047454908	-4.619000E+00	  0.047454908	-5.460300E+01	  0.047454908	4.927000E+01	  0.047454908	-7.206300E+01
139	  0.047655310	-4.622000E+00	  0.047655310	-5.486000E+01	  0.047655310	4.896700E+01	  0.047655310	-7.180700E+01
140	  0.047855709	-4.626000E+00	  0.047855709	-5.510900E+01	  0.047855709	4.868900E+01	  0.047855709	-7.154300E+01
141	  0.048056111	-4.623000E+00	  0.048056111	-5.535600E+01	  0.048056111	4.837300E+01	  0.048056111	-7.134000E+01
142	  0.048256513	-4.620000E+00	  0.048256513	-5.562200E+01	  0.048256513	4.803500E+01	  0.048256513	-7.112100E+01
143	  0.048456915	-4.613000E+00	  0.048456915	-5.589000E+01	  0.048456915	4.767200E+01	  0.048456915	-7.093300E+01
144	  0.048657313	-4.607000E+00	  0.048657313	-5.614000E+01	  0.048657313	4.734000E+01	  0.048657313	-7.075200E+01
145	  0.048857715	-4.600000E+00	  0.048857715	-5.636800E+01	  0.048857715	4.703800E+01	  0.048857715	-7.059100E+01
146	  0.049058117	-4.598000E+00	  0.049058117	-5.656200E+01	  0.049058117	4.680200E+01	  0.049058117	-7.042700E+01
147	  0.049258515	-4.599000E+00	  0.049258515	-5.672300E+01	  0.049258515	4.662200E+01	  0.049258515	-7.027300E+01
148	  0.049458917	-4.599000E+00	  0.049458917	-5.690900E+01	  0.049458917	4.640600E+01	  0.049458917	-7.010700E+01
149	  0.049659319	-4.605000E+00	  0.049659319	-5.709500E+01	  0.049659319	4.623700E+01	  0.049659319	-6.988500E+01
150	  0.049859721	-4.609000E+00	  0.049859721	-5.730600E+01	  0.049859721	4.602400E+01	  0.049859721	-6.966200E+01
151	  0.050060119	-4.617000E+00	  0.050060119	-5.750900E+01	  0.050060119	4.584200E+01	  0.050060119	-6.942300E+01
152	  0.050260521	-4.627000E+00	  0.050260521	-5.775100E+01	  0.050260521	4.563300E+01	  0.050260521	-6.913200E+01
153	  0.050460923	-4.630000E+00	  0.050460923	-5.800000E+01	  0.050460923	4.538200E+01	  0.050460923	-6.887900E+01
154	  0.050661322	-4.634000E+00	  0.050661322	-5.826400E+01	  0.050661322	4.511500E+01	  0.050661322	-6.861600E+01
155	  0.050861724	-4.634000E+00	  0.050861724	-5.854300E+01	  0.050861724	4.481700E+01	  0.050861724	-6.836300E+01
156	  0.051062126	-4.631000E+00	  0.051062126	-5.882500E+01	  0.051062126	4.449900E+01	  0.051062126	-6.813000E+01
157	  0.051262524	-4.627000E+00	  0.051262524	-5.904000E+01	  0.051262524	4.424900E+01	  0.051262524	-6.796300E+01
158	  0.051462926	-4.627000E+00	  0.051462926	-5.931400E+01	  0.051462926	4.396400E+01	  0.051462926	-6.771500E+01
159	  0.051663328	-4.627000E+00	  0.051663328	-5.952100E+01	  0.051663328	4.374700E+01	  0.051663328	-6.753300E+01
160	  0.051863730	-4.627000E+00	  0.051863730	-5.976100E+01	  0.051863730	4.350400E+01	  0.051863730	-6.731500E+01
161	  0.052064128	-4.632000E+00	  0.052064128	-5.997700E+01	  0.052064128	4.330900E+01	  0.052064128	-6.709200E+01
162	  0.052264530	-4.633000E+00	  0.052264530	-6.023700E+01	  0.052264530	4.305800E+01	  0.052264530	-6.684700E+01
163	  0.052464932	-4.633000E+00	  0.052464932	-6.046000E+01	  0.052464932	4.283500E+01	  0.052464932	-6.664800E+01
164	  0.052665330	-4.634000E+00	  0.052665330	-6.071100E+01	  0.052665330	4.258700E+01	  0.052665330	-6.642300E+01
165	  0.052865732	-4.639000E+00	  0.052865732	-6.094700E+01	  0.052865732	4.238700E+01	  0.052865732	-6.617700E+01
166	  0.053066134	-4.637000E+00	  0.053066134	-6.118300E+01	  0.053066134	4.214300E+01	  0.053066134	-6.598300E+01
167	  0.053266536	-4.637000E+00	  0.053266536	-6.143300E+01	  0.053266536	4.190300E+01	  0.053266536	-6.576100E+01
168	  0.053466935	-4.637000E+00	  0.053466935	-6.170100E+01	  0.053466935	4.164700E+01	  0.053466935	-6.552400E+01
169	  0.053667337	-4.632000E+00	  0.053667337	-6.196200E+01	  0.053667337	4.136700E+01	  0.053667337	-6.532700E+01
170	  0.053867739	-4.629000E+00	  0.053867739	-6.221900E+01	  0.053867739	4.111000E+01	  0.053867739	-6.511900E+01
171	  0.054068137	-4.627000E+00	  0.054068137	-6.246200E+01	  0.054068137	4.087200E+01	  0.054068137	-6.491600E+01
172	  0.054268539	-4.622000E+00	  0.054268539	-6.264500E+01	  0.054268539	4.067900E+01	  0.054268539	-6.478100E+01
173	  0.054468941	-4.619000E+00	  0.054468941	-6.283800E+01	  0.054468941	4.048200E+01	  0.054468941	-6.463100E+01
174	  0.054669339	-4.618000E+00	  0.054669339	-6.303400E+01	  0.054669339	4.029600E+01	  0.054669339	-6.446800E+01
175	  0.054869737	-4.624000E+00	  0.054869737	-6.321500E+01	  0.054869737	4.017100E+01	  0.054869737	-6.426800E+01
176	  0.055070139	-4.626000E+00	  0.055070139	-6.339500E+01	  0.055070139	4.001700E+01	  0.055070139	-6.410300E+01
177	  0.055270538	-4.630000E+00	  0.055270538	-6.361500E+01	  0.055270538	3.984500E+01	  0.055270538	-6.388700E+01
178	  0.055470940	-4.639000E+00	  0.055470940	-6.382700E+01	  0.055470940	3.970700E+01	  0.055470940	-6.365100E+01
179	  0.055671342	-4.648000E+00	  0.055671342	-6.406100E+01	  0.055671342	3.955400E+01	  0.055671342	-6.339600E+01
180	  0.055871744	-4.648000E+00	  0.055871744	-6.431100E+01	  0.055871744	3.933500E+01	  0.055871744	-6.318100E+01
181	  0.056072142	-4.652000E+00	  0.056072142	-6.459800E+01	  0.056072142	3.911200E+01	  0.056072142	-6.290900E+01
182	  0.056272544	-4.649000E+00	  0.056272544	-6.485700E+01	  0.056272544	3.887300E+01	  0.056272544	-6.270300E+01
183	  0.056472946	-4.650000E+00	  0.056472946	-6.511800E+01	  0.056472946	3.866100E+01	  0.056472946	-6.247100E+01
184	  0.056673344	-4.646000E+00	  0.056673344	-6.534300E+01	  0.056673344	3.844500E+01	  0.056673344	-6.230400E+01
185	  0.056873746	-4.648000E+00	  0.056873746	-6.560300E+01	  0.056873746	3.824000E+01	  0.056873746	-6.207200E+01
186	  0.057074148	-4.643000E+00	  0.057074148	-6.582700E+01	  0.057074148	3.803000E+01	  0.057074148	-6.190400E+01
187	  0.057274550	-4.648000E+00	  0.057274550	-6.606400E+01	  0.057274550	3.786500E+01	  0.057274550	-6.167500E+01
188	  0.057474948	-4.652000E+00	  0.057474948	-6.632300E+01	  0.057474948	3.767300E+01	  0.057474948	-6.143900E+01
189	  0.057675350	-4.651000E+00	  0.057675350	-6.653000E+01	  0.057675350	3.750000E+01	  0.057675350	-6.126800E+01
190	  0.057875752	-4.647000E+00	  0.057875752	-6.679200E+01	  0.057875752	3.727200E+01	  0.057875752	-6.106500E+01
191	  0.058076151	-4.650000E+00	  0.058076151	-6.701600E+01	  0.058076151	3.711100E+01	  0.058076151	-6.086000E+01
192	  0.058276553	-4.651000E+00	  0.058276553	-6.723600E+01	  0.058276553	3.694600E+01	  0.058276553	-6.066800E+01
193	  0.058476955	-4.647000E+00	  0.058476955	-6.748600E+01	  0.058476955	3.672800E+01	  0.058476955	-6.047900E+01
194	  0.058677353	-4.650000E+00	  0.058677353	-6.773800E+01	  0.058677353	3.655100E+01	  0.058677353	-6.025300E+01
195	  0.058877755	-4.647000E+00	  0.058877755	-6.797400E+01	  0.058877755	3.634900E+01	  0.058877755	-6.007500E+01
196	  0.059078157	-4.645000E+00	  0.059078157	-6.822900E+01	  0.059078157	3.614500E+01	  0.059078157	-5.987200E+01
197	  0.059278559	-4.645000E+00	  0.059278559	-6.847800E+01	  0.059278559	3.595700E+01	  0.059278559	-5.966400E+01
198	  0.059478957	-4.641000E+00	  0.059478957	-6.866900E+01	  0.059478957	3.579300E+01	  0.059478957	-5.952600E+01
199	  0.059679359	-4.635000E+00	  0.059679359	-6.888000E+01	  0.059679359	3.560800E+01	  0.059679359	-5.937500E+01
200	  0.059879761	-4.636000E+00	  0.059879761	-6.906700E+01	  0.059879761	3.547200E+01	  0.059879761	-5.921900E+01
201	  0.060080159	-4.637000E+00	  0.060080159	-6.925200E+01	  0.060080159	3.534400E+01	  0.060080159	-5.905900E+01
202	  0.060280561	-4.639000E+00	  0.060280561	-6.942600E+01	  0.060280561	3.522700E+01	  0.060280561	-5.890600E+01
203	  0.060480963	-4.641000E+00	  0.060480963	-6.962400E+01	  0.060480963	3.509500E+01	  0.060480963	-5.873400E+01
204	  0.060681365	-4.652000E+00	  0.060681365	-6.981200E+01	  0.060681365	3.501900E+01	  0.060681365	-5.852800E+01
205	  0.060881764	-4.653000E+00	  0.060881764	-7.005200E+01	  0.060881764	3.485300E+01	  0.060881764	-5.832800E+01
206	  0.061082166	-4.664000E+00	  0.061082166	-7.026500E+01	  0.061082166	3.476600E+01	  0.061082166	-5.809800E+01
207	  0.061282568	-4.665000E+00	  0.061282568	-7.051800E+01	  0.061282568	3.459200E+01	  0.061282568	-5.788800E+01
208	  0.061482966	-4.670000E+00	  0.061482966	-7.078100E+01	  0.061482966	3.443500E+01	  0.061482966	-5.765300E+01
209	  0.061683368	-4.673000E+00	  0.061683368	-7.104100E+01	  0.061683368	3.427100E+01	  0.061683368	-5.743100E+01
210	  0.061883770	-4.671000E+00	  0.061883770	-7.130300E+01	  0.061883770	3.408500E+01	  0.061883770	-5.722600E+01
211	  0.062084168	-4.675000E+00	  0.062084168	-7.154100E+01	  0.062084168	3.394200E+01	  0.062084168	-5.701900E+01
212	  0.062284570	-4.680000E+00	  0.062284570	-7.177200E+01	  0.062284570	3.381500E+01	  0.062284570	-5.680900E+01
213	  0.062484972	-4.671000E+00	  0.062484972	-7.200900E+01	  0.062484972	3.360700E+01	  0.062484972	-5.666100E+01
214	  0.062685370	-4.674000E+00	  0.062685370	-7.223300E+01	  0.062685370	3.347300E+01	  0.062685370	-5.647100E+01
215	  0.062885776	-4.682000E+00	  0.062885776	-7.248600E+01	  0.062885776	3.335300E+01	  0.062885776	-5.623100E+01
216	  0.063086174	-4.681000E+00	  0.063086174	-7.273800E+01	  0.063086174	3.318100E+01	  0.063086174	-5.603700E+01
217	  0.063286573	-4.682000E+00	  0.063286573	-7.296300E+01	  0.063286573	3.304000E+01	  0.063286573	-5.585500E+01
218	  0.063486971	-4.682000E+00	  0.063486971	-7.326300E+01	  0.063486971	3.285000E+01	  0.063486971	-5.561700E+01
219	  0.063687377	-4.684000E+00	  0.063687377	-7.345500E+01	  0.063687377	3.273900E+01	  0.063687377	-5.545800E+01
220	  0.063887775	-4.684000E+00	  0.063887775	-7.376300E+01	  0.063887775	3.254100E+01	  0.063887775	-5.521900E+01
221	  0.064088173	-4.683000E+00	  0.064088173	-7.399900E+01	  0.064088173	3.239100E+01	  0.064088173	-5.503500E+01
222	  0.064288579	-4.682000E+00	  0.064288579	-7.430000E+01	  0.064288579	3.220100E+01	  0.064288579	-5.480400E+01
223	  0.064488977	-4.683000E+00	  0.064488977	-7.453500E+01	  0.064488977	3.205700E+01	  0.064488977	-5.462000E+01
224	  0.064689375	-4.679000E+00	  0.064689375	-7.478300E+01	  0.064689375	3.188900E+01	  0.064689375	-5.444200E+01
225	  0.064889781	-4.683000E+00	  0.064889781	-7.502700E+01	  0.064889781	3.175900E+01	  0.064889781	-5.423900E+01
226	  0.065090179	-4.679000E+00	  0.065090179	-7.526400E+01	  0.065090179	3.160100E+01	  0.065090179	-5.406800E+01
227	  0.065290578	-4.679000E+00	  0.065290578	-7.548800E+01	  0.065290578	3.146600E+01	  0.065290578	-5.389600E+01
228	  0.065490983	-4.678000E+00	  0.065490983	-7.568700E+01	  0.065490983	3.134100E+01	  0.065490983	-5.374900E+01
229	  0.065691382	-4.677000E+00	  0.065691382	-7.590600E+01	  0.065691382	3.120900E+01	  0.065691382	-5.358400E+01
230	  0.065891780	-4.681000E+00	  0.065891780	-7.612000E+01	  0.065891780	3.110800E+01	  0.065891780	-5.340200E+01
231	  0.066092186	-4.681000E+00	  0.066092186	-7.636700E+01	  0.066092186	3.096100E+01	  0.066092186	-5.321700E+01
232	  0.066292584	-4.686000E+00	  0.066292584	-7.658400E+01	  0.066292584	3.086500E+01	  0.066292584	-5.303000E+01
233	  0.066492982	-4.689000E+00	  0.066492982	-7.684800E+01	  0.066492982	3.072900E+01	  0.066492982	-5.281900E+01
234	  0.066693388	-4.680000E+00	  0.066693388	-7.707200E+01	  0.066693388	3.055800E+01	  0.066693388	-5.268100E+01
235	  0.066893786	-4.691000E+00	  0.066893786	-7.736100E+01	  0.066893786	3.044800E+01	  0.066893786	-5.242500E+01
236	  0.067094192	-4.689000E+00	  0.067094192	-7.761200E+01	  0.067094192	3.030300E+01	  0.067094192	-5.224000E+01
237	  0.067294590	-4.691000E+00	  0.067294590	-7.783100E+01	  0.067294590	3.018900E+01	  0.067294590	-5.207100E+01
238	  0.067494988	-4.694000E+00	  0.067494988	-7.812100E+01	  0.067494988	3.004700E+01	  0.067494988	-5.184200E+01
239	  0.067695394	-4.690000E+00	  0.067695394	-7.838200E+01	  0.067695394	2.988500E+01	  0.067695394	-5.166100E+01
240	  0.067895792	-4.691000E+00	  0.067895792	-7.859500E+01	  0.067895792	2.977700E+01	  0.067895792	-5.149800E+01
241	  0.068096191	-4.693000E+00	  0.068096191	-7.881000E+01	  0.068096191	2.967000E+01	  0.068096191	-5.133300E+01
242	  0.068296596	-4.689000E+00	  0.068296596	-7.904700E+01	  0.068296596	2.952500E+01	  0.068296596	-5.117100E+01
243	  0.068496995	-4.686000E+00	  0.068496995	-7.928200E+01	  0.068496995	2.938800E+01	  0.068496995	-5.100700E+01
244	  0.068697393	-4.688000E+00	  0.068697393	-7.952500E+01	  0.068697393	2.927300E+01	  0.068697393	-5.081900E+01
245	  0.068897791	-4.686000E+00	  0.068897791	-7.976500E+01	  0.068897791	2.913800E+01	  0.068897791	-5.065000E+01
246	  0.069098189	-4.689000E+00	  0.069098189	-7.999600E+01	  0.069098189	2.903300E+01	  0.069098189	-5.047000E+01
247	  0.069298595	-4.689000E+00	  0.069298595	-8.023400E+01	  0.069298595	2.891300E+01	  0.069298595	-5.029600E+01
248	  0.069498993	-4.693000E+00	  0.069498993	-8.047600E+01	  0.069498993	2.880900E+01	  0.069498993	-5.010600E+01
249	  0.069699399	-4.696000E+00	  0.069699399	-8.074100E+01	  0.069699399	2.869300E+01	  0.069699399	-4.990100E+01
250	  0.069899797	-4.697000E+00	  0.069899797	-8.096600E+01	  0.069899797	2.858400E+01	  0.069899797	-4.973500E+01
251	  0.070100196	-4.702000E+00	  0.070100196	-8.120100E+01	  0.070100196	2.849100E+01	  0.070100196	-4.954900E+01
252	  0.070300601	-4.693000E+00	  0.070300601	-8.143900E+01	  0.070300601	2.832900E+01	  0.070300601	-4.940800E+01
253	  0.070501000	-4.700000E+00	  0.070501000	-8.167500E+01	  0.070501000	2.824800E+01	  0.070501000	-4.921500E+01
254	  0.070701398	-4.695000E+00	  0.070701398	-8.184800E+01	  0.070701398	2.814300E+01	  0.070701398	-4.910400E+01
255	  0.070901804	-4.692000E+00	  0.070901804	-8.208800E+01	  0.070901804	2.801000E+01	  0.070901804	-4.894400E+01
256	  0.071102202	-4.695000E+00	  0.071102202	-8.230700E+01	  0.071102202	2.792100E+01	  0.071102202	-4.877700E+01
257	  0.071302600	-4.699000E+00	  0.071302600	-8.255700E+01	  0.071302600	2.782100E+01	  0.071302600	-4.858600E+01
258	  0.071503006	-4.701000E+00	  0.071503006	-8.276900E+01	  0.071503006	2.773200E+01	  0.071503006	-4.842800E+01
259	  0.071703404	-4.707000E+00	  0.071703404	-8.299200E+01	  0.071703404	2.765400E+01	  0.071703404	-4.825300E+01
260	  0.071903802	-4.711000E+00	  0.071903802	-8.323300E+01	  0.071903802	2.756100E+01	  0.071903802	-4.806900E+01
261	  0.072104208	-4.708000E+00	  0.072104208	-8.353400E+01	  0.072104208	2.741100E+01	  0.072104208	-4.786400E+01
262	  0.072304606	-4.716000E+00	  0.072304606	-8.377200E+01	  0.072304606	2.733700E+01	  0.072304606	-4.767500E+01
263	  0.072505005	-4.715000E+00	  0.072505005	-8.405300E+01	  0.072505005	2.720900E+01	  0.072505005	-4.747800E+01
264	  0.072705410	-4.717000E+00	  0.072705410	-8.431100E+01	  0.072705410	2.710200E+01	  0.072705410	-4.729200E+01
265	  0.072905809	-4.720000E+00	  0.072905809	-8.455200E+01	  0.072905809	2.700600E+01	  0.072905809	-4.711600E+01
266	  0.073106214	-4.716000E+00	  0.073106214	-8.478200E+01	  0.073106214	2.688700E+01	  0.073106214	-4.696700E+01
267	  0.073306613	-4.714000E+00	  0.073306613	-8.509200E+01	  0.073306613	2.674200E+01	  0.073306613	-4.675800E+01
268	  0.073507011	-4.711000E+00	  0.073507011	-8.532100E+01	  0.073507011	2.663000E+01	  0.073507011	-4.660700E+01
269	  0.073707417	-4.715000E+00	  0.073707417	-8.552300E+01	  0.073707417	2.655800E+01	  0.073707417	-4.645800E+01
270	  0.073907815	-4.707000E+00	  0.073907815	-8.577300E+01	  0.073907815	2.641400E+01	  0.073907815	-4.630800E+01
271	  0.074108213	-4.707000E+00	  0.074108213	-8.600300E+01	  0.074108213	2.631800E+01	  0.074108213	-4.614900E+01
272	  0.074308619	-4.703000E+00	  0.074308619	-8.620900E+01	  0.074308619	2.621100E+01	  0.074308619	-4.601900E+01
273	  0.074509017	-4.705000E+00	  0.074509017	-8.645800E+01	  0.074509017	2.611800E+01	  0.074509017	-4.584300E+01
274	  0.074709415	-4.706000E+00	  0.074709415	-8.666400E+01	  0.074709415	2.603400E+01	  0.074709415	-4.570000E+01
275	  0.074909821	-4.707000E+00	  0.074909821	-8.689300E+01	  0.074909821	2.594400E+01	  0.074909821	-4.554100E+01
276	  0.075110219	-4.707000E+00	  0.075110219	-8.714200E+01	  0.075110219	2.584300E+01	  0.075110219	-4.537100E+01
277	  0.075310618	-4.710000E+00	  0.075310618	-8.737100E+01	  0.075310618	2.576400E+01	  0.075310618	-4.520700E+01
278	  0.075511023	-4.712000E+00	  0.075511023	-8.759000E+01	  0.075511023	2.568200E+01	  0.075511023	-4.505500E+01
279	  0.075711422	-4.714000E+00	  0.075711422	-8.784100E+01	  0.075711422	2.559100E+01	  0.075711422	-4.488000E+01
280	  0.075911827	-4.709000E+00	  0.075911827	-8.806300E+01	  0.075911827	2.547900E+01	  0.075911827	-4.474500E+01
281	  0.076112226	-4.713000E+00	  0.076112226	-8.826600E+01	  0.076112226	2.541900E+01	  0.076112226	-4.459500E+01
282	  0.076312624	-4.707000E+00	  0.076312624	-8.849400E+01	  0.076312624	2.530200E+01	  0.076312624	-4.445900E+01
283	  0.076513030	-4.712000E+00	  0.076513030	-8.874900E+01	  0.076513030	2.522400E+01	  0.076513030	-4.427600E+01
284	  0.076713428	-4.712000E+00	  0.076713428	-8.899000E+01	  0.076713428	2.512800E+01	  0.076713428	-4.411600E+01
285	  0.076913826	-4.719000E+00	  0.076913826	-8.919200E+01	  0.076913826	2.508400E+01	  0.076913826	-4.396200E+01
286	  0.077114232	-4.726000E+00	  0.077114232	-8.944100E+01	  0.077114232	2.501700E+01	  0.077114232	-4.378100E+01
287	  0.077314630	-4.725000E+00	  0.077314630	-8.970600E+01	  0.077314630	2.491200E+01	  0.077314630	-4.360800E+01
288	  0.077515028	-4.727000E+00	  0.077515028	-8.998000E+01	  0.077515028	2.481700E+01	  0.077515028	-4.342200E+01
289	  0.077715434	-4.735000E+00	  0.077715434	-9.023200E+01	  0.077715434	2.475700E+01	  0.077715434	-4.323800E+01
290	  0.077915832	-4.736000E+00	  0.077915832	-9.052200E+01	  0.077915832	2.465600E+01	  0.077915832	-4.304400E+01
291	  0.078116231	-4.734000E+00	  0.078116231	-9.078400E+01	  0.078116231	2.454900E+01	  0.078116231	-4.287900E+01
292	  0.078316636	-4.733000E+00	  0.078316636	-9.103800E+01	  0.078316636	2.445200E+01	  0.078316636	-4.271500E+01
293	  0.078517035	-4.733000E+00	  0.078517035	-9.131800E+01	  0.078517035	2.435100E+01	  0.078517035	-4.253300E+01
294	  0.078717433	-4.729000E+00	  0.078717433	-9.154700E+01	  0.078717433	2.425100E+01	  0.078717433	-4.239400E+01
295	  0.078917839	-4.722000E+00	  0.078917839	-9.178900E+01	  0.078917839	2.413200E+01	  0.078917839	-4.225600E+01
296	  0.079118237	-4.723000E+00	  0.079118237	-9.202200E+01	  0.079118237	2.405700E+01	  0.079118237	-4.210100E+01
297	  0.079318643	-4.714000E+00	  0.079318643	-9.222200E+01	  0.079318643	2.394800E+01	  0.079318643	-4.199300E+01
298	  0.079519041	-4.715000E+00	  0.079519041	-9.244800E+01	  0.079519041	2.387300E+01	  0.079519041	-4.184600E+01
299	  0.079719439	-4.716000E+00	  0.079719439	-9.267700E+01	  0.079719439	2.379900E+01	  0.079719439	-4.169600E+01
300	  0.079919845	-4.715000E+00	  0.079919845	-9.286000E+01	  0.079919845	2.373100E+01	  0.079919845	-4.158100E+01
301	  0.080120243	-4.718000E+00	  0.080120243	-9.304000E+01	  0.080120243	2.368200E+01	  0.080120243	-4.146000E+01
302	  0.080320641	-4.724000E+00	  0.080320641	-9.324500E+01	  0.080320641	2.363400E+01	  0.080320641	-4.131700E+01
303	  0.080521047	-4.724000E+00	  0.080521047	-9.347100E+01	  0.080521047	2.355800E+01	  0.080521047	-4.117300E+01
304	  0.080721445	-4.728000E+00	  0.080721445	-9.368400E+01	  0.080721445	2.350300E+01	  0.080721445	-4.102800E+01
305	  0.080921844	-4.726000E+00	  0.080921844	-9.390800E+01	  0.080921844	2.342000E+01	  0.080921844	-4.089100E+01
306	  0.081122249	-4.730000E+00	  0.081122249	-9.410600E+01	  0.081122249	2.337100E+01	  0.081122249	-4.075700E+01
307	  0.081322648	-4.727000E+00	  0.081322648	-9.433500E+01	  0.081322648	2.328300E+01	  0.081322648	-4.061800E+01
308	  0.081523046	-4.729000E+00	  0.081523046	-9.457000E+01	  0.081523046	2.321500E+01	  0.081523046	-4.046600E+01
309	  0.081723452	-4.729000E+00	  0.081723452	-9.476500E+01	  0.081723452	2.315100E+01	  0.081723452	-4.034400E+01
310	  0.081923850	-4.734000E+00	  0.081923850	-9.497500E+01	  0.081923850	2.310000E+01	  0.081923850	-4.020300E+01
311	  0.082124248	-4.742000E+00	  0.082124248	-9.520800E+01	  0.082124248	2.306100E+01	  0.082124248	-4.003900E+01
312	  0.082324654	-4.741000E+00	  0.082324654	-9.545100E+01	  0.082324654	2.297800E+01	  0.082324654	-3.989000E+01
313	  0.082525052	-4.746000E+00	  0.082525052	-9.569100E+01	  0.082525052	2.292100E+01	  0.082525052	-3.973100E+01
314	  0.082725458	-4.753000E+00	  0.082725458	-9.590900E+01	  0.082725458	2.288000E+01	  0.082725458	-3.958200E+01
315	  0.082925856	-4.762000E+00	  0.082925856	-9.621900E+01	  0.082925856	2.281900E+01	  0.082925856	-3.937200E+01
316	  0.083126254	-4.767000E+00	  0.083126254	-9.649000E+01	  0.083126254	2.275700E+01	  0.083126254	-3.919400E+01
317	  0.083326660	-4.768000E+00	  0.083326660	-9.676600E+01	  0.083326660	2.267300E+01	  0.083326660	-3.902300E+01
318	  0.083527058	-4.769000E+00	  0.083527058	-9.705800E+01	  0.083527058	2.258900E+01	  0.083527058	-3.884200E+01
319	  0.083727457	-4.767000E+00	  0.083727457	-9.735000E+01	  0.083727457	2.249000E+01	  0.083727457	-3.866900E+01
320	  0.083927862	-4.766000E+00	  0.083927862	-9.760800E+01	  0.083927862	2.240800E+01	  0.083927862	-3.851500E+01
321	  0.084128261	-4.762000E+00	  0.084128261	-9.789100E+01	  0.084128261	2.230700E+01	  0.084128261	-3.835100E+01
322	  0.084328659	-4.758000E+00	  0.084328659	-9.816500E+01	  0.084328659	2.220900E+01	  0.084328659	-3.819300E+01
323	  0.084529065	-4.753000E+00	  0.084529065	-9.837100E+01	  0.084529065	2.212900E+01	  0.084529065	-3.807800E+01
324	  0.084729463	-4.751000E+00	  0.084729463	-9.861200E+01	  0.084729463	2.205300E+01	  0.084729463	-3.793500E+01
325	  0.084929861	-4.753000E+00	  0.084929861	-9.882400E+01	  0.084929861	2.199700E+01	  0.084929861	-3.780400E+01
326	  0.085130267	-4.751000E+00	  0.085130267	-9.908000E+01	  0.085130267	2.191700E+01	  0.085130267	-3.765400E+01
327	  0.085330658	-4.745000E+00	  0.085330658	-9.928800E+01	  0.085330658	2.183200E+01	  0.085330658	-3.754100E+01
328	  0.085531056	-4.745000E+00	  0.085531056	-9.950400E+01	  0.085531056	2.177000E+01	  0.085531056	-3.741200E+01
329	  0.085731462	-4.748000E+00	  0.085731462	-9.973000E+01	  0.085731462	2.171800E+01	  0.085731462	-3.727100E+01
330	  0.085931860	-4.751000E+00	  0.085931860	-9.997600E+01	  0.085931860	2.166100E+01	  0.085931860	-3.711900E+01
331	  0.086132258	-4.748000E+00	  0.086132258	-1.002130E+02	  0.086132258	2.158300E+01	  0.086132258	-3.698300E+01
332	  0.086332664	-4.754000E+00	  0.086332664	-1.004310E+02	  0.086332664	2.154400E+01	  0.086332664	-3.684400E+01
333	  0.086533062	-4.749000E+00	  0.086533062	-1.006640E+02	  0.086533062	2.146100E+01	  0.086533062	-3.671500E+01
334	  0.086733460	-4.754000E+00	  0.086733460	-1.008800E+02	  0.086733460	2.142100E+01	  0.086733460	-3.657800E+01
335	  0.086933866	-4.754000E+00	  0.086933866	-1.011130E+02	  0.086933866	2.135700E+01	  0.086933866	-3.644100E+01
336	  0.087134264	-4.756000E+00	  0.087134264	-1.013270E+02	  0.087134264	2.130900E+01	  0.087134264	-3.631100E+01
337	  0.087334670	-4.758000E+00	  0.087334670	-1.015750E+02	  0.087334670	2.124800E+01	  0.087334670	-3.616300E+01
338	  0.087535068	-4.763000E+00	  0.087535068	-1.018160E+02	  0.087535068	2.120400E+01	  0.087535068	-3.601200E+01
339	  0.087735467	-4.766000E+00	  0.087735467	-1.020170E+02	  0.087735467	2.116200E+01	  0.087735467	-3.589000E+01
340	  0.087935872	-4.767000E+00	  0.087935872	-1.022660E+02	  0.087935872	2.110000E+01	  0.087935872	-3.574400E+01
341	  0.088136271	-4.778000E+00	  0.088136271	-1.024950E+02	  0.088136271	2.108200E+01	  0.088136271	-3.559200E+01
342	  0.088336669	-4.777000E+00	  0.088336669	-1.027590E+02	  0.088336669	2.100800E+01	  0.088336669	-3.544100E+01
343	  0.088537075	-4.785000E+00	  0.088537075	-1.030310E+02	  0.088537075	2.096900E+01	  0.088537075	-3.526900E+01
344	  0.088737473	-4.786000E+00	  0.088737473	-1.032790E+02	  0.088737473	2.091000E+01	  0.088737473	-3.512500E+01
345	  0.088937871	-4.789000E+00	  0.088937871	-1.035520E+02	  0.088937871	2.085200E+01	  0.088937871	-3.496300E+01
346	  0.089138277	-4.783000E+00	  0.089138277	-1.038510E+02	  0.089138277	2.075200E+01	  0.089138277	-3.480200E+01
347	  0.089338675	-4.786000E+00	  0.089338675	-1.040940E+02	  0.089338675	2.070100E+01	  0.089338675	-3.465800E+01
348	  0.089539073	-4.777000E+00	  0.089539073	-1.043690E+02	  0.089539073	2.059900E+01	  0.089539073	-3.451600E+01
349	  0.089739479	-4.783000E+00	  0.089739479	-1.045740E+02	  0.089739479	2.057100E+01	  0.089739479	-3.438900E+01
350	  0.089939877	-4.769000E+00	  0.089939877	-1.048440E+02	  0.089939877	2.045500E+01	  0.089939877	-3.425800E+01
351	  0.090140276	-4.768000E+00	  0.090140276	-1.050380E+02	  0.090140276	2.040200E+01	  0.090140276	-3.414900E+01
352	  0.090340681	-4.765000E+00	  0.090340681	-1.052680E+02	  0.090340681	2.033400E+01	  0.090340681	-3.402400E+01
353	  0.090541080	-4.767000E+00	  0.090541080	-1.054890E+02	  0.090541080	2.028800E+01	  0.090541080	-3.389600E+01
354	  0.090741485	-4.765000E+00	  0.090741485	-1.057250E+02	  0.090741485	2.022700E+01	  0.090741485	-3.376500E+01
355	  0.090941884	-4.765000E+00	  0.090941884	-1.059280E+02	  0.090941884	2.017900E+01	  0.090941884	-3.365000E+01
356	  0.091142282	-4.773000E+00	  0.091142282	-1.061410E+02	  0.091142282	2.015700E+01	  0.091142282	-3.351900E+01
357	  0.091342688	-4.776000E+00	  0.091342688	-1.063930E+02	  0.091342688	2.010900E+01	  0.091342688	-3.337300E+01
358	  0.091543086	-4.782000E+00	  0.091543086	-1.066120E+02	  0.091543086	2.008000E+01	  0.091543086	-3.324100E+01
359	  0.091743484	-4.777000E+00	  0.091743484	-1.068500E+02	  0.091743484	2.000500E+01	  0.091743484	-3.311600E+01
360	  0.091943890	-4.787000E+00	  0.091943890	-1.070800E+02	  0.091943890	1.998900E+01	  0.091943890	-3.297300E+01
361	  0.092144288	-4.782000E+00	  0.092144288	-1.073200E+02	  0.092144288	1.991600E+01	  0.092144288	-3.284700E+01
362	  0.092344686	-4.788000E+00	  0.092344686	-1.075340E+02	  0.092344686	1.988900E+01	  0.092344686	-3.271900E+01
363	  0.092545092	-4.784000E+00	  0.092545092	-1.077770E+02	  0.092545092	1.982000E+01	  0.092545092	-3.259100E+01
364	  0.092745490	-4.788000E+00	  0.092745490	-1.080200E+02	  0.092745490	1.978000E+01	  0.092745490	-3.245000E+01
365	  0.092945889	-4.795000E+00	  0.092945889	-1.082640E+02	  0.092945889	1.974900E+01	  0.092945889	-3.230600E+01
366	  0.093146294	-4.796000E+00	  0.093146294	-1.085010E+02	  0.093146294	1.970200E+01	  0.093146294	-3.217400E+01
367	  0.093346693	-4.802000E+00	  0.093346693	-1.087560E+02	  0.093346693	1.966900E+01	  0.093346693	-3.202500E+01
368	  0.093547091	-4.804000E+00	  0.093547091	-1.090050E+02	  0.093547091	1.961800E+01	  0.093547091	-3.188700E+01
369	  0.093747497	-4.810000E+00	  0.093747497	-1.092410E+02	  0.093747497	1.959100E+01	  0.093747497	-3.174800E+01
370	  0.093947895	-4.811000E+00	  0.093947895	-1.094980E+02	  0.093947895	1.953800E+01	  0.093947895	-3.160800E+01
371	  0.094148301	-4.815000E+00	  0.094148301	-1.097520E+02	  0.094148301	1.950000E+01	  0.094148301	-3.146300E+01
372	  0.094348699	-4.811000E+00	  0.094348699	-1.100460E+02	  0.094348699	1.942200E+01	  0.094348699	-3.130900E+01
373	  0.094549097	-4.813000E+00	  0.094549097	-1.103020E+02	  0.094549097	1.937300E+01	  0.094549097	-3.116900E+01
374	  0.094749503	-4.813000E+00	  0.094749503	-1.105590E+02	  0.094749503	1.931900E+01	  0.094749503	-3.103000E+01
375	  0.094949901	-4.808000E+00	  0.094949901	-1.107780E+02	  0.094949901	1.925800E+01	  0.094949901	-3.091800E+01
376	  0.095150299	-4.801000E+00	  0.095150299	-1.110590E+02	  0.095150299	1.917500E+01	  0.095150299	-3.077600E+01
377	  0.095350705	-4.800000E+00	  0.095350705	-1.112800E+02	  0.095350705	1.912600E+01	  0.095350705	-3.065900E+01
378	  0.095551103	-4.800000E+00	  0.095551103	-1.114710E+02	  0.095551103	1.908500E+01	  0.095551103	-3.055700E+01
379	  0.095751502	-4.798000E+00	  0.095751502	-1.117350E+02	  0.095751502	1.902400E+01	  0.095751502	-3.041900E+01
380	  0.095951907	-4.798000E+00	  0.095951907	-1.119340E+02	  0.095951907	1.898600E+01	  0.095951907	-3.031200E+01
381	  0.096152306	-4.799000E+00	  0.096152306	-1.121320E+02	  0.096152306	1.894900E+01	  0.096152306	-3.020500E+01
382	  0.096352704	-4.803000E+00	  0.096352704	-1.123650E+02	  0.096352704	1.891800E+01	  0.096352704	-3.007500E+01
383	  0.096553110	-4.810000E+00	  0.096553110	-1.126030E+02	  0.096553110	1.889400E+01	  0.096553110	-2.994000E+01
384	  0.096753508	-4.808000E+00	  0.096753508	-1.128020E+02	  0.096753508	1.884900E+01	  0.096753508	-2.983700E+01
385	  0.096953906	-4.808000E+00	  0.096953906	-1.130490E+02	  0.096953906	1.880000E+01	  0.096953906	-2.970700E+01
386	  0.097154312	-4.811000E+00	  0.097154312	-1.132940E+02	  0.097154312	1.876300E+01	  0.097154312	-2.957300E+01
387	  0.097354710	-4.817000E+00	  0.097354710	-1.135280E+02	  0.097354710	1.873800E+01	  0.097354710	-2.944200E+01
388	  0.097555116	-4.817000E+00	  0.097555116	-1.137580E+02	  0.097555116	1.869300E+01	  0.097555116	-2.932200E+01
389	  0.097755514	-4.820000E+00	  0.097755514	-1.140160E+02	  0.097755514	1.865500E+01	  0.097755514	-2.918300E+01
390	  0.097955912	-4.821000E+00	  0.097955912	-1.142570E+02	  0.097955912	1.861300E+01	  0.097955912	-2.905500E+01
391	  0.098156318	-4.822000E+00	  0.098156318	-1.144980E+02	  0.098156318	1.857000E+01	  0.098156318	-2.892800E+01
392	  0.098356716	-4.824000E+00	  0.098356716	-1.147670E+02	  0.098356716	1.852900E+01	  0.098356716	-2.878500E+01
393	  0.098557115	-4.827000E+00	  0.098557115	-1.150130E+02	  0.098557115	1.849300E+01	  0.098557115	-2.865300E+01
394	  0.098757520	-4.833000E+00	  0.098757520	-1.152470E+02	  0.098757520	1.846800E+01	  0.098757520	-2.852500E+01
395	  0.098957919	-4.836000E+00	  0.098957919	-1.154960E+02	  0.098957919	1.843300E+01	  0.098957919	-2.839200E+01
396	  0.099158317	-4.835000E+00	  0.099158317	-1.157640E+02	  0.099158317	1.838100E+01	  0.099158317	-2.825500E+01
397	  0.099358723	-4.836000E+00	  0.099358723	-1.160360E+02	  0.099358723	1.833700E+01	  0.099358723	-2.811300E+01
398	  0.099559121	-4.837000E+00	  0.099559121	-1.162950E+02	  0.099559121	1.829200E+01	  0.099559121	-2.797900E+01
399	  0.099759519	-4.836000E+00	  0.099759519	-1.165640E+02	  0.099759519	1.824100E+01	  0.099759519	-2.784100E+01
400	  0.099959925	-4.825000E+00	  0.099959925	-1.168000E+02	  0.099959925	1.816300E+01	  0.099959925	-2.773300E+01
401	  0.100160323	-4.825000E+00	  0.100160323	-1.170480E+02	  0.100160323	1.811900E+01	  0.100160323	-2.760600E+01
402	  0.100360721	-4.818000E+00	  0.100360721	-1.173280E+02	  0.100360721	1.804900E+01	  0.100360721	-2.747000E+01
403	  0.100561127	-4.819000E+00	  0.100561127	-1.175500E+02	  0.100561127	1.801300E+01	  0.100561127	-2.735600E+01
404	  0.100761525	-4.814000E+00	  0.100761525	-1.177880E+02	  0.100761525	1.795600E+01	  0.100761525	-2.724000E+01
405	  0.100961931	-4.817000E+00	  0.100961931	-1.179430E+02	  0.100961931	1.793900E+01	  0.100961931	-2.715800E+01
406	  0.101162329	-4.810000E+00	  0.101162329	-1.181600E+02	  0.101162329	1.787600E+01	  0.101162329	-2.705600E+01
407	  0.101362728	-4.814000E+00	  0.101362728	-1.183560E+02	  0.101362728	1.785900E+01	  0.101362728	-2.695100E+01
408	  0.101563133	-4.811000E+00	  0.101563133	-1.185970E+02	  0.101563133	1.780700E+01	  0.101563133	-2.683300E+01
409	  0.101763532	-4.823000E+00	  0.101763532	-1.188010E+02	  0.101763532	1.781300E+01	  0.101763532	-2.671700E+01
410	  0.101963930	-4.816000E+00	  0.101963930	-1.190330E+02	  0.101963930	1.775200E+01	  0.101963930	-2.660700E+01
411	  0.102164336	-4.826000E+00	  0.102164336	-1.192100E+02	  0.102164336	1.775700E+01	  0.102164336	-2.650600E+01
412	  0.102364734	-4.824000E+00	  0.102364734	-1.194700E+02	  0.102364734	1.770800E+01	  0.102364734	-2.637800E+01
413	  0.102565132	-4.838000E+00	  0.102565132	-1.196880E+02	  0.102565132	1.771900E+01	  0.102565132	-2.625300E+01
414	  0.102765530	-4.829000E+00	  0.102765530	-1.199040E+02	  0.102765530	1.765400E+01	  0.102765530	-2.615400E+01
415	  0.102965929	-4.843000E+00	  0.102965929	-1.201540E+02	  0.102965929	1.766000E+01	  0.102965929	-2.601400E+01
416	  0.103166327	-4.846000E+00	  0.103166327	-1.203920E+02	  0.103166327	1.763200E+01	  0.103166327	-2.589200E+01
417	  0.103366733	-4.851000E+00	  0.103366733	-1.206680E+02	  0.103366733	1.760300E+01	  0.103366733	-2.575000E+01
418	  0.103567131	-4.857000E+00	  0.103567131	-1.209190E+02	  0.103567131	1.758500E+01	  0.103567131	-2.561800E+01
419	  0.103767529	-4.860000E+00	  0.103767529	-1.211510E+02	  0.103767529	1.755700E+01	  0.103767529	-2.550000E+01
420	  0.103967935	-4.864000E+00	  0.103967935	-1.214520E+02	  0.103967935	1.752200E+01	  0.103967935	-2.534700E+01
421	  0.104168333	-4.865000E+00	  0.104168333	-1.217060E+02	  0.104168333	1.748700E+01	  0.104168333	-2.522000E+01
422	  0.104368731	-4.873000E+00	  0.104368731	-1.220050E+02	  0.104368731	1.746700E+01	  0.104368731	-2.506500E+01
423	  0.104569137	-4.873000E+00	  0.104569137	-1.222800E+02	  0.104569137	1.742700E+01	  0.104569137	-2.492900E+01
424	  0.104769535	-4.873000E+00	  0.104769535	-1.225400E+02	  0.104769535	1.738700E+01	  0.104769535	-2.480200E+01
425	  0.104969934	-4.874000E+00	  0.104969934	-1.228360E+02	  0.104969934	1.734500E+01	  0.104969934	-2.465600E+01
426	  0.105170339	-4.874000E+00	  0.105170339	-1.231500E+02	  0.105170339	1.729800E+01	  0.105170339	-2.450200E+01
427	  0.105370738	-4.876000E+00	  0.105370738	-1.234330E+02	  0.105370738	1.726300E+01	  0.105370738	-2.436200E+01
428	  0.105571143	-4.871000E+00	  0.105571143	-1.236820E+02	  0.105571143	1.721200E+01	  0.105571143	-2.424500E+01
429	  0.105771542	-4.873000E+00	  0.105771542	-1.239590E+02	  0.105771542	1.717700E+01	  0.105771542	-2.410900E+01
430	  0.105971940	-4.852000E+00	  0.105971940	-1.242000E+02	  0.105971940	1.707600E+01	  0.105971940	-2.401100E+01
431	  0.106172346	-4.852000E+00	  0.106172346	-1.244270E+02	  0.106172346	1.704500E+01	  0.106172346	-2.390100E+01
432	  0.106372744	-4.854000E+00	  0.106372744	-1.246570E+02	  0.106372744	1.701700E+01	  0.106372744	-2.378700E+01
433	  0.106573142	-4.855000E+00	  0.106573142	-1.248720E+02	  0.106573142	1.699100E+01	  0.106573142	-2.368200E+01
434	  0.106773548	-4.848000E+00	  0.106773548	-1.251190E+02	  0.106773548	1.693400E+01	  0.106773548	-2.356900E+01
435	  0.106973946	-4.855000E+00	  0.106973946	-1.253380E+02	  0.106973946	1.692400E+01	  0.106973946	-2.345800E+01
436	  0.107174344	-4.852000E+00	  0.107174344	-1.255550E+02	  0.107174344	1.688600E+01	  0.107174344	-2.335500E+01
437	  0.107374750	-4.848000E+00	  0.107374750	-1.258090E+02	  0.107374750	1.683900E+01	  0.107374750	-2.323700E+01
438	  0.107575148	-4.846000E+00	  0.107575148	-1.260240E+02	  0.107575148	1.680300E+01	  0.107575148	-2.313500E+01
439	  0.107775547	-4.851000E+00	  0.107775547	-1.262180E+02	  0.107775547	1.679300E+01	  0.107775547	-2.303700E+01
440	  0.107975952	-4.855000E+00	  0.107975952	-1.264680E+02	  0.107975952	1.677100E+01	  0.107975952	-2.291400E+01
441	  0.108176351	-4.858000E+00	  0.108176351	-1.266470E+02	  0.108176351	1.675700E+01	  0.108176351	-2.282600E+01
442	  0.108376749	-4.856000E+00	  0.108376749	-1.268890E+02	  0.108376749	1.671700E+01	  0.108376749	-2.271200E+01
443	  0.108577155	-4.869000E+00	  0.108577155	-1.271380E+02	  0.108577155	1.672400E+01	  0.108577155	-2.258200E+01
444	  0.108777553	-4.872000E+00	  0.108777553	-1.273870E+02	  0.108777553	1.670300E+01	  0.108777553	-2.246000E+01
445	  0.108977959	-4.869000E+00	  0.108977959	-1.275800E+02	  0.108977959	1.666900E+01	  0.108977959	-2.237100E+01
446	  0.109178357	-4.876000E+00	  0.109178357	-1.277950E+02	  0.109178357	1.666100E+01	  0.109178357	-2.226400E+01
447	  0.109378755	-4.886000E+00	  0.109378755	-1.281430E+02	  0.109378755	1.664900E+01	  0.109378755	-2.209000E+01
448	  0.109579161	-4.887000E+00	  0.109579161	-1.283530E+02	  0.109579161	1.662600E+01	  0.109579161	-2.198900E+01
449	  0.109779559	-4.886000E+00	  0.109779559	-1.285600E+02	  0.109779559	1.659500E+01	  0.109779559	-2.189300E+01
450	  0.109979957	-4.893000E+00	  0.109979957	-1.288710E+02	  0.109979957	1.657800E+01	  0.109979957	-2.174000E+01
451	  0.110180363	-4.899000E+00	  0.110180363	-1.290850E+02	  0.110180363	1.656800E+01	  0.110180363	-2.163500E+01
452	  0.110380761	-4.902000E+00	  0.110380761	-1.293360E+02	  0.110380761	1.654800E+01	  0.110380761	-2.151400E+01
453	  0.110581160	-4.903000E+00	  0.110581160	-1.296670E+02	  0.110581160	1.651000E+01	  0.110581160	-2.135800E+01
454	  0.110781565	-4.909000E+00	  0.110781565	-1.299440E+02	  0.110781565	1.649300E+01	  0.110781565	-2.122500E+01
455	  0.110981964	-4.908000E+00	  0.110981964	-1.301770E+02	  0.110981964	1.646100E+01	  0.110981964	-2.111600E+01
456	  0.111182362	-4.904000E+00	  0.111182362	-1.304620E+02	  0.111182362	1.641500E+01	  0.111182362	-2.098700E+01
457	  0.111382768	-4.897000E+00	  0.111382768	-1.307110E+02	  0.111382768	1.636400E+01	  0.111382768	-2.087600E+01
458	  0.111583166	-4.895000E+00	  0.111583166	-1.309560E+02	  0.111583166	1.633000E+01	  0.111583166	-2.076300E+01
459	  0.111783572	-4.899000E+00	  0.111783572	-1.312150E+02	  0.111783572	1.631100E+01	  0.111783572	-2.064000E+01
460	  0.111983970	-4.900000E+00	  0.111983970	-1.314660E+02	  0.111983970	1.628600E+01	  0.111983970	-2.052200E+01
461	  0.112184368	-4.898000E+00	  0.112184368	-1.316940E+02	  0.112184368	1.625100E+01	  0.112184368	-2.041900E+01
462	  0.112384774	-4.898000E+00	  0.112384774	-1.319580E+02	  0.112384774	1.622100E+01	  0.112384774	-2.029700E+01
463	  0.112585172	-4.893000E+00	  0.112585172	-1.321780E+02	  0.112585172	1.618000E+01	  0.112585172	-2.019900E+01
464	  0.112785570	-4.889000E+00	  0.112785570	-1.324210E+02	  0.112785570	1.614100E+01	  0.112785570	-2.008900E+01
465	  0.112985976	-4.888000E+00	  0.112985976	-1.326570E+02	  0.112985976	1.611300E+01	  0.112985976	-1.998100E+01
466	  0.113186374	-4.892000E+00	  0.113186374	-1.329000E+02	  0.113186374	1.609500E+01	  0.113186374	-1.986700E+01
467	  0.113386773	-4.895000E+00	  0.113386773	-1.331550E+02	  0.113386773	1.607700E+01	  0.113386773	-1.974700E+01
468	  0.113587178	-4.888000E+00	  0.113587178	-1.333530E+02	  0.113587178	1.603300E+01	  0.113587178	-1.966100E+01
469	  0.113787577	-4.893000E+00	  0.113787577	-1.336150E+02	  0.113787577	1.601900E+01	  0.113787577	-1.953800E+01
470	  0.113987975	-4.890000E+00	  0.113987975	-1.338490E+02	  0.113987975	1.598800E+01	  0.113987975	-1.943200E+01
471	  0.114188381	-4.887000E+00	  0.114188381	-1.340580E+02	  0.114188381	1.595400E+01	  0.114188381	-1.933900E+01
472	  0.114388779	-4.887000E+00	  0.114388779	-1.343340E+02	  0.114388779	1.592600E+01	  0.114388779	-1.921300E+01
473	  0.114589177	-4.893000E+00	  0.114589177	-1.345670E+02	  0.114589177	1.591800E+01	  0.114589177	-1.910300E+01
474	  0.114789583	-4.887000E+00	  0.114789583	-1.348050E+02	  0.114789583	1.587500E+01	  0.114789583	-1.899800E+01
475	  0.114989981	-4.895000E+00	  0.114989981	-1.350510E+02	  0.114989981	1.587400E+01	  0.114989981	-1.888100E+01
476	  0.115190387	-4.889000E+00	  0.115190387	-1.352890E+02	  0.115190387	1.583100E+01	  0.115190387	-1.877700E+01
477	  0.115390785	-4.889000E+00	  0.115390785	-1.355010E+02	  0.115390785	1.580800E+01	  0.115390785	-1.868100E+01
478	  0.115591183	-4.894000E+00	  0.115591183	-1.357810E+02	  0.115591183	1.579500E+01	  0.115591183	-1.855000E+01
479	  0.115791589	-4.891000E+00	  0.115791589	-1.360010E+02	  0.115791589	1.576400E+01	  0.115791589	-1.845200E+01
480	  0.115991987	-4.894000E+00	  0.115991987	-1.362330E+02	  0.115991987	1.574900E+01	  0.115991987	-1.834600E+01
481	  0.116192386	-4.890000E+00	  0.116192386	-1.364680E+02	  0.116192386	1.571300E+01	  0.116192386	-1.824200E+01
482	  0.116392791	-4.887000E+00	  0.116392791	-1.367050E+02	  0.116392791	1.568000E+01	  0.116392791	-1.813700E+01
483	  0.116593190	-4.890000E+00	  0.116593190	-1.369450E+02	  0.116593190	1.566600E+01	  0.116593190	-1.802700E+01
484	  0.116793588	-4.891000E+00	  0.116793588	-1.371880E+02	  0.116793588	1.564600E+01	  0.116793588	-1.791700E+01
485	  0.116993994	-4.889000E+00	  0.116993994	-1.374220E+02	  0.116993994	1.561600E+01	  0.116993994	-1.781400E+01
486	  0.117194392	-4.892000E+00	  0.117194392	-1.376440E+02	  0.117194392	1.560400E+01	  0.117194392	-1.771200E+01
487	  0.117394790	-4.894000E+00	  0.117394790	-1.379080E+02	  0.117394790	1.558400E+01	  0.117394790	-1.759300E+01
488	  0.117595196	-4.894000E+00	  0.117595196	-1.381020E+02	  0.117595196	1.556500E+01	  0.117595196	-1.750600E+01
489	  0.117795594	-4.885000E+00	  0.117795594	-1.383270E+02	  0.117795594	1.551700E+01	  0.117795594	-1.741000E+01
490	  0.117995992	-4.867000E+00	  0.117995992	-1.385880E+02	  0.117995992	1.543900E+01	  0.117995992	-1.730500E+01
491	  0.118196398	-4.892000E+00	  0.118196398	-1.388050E+02	  0.118196398	1.549300E+01	  0.118196398	-1.719300E+01
492	  0.118396796	-4.896000E+00	  0.118396796	-1.390250E+02	  0.118396796	1.548400E+01	  0.118396796	-1.709200E+01
493	  0.118597202	-4.901000E+00	  0.118597202	-1.392820E+02	  0.118597202	1.547700E+01	  0.118597202	-1.697400E+01
494	  0.118797600	-4.903000E+00	  0.118797600	-1.395040E+02	  0.118797600	1.546300E+01	  0.118797600	-1.687400E+01
495	  0.118997999	-4.905000E+00	  0.118997999	-1.397640E+02	  0.118997999	1.544400E+01	  0.118997999	-1.675800E+01
496	  0.119198404	-4.902000E+00	  0.119198404	-1.399570E+02	  0.119198404	1.541600E+01	  0.119198404	-1.667400E+01
497	  0.119398803	-4.903000E+00	  0.119398803	-1.402000E+02	  0.119398803	1.540000E+01	  0.119398803	-1.656600E+01
498	  0.119599201	-4.905000E+00	  0.119599201	-1.404520E+02	  0.119599201	1.538200E+01	  0.119599201	-1.645400E+01
499	  0.119799607	-4.916000E+00	  0.119799607	-1.406890E+02	  0.119799607	1.539200E+01	  0.119799607	-1.634200E+01
500	  0.120000005	-4.913000E+00	  0.120000005	-1.409390E+02	  0.120000005	1.536400E+01	  0.120000005	-1.623300E+01
