! Anritsu VNA Master:             	Model: MS2036C/10/77
! SN:             	1601066
! /bd0/18may09/254.ns.m11.txt
! Existing Calibration Information:
! TYPE:             	Current Settings	Active Cal Settings
! TIME:             	05/09/2018 01:06:25 PM	05/09/2018 12:54:36 PM
! INTERNAL TEMP:    	58.8 C	58.3 C
! # POINTS:         	494	494
! START FREQ:       	20.000 MHz	20.000 MHz
! STOP FREQ:        	118.797 594 MHz	118.797 594 MHz
! SOURCE POWER:     	High	High
! IFBW:             	50 Hz	50 Hz
! AVG FACTOR:       	  1 	  1 
! REF PLANE 1:      	0 mm	0 mm
! REF PLANE 2:      	0 mm	0 mm
! CAL TYPE:         	Full S22	Full S22
! CAL METHOD:       	SOLT	SOLT
! CAL LINE TYPE:    	Coax	Coax
! DUT PORT 1:       	K-Conn(M)	K-Conn(M)
! DUT PORT 2:       	K-Conn(M)	K-Conn(M)
! CAL STATUS:       	OK: Accuracy High	--
! PROP-V:       	0.700
! CABLE LOSS:       	0.000 dB/m
! REF IMPEDANCE:       	50.0
! Trace Specific Parameters:	TR1	TR2	TR3	TR4
! TRACE.#.Y (GRAPH TYPE)	LOG MAG	PHASE	REAL IMPEDANCE	IMAGINARY IMPEDANCE
! TRACE.#.X 	FREQ.GHZ	FREQ.GHZ	FREQ.GHZ	FREQ.GHZ
! S-PARAMETER	S22	S22	S22	S22
! SMOOTH/APERTURE %	0	0	0	0
! WINDOW	NSL	NSL	NSL	NSL
! GATING	OFF	OFF	OFF	OFF
! FGTD	OFF	OFF	OFF	OFF
Marker Information per Trace:	TR1	TR2	TR3	TR4
!MK1	--	"MK1 TR2:  20.000 MHz,PH:-126.68°"	--	--
!MK2	--	--	"MK2 TR3:  70.100 200 MHz,Z:(16.529 ohm, -1.557 ohm)"	--
!MK3	--	--	--	--
!MK4	--	--	--	--
!MK5	--	--	--	--
!MK6	--	--	--	--
!MK7	--	--	--	--
!MK8	--	--	--	--
PNT	TR1.FREQ.GHZ	TR1.LOG MAG.dB	TR2.FREQ.GHZ	TR2.PHASE.deg	TR3.FREQ.GHZ	TR3.REAL IMPEDANCE.ohm	TR4.FREQ.GHZ	TR4.IMAGINARY IMPEDANCE.ohm
1	  0.020000000	-6.310000E-01	  0.020000000	-1.266770E+02	  0.020000000	2.275000E+00	  0.020000000	-2.506300E+01
2	  0.020200402	-6.360000E-01	  0.020200402	-1.281470E+02	  0.020200402	2.262000E+00	  0.020200402	-2.426600E+01
3	  0.020400802	-6.400000E-01	  0.020400802	-1.296480E+02	  0.020400802	2.250000E+00	  0.020400802	-2.346300E+01
4	  0.020601204	-6.450000E-01	  0.020601204	-1.311580E+02	  0.020601204	2.238000E+00	  0.020601204	-2.266400E+01
5	  0.020801604	-6.480000E-01	  0.020801604	-1.327050E+02	  0.020801604	2.223000E+00	  0.020801604	-2.185700E+01
6	  0.021002004	-6.510000E-01	  0.021002004	-1.342560E+02	  0.021002004	2.206000E+00	  0.021002004	-2.105600E+01
7	  0.021202406	-6.540000E-01	  0.021202406	-1.358120E+02	  0.021202406	2.194000E+00	  0.021202406	-2.026200E+01
8	  0.021402806	-6.580000E-01	  0.021402806	-1.373700E+02	  0.021402806	2.182000E+00	  0.021402806	-1.947600E+01
9	  0.021603208	-6.630000E-01	  0.021603208	-1.389150E+02	  0.021603208	2.174000E+00	  0.021603208	-1.870500E+01
10	  0.021803608	-6.660000E-01	  0.021803608	-1.404840E+02	  0.021803608	2.163000E+00	  0.021803608	-1.792900E+01
11	  0.022004008	-6.710000E-01	  0.022004008	-1.420390E+02	  0.022004008	2.159000E+00	  0.022004008	-1.716800E+01
12	  0.022204408	-6.780000E-01	  0.022204408	-1.436160E+02	  0.022204408	2.163000E+00	  0.022204408	-1.640300E+01
13	  0.022404809	-6.870000E-01	  0.022404809	-1.452030E+02	  0.022404809	2.171000E+00	  0.022404809	-1.564000E+01
14	  0.022605211	-6.900000E-01	  0.022605211	-1.468180E+02	  0.022605211	2.162000E+00	  0.022605211	-1.487100E+01
15	  0.022805611	-6.920000E-01	  0.022805611	-1.484330E+02	  0.022805611	2.149000E+00	  0.022805611	-1.410800E+01
16	  0.023006011	-6.960000E-01	  0.023006011	-1.500440E+02	  0.023006011	2.147000E+00	  0.023006011	-1.335300E+01
17	  0.023206413	-7.030000E-01	  0.023206413	-1.516400E+02	  0.023206413	2.151000E+00	  0.023206413	-1.261000E+01
18	  0.023406813	-7.090000E-01	  0.023406813	-1.532340E+02	  0.023406813	2.157000E+00	  0.023406813	-1.187400E+01
19	  0.023607215	-7.190000E-01	  0.023607215	-1.548360E+02	  0.023607215	2.171000E+00	  0.023607215	-1.113900E+01
20	  0.023807615	-7.260000E-01	  0.023807615	-1.564570E+02	  0.023807615	2.181000E+00	  0.023807615	-1.040000E+01
21	  0.024008015	-7.340000E-01	  0.024008015	-1.580990E+02	  0.024008015	2.190000E+00	  0.024008015	-9.655000E+00
22	  0.024208417	-7.420000E-01	  0.024208417	-1.597420E+02	  0.024208417	2.203000E+00	  0.024208417	-8.915000E+00
23	  0.024408817	-7.490000E-01	  0.024408817	-1.614060E+02	  0.024408817	2.212000E+00	  0.024408817	-8.169000E+00
24	  0.024609219	-7.550000E-01	  0.024609219	-1.630650E+02	  0.024609219	2.221000E+00	  0.024609219	-7.429000E+00
25	  0.024809619	-7.640000E-01	  0.024809619	-1.647310E+02	  0.024809619	2.238000E+00	  0.024809619	-6.688000E+00
26	  0.025010020	-7.740000E-01	  0.025010020	-1.663970E+02	  0.025010020	2.258000E+00	  0.025010020	-5.951000E+00
27	  0.025210422	-7.840000E-01	  0.025210422	-1.680850E+02	  0.025210422	2.282000E+00	  0.025210422	-5.206000E+00
28	  0.025410822	-7.930000E-01	  0.025410822	-1.697890E+02	  0.025410822	2.300000E+00	  0.025410822	-4.457000E+00
29	  0.025611224	-8.040000E-01	  0.025611224	-1.715050E+02	  0.025611224	2.326000E+00	  0.025611224	-3.705000E+00
30	  0.025811624	-8.160000E-01	  0.025811624	-1.732220E+02	  0.025811624	2.357000E+00	  0.025811624	-2.954000E+00
31	  0.026012026	-8.270000E-01	  0.026012026	-1.749700E+02	  0.026012026	2.384000E+00	  0.026012026	-2.190000E+00
32	  0.026212426	-8.380000E-01	  0.026212426	-1.767190E+02	  0.026212426	2.412000E+00	  0.026212426	-1.428000E+00
33	  0.026412826	-8.510000E-01	  0.026412826	-1.784880E+02	  0.026412826	2.450000E+00	  0.026412826	-6.570000E-01
34	  0.026613226	-8.660000E-01	  0.026613226	1.797360E+02	  0.026613226	2.492000E+00	  0.026613226	1.140000E-01
35	  0.026813626	-8.810000E-01	  0.026813626	1.779460E+02	  0.026813626	2.535000E+00	  0.026813626	8.930000E-01
36	  0.027014028	-8.970000E-01	  0.027014028	1.761560E+02	  0.027014028	2.583000E+00	  0.027014028	1.673000E+00
37	  0.027214428	-9.120000E-01	  0.027214428	1.743520E+02	  0.027214428	2.630000E+00	  0.027214428	2.459000E+00
38	  0.027414829	-9.280000E-01	  0.027414829	1.725440E+02	  0.027414829	2.680000E+00	  0.027414829	3.248000E+00
39	  0.027615231	-9.460000E-01	  0.027615231	1.707200E+02	  0.027615231	2.738000E+00	  0.027615231	4.045000E+00
40	  0.027815631	-9.640000E-01	  0.027815631	1.688800E+02	  0.027815631	2.798000E+00	  0.027815631	4.851000E+00
41	  0.028016033	-9.810000E-01	  0.028016033	1.670370E+02	  0.028016033	2.857000E+00	  0.028016033	5.662000E+00
42	  0.028216433	-1.000000E+00	  0.028216433	1.651710E+02	  0.028216433	2.924000E+00	  0.028216433	6.484000E+00
43	  0.028416833	-1.019000E+00	  0.028416833	1.633100E+02	  0.028416833	2.994000E+00	  0.028416833	7.308000E+00
44	  0.028617235	-1.040000E+00	  0.028617235	1.614410E+02	  0.028617235	3.070000E+00	  0.028617235	8.139000E+00
45	  0.028817635	-1.060000E+00	  0.028817635	1.595770E+02	  0.028817635	3.147000E+00	  0.028817635	8.972000E+00
46	  0.029018037	-1.083000E+00	  0.029018037	1.577020E+02	  0.029018037	3.233000E+00	  0.029018037	9.814000E+00
47	  0.029218437	-1.106000E+00	  0.029218437	1.558290E+02	  0.029218437	3.324000E+00	  0.029218437	1.066000E+01
48	  0.029418837	-1.131000E+00	  0.029418837	1.539250E+02	  0.029418837	3.426000E+00	  0.029418837	1.152500E+01
49	  0.029619239	-1.155000E+00	  0.029619239	1.520160E+02	  0.029619239	3.525000E+00	  0.029619239	1.240000E+01
50	  0.029819639	-1.181000E+00	  0.029819639	1.501070E+02	  0.029819639	3.634000E+00	  0.029819639	1.328100E+01
51	  0.030020041	-1.208000E+00	  0.030020041	1.481910E+02	  0.030020041	3.752000E+00	  0.030020041	1.417200E+01
52	  0.030220442	-1.233000E+00	  0.030220442	1.462640E+02	  0.030220442	3.869000E+00	  0.030220442	1.507700E+01
53	  0.030420844	-1.260000E+00	  0.030420844	1.443600E+02	  0.030420844	3.992000E+00	  0.030420844	1.597900E+01
54	  0.030621244	-1.288000E+00	  0.030621244	1.424490E+02	  0.030621244	4.126000E+00	  0.030621244	1.689300E+01
55	  0.030821642	-1.320000E+00	  0.030821642	1.405270E+02	  0.030821642	4.278000E+00	  0.030821642	1.782200E+01
56	  0.031022044	-1.351000E+00	  0.031022044	1.385910E+02	  0.031022044	4.431000E+00	  0.031022044	1.876700E+01
57	  0.031222444	-1.374000E+00	  0.031222444	1.366600E+02	  0.031222444	4.568000E+00	  0.031222444	1.972300E+01
58	  0.031422846	-1.408000E+00	  0.031422846	1.346680E+02	  0.031422846	4.745000E+00	  0.031422846	2.071900E+01
59	  0.031623244	-1.441000E+00	  0.031623244	1.326850E+02	  0.031623244	4.927000E+00	  0.031623244	2.172500E+01
60	  0.031823646	-1.473000E+00	  0.031823646	1.306990E+02	  0.031823646	5.114000E+00	  0.031823646	2.274500E+01
61	  0.032024048	-1.509000E+00	  0.032024048	1.287070E+02	  0.032024048	5.322000E+00	  0.032024048	2.378400E+01
62	  0.032224450	-1.546000E+00	  0.032224450	1.267280E+02	  0.032224450	5.545000E+00	  0.032224450	2.483000E+01
63	  0.032424849	-1.581000E+00	  0.032424849	1.247180E+02	  0.032424849	5.772000E+00	  0.032424849	2.591000E+01
64	  0.032625251	-1.616000E+00	  0.032625251	1.226910E+02	  0.032625251	6.009000E+00	  0.032625251	2.701700E+01
65	  0.032825653	-1.654000E+00	  0.032825653	1.206570E+02	  0.032825653	6.272000E+00	  0.032825653	2.814700E+01
66	  0.033026051	-1.687000E+00	  0.033026051	1.186120E+02	  0.033026051	6.525000E+00	  0.033026051	2.930500E+01
67	  0.033226453	-1.724000E+00	  0.033226453	1.165720E+02	  0.033226453	6.810000E+00	  0.033226453	3.048000E+01
68	  0.033426855	-1.761000E+00	  0.033426855	1.145120E+02	  0.033426855	7.110000E+00	  0.033426855	3.169100E+01
69	  0.033627257	-1.799000E+00	  0.033627257	1.124630E+02	  0.033627257	7.432000E+00	  0.033627257	3.291900E+01
70	  0.033827655	-1.837000E+00	  0.033827655	1.104180E+02	  0.033827655	7.771000E+00	  0.033827655	3.416900E+01
71	  0.034028057	-1.875000E+00	  0.034028057	1.083730E+02	  0.034028057	8.130000E+00	  0.034028057	3.544700E+01
72	  0.034228459	-1.915000E+00	  0.034228459	1.063130E+02	  0.034228459	8.517000E+00	  0.034228459	3.676200E+01
73	  0.034428857	-1.957000E+00	  0.034428857	1.042570E+02	  0.034428857	8.936000E+00	  0.034428857	3.810300E+01
74	  0.034629259	-1.997000E+00	  0.034629259	1.021600E+02	  0.034629259	9.376000E+00	  0.034629259	3.950600E+01
75	  0.034829661	-2.039000E+00	  0.034829661	1.001000E+02	  0.034829661	9.846000E+00	  0.034829661	4.091600E+01
76	  0.035030060	-2.083000E+00	  0.035030060	9.801600E+01	  0.035030060	1.036600E+01	  0.035030060	4.237600E+01
77	  0.035230462	-2.127000E+00	  0.035230462	9.594100E+01	  0.035230462	1.091200E+01	  0.035230462	4.386700E+01
78	  0.035430863	-2.173000E+00	  0.035430863	9.386000E+01	  0.035430863	1.150500E+01	  0.035430863	4.540000E+01
79	  0.035631265	-2.220000E+00	  0.035631265	9.178700E+01	  0.035631265	1.214600E+01	  0.035631265	4.696600E+01
80	  0.035831664	-2.268000E+00	  0.035831664	8.970600E+01	  0.035831664	1.283100E+01	  0.035831664	4.858200E+01
81	  0.036032066	-2.314000E+00	  0.036032066	8.762200E+01	  0.036032066	1.355700E+01	  0.036032066	5.024700E+01
82	  0.036232468	-2.360000E+00	  0.036232468	8.555200E+01	  0.036232468	1.433200E+01	  0.036232468	5.194800E+01
83	  0.036432866	-2.411000E+00	  0.036432866	8.345600E+01	  0.036432866	1.520300E+01	  0.036432866	5.371100E+01
84	  0.036633268	-2.462000E+00	  0.036633268	8.137700E+01	  0.036633268	1.613000E+01	  0.036633268	5.551200E+01
85	  0.036833670	-2.512000E+00	  0.036833670	7.926800E+01	  0.036833670	1.713600E+01	  0.036833670	5.739400E+01
86	  0.037034072	-2.565000E+00	  0.037034072	7.717900E+01	  0.037034072	1.822900E+01	  0.037034072	5.930600E+01
87	  0.037234470	-2.616000E+00	  0.037234470	7.508000E+01	  0.037234470	1.940000E+01	  0.037234470	6.129100E+01
88	  0.037434869	-2.671000E+00	  0.037434869	7.298700E+01	  0.037434869	2.069100E+01	  0.037434869	6.331700E+01
89	  0.037635271	-2.726000E+00	  0.037635271	7.084700E+01	  0.037635271	2.211200E+01	  0.037635271	6.545400E+01
90	  0.037835669	-2.791000E+00	  0.037835669	6.873700E+01	  0.037835669	2.370800E+01	  0.037835669	6.758500E+01
91	  0.038036071	-2.854000E+00	  0.038036071	6.667300E+01	  0.038036071	2.540300E+01	  0.038036071	6.972200E+01
92	  0.038236473	-2.908000E+00	  0.038236473	6.459200E+01	  0.038236473	2.718200E+01	  0.038236473	7.196800E+01
93	  0.038436871	-2.965000E+00	  0.038436871	6.249300E+01	  0.038436871	2.914900E+01	  0.038436871	7.428500E+01
94	  0.038637273	-3.020000E+00	  0.038637273	6.039900E+01	  0.038637273	3.127800E+01	  0.038637273	7.665900E+01
95	  0.038837675	-3.073000E+00	  0.038837675	5.830200E+01	  0.038837675	3.358200E+01	  0.038837675	7.910100E+01
96	  0.039038073	-3.125000E+00	  0.039038073	5.621900E+01	  0.039038073	3.608600E+01	  0.039038073	8.157800E+01
97	  0.039238475	-3.176000E+00	  0.039238475	5.411600E+01	  0.039238475	3.883000E+01	  0.039238475	8.413700E+01
98	  0.039438877	-3.233000E+00	  0.039438877	5.206000E+01	  0.039438877	4.183300E+01	  0.039438877	8.661500E+01
99	  0.039639279	-3.284000E+00	  0.039639279	4.997800E+01	  0.039639279	4.510400E+01	  0.039639279	8.919200E+01
100	  0.039839678	-3.338000E+00	  0.039839678	4.788600E+01	  0.039839678	4.872500E+01	  0.039839678	9.177000E+01
101	  0.040040080	-3.386000E+00	  0.040040080	4.579500E+01	  0.040040080	5.264500E+01	  0.040040080	9.438200E+01
102	  0.040240481	-3.437000E+00	  0.040240481	4.372600E+01	  0.040240481	5.693800E+01	  0.040240481	9.689100E+01
103	  0.040440880	-3.488000E+00	  0.040440880	4.166800E+01	  0.040440880	6.162100E+01	  0.040440880	9.929800E+01
104	  0.040641282	-3.537000E+00	  0.040641282	3.962800E+01	  0.040641282	6.667900E+01	  0.040641282	1.016010E+02
105	  0.040841684	-3.585000E+00	  0.040841684	3.759700E+01	  0.040841684	7.218600E+01	  0.040841684	1.037290E+02
106	  0.041042086	-3.635000E+00	  0.041042086	3.558000E+01	  0.041042086	7.817800E+01	  0.041042086	1.055610E+02
107	  0.041242484	-3.684000E+00	  0.041242484	3.355300E+01	  0.041242484	8.470900E+01	  0.041242484	1.071300E+02
108	  0.041442886	-3.733000E+00	  0.041442886	3.153400E+01	  0.041442886	9.176400E+01	  0.041442886	1.082850E+02
109	  0.041643288	-3.780000E+00	  0.041643288	2.951300E+01	  0.041643288	9.936900E+01	  0.041643288	1.089910E+02
110	  0.041843686	-3.828000E+00	  0.041843686	2.750100E+01	  0.041843686	1.074950E+02	  0.041843686	1.090410E+02
111	  0.042044088	-3.874000E+00	  0.042044088	2.550800E+01	  0.042044088	1.160500E+02	  0.042044088	1.084040E+02
112	  0.042244490	-3.922000E+00	  0.042244490	2.350900E+01	  0.042244490	1.250840E+02	  0.042244490	1.068320E+02
113	  0.042444889	-3.970000E+00	  0.042444889	2.154500E+01	  0.042444889	1.342930E+02	  0.042444889	1.042280E+02
114	  0.042645290	-4.018000E+00	  0.042645290	1.956700E+01	  0.042645290	1.437710E+02	  0.042645290	1.004590E+02
115	  0.042845692	-4.067000E+00	  0.042845692	1.760400E+01	  0.042845692	1.531910E+02	  0.042845692	9.541700E+01
116	  0.043046094	-4.114000E+00	  0.043046094	1.563300E+01	  0.043046094	1.624550E+02	  0.043046094	8.904900E+01
117	  0.043246493	-4.161000E+00	  0.043246493	1.366700E+01	  0.043246493	1.712420E+02	  0.043246493	8.130100E+01
118	  0.043446895	-4.205000E+00	  0.043446895	1.171700E+01	  0.043446895	1.792870E+02	  0.043446895	7.233200E+01
119	  0.043647297	-4.249000E+00	  0.043647297	9.757000E+00	  0.043647297	1.863710E+02	  0.043647297	6.205000E+01
120	  0.043847695	-4.294000E+00	  0.043847695	7.816000E+00	  0.043847695	1.920390E+02	  0.043847695	5.072500E+01
121	  0.044048097	-4.339000E+00	  0.044048097	5.865000E+00	  0.044048097	1.962270E+02	  0.044048097	3.850900E+01
122	  0.044248499	-4.384000E+00	  0.044248499	3.934000E+00	  0.044248499	1.986900E+02	  0.044248499	2.589600E+01
123	  0.044448901	-4.429000E+00	  0.044448901	2.014000E+00	  0.044448901	1.994000E+02	  0.044448901	1.316700E+01
124	  0.044649299	-4.470000E+00	  0.044649299	1.070000E-01	  0.044649299	1.985420E+02	  0.044649299	6.940000E-01
125	  0.044849701	-4.513000E+00	  0.044849701	-1.794000E+00	  0.044849701	1.960650E+02	  0.044849701	-1.130100E+01
126	  0.045050103	-4.549000E+00	  0.045050103	-3.709000E+00	  0.045050103	1.923740E+02	  0.045050103	-2.270800E+01
127	  0.045250501	-4.588000E+00	  0.045250501	-5.615000E+00	  0.045250501	1.873670E+02	  0.045250501	-3.314200E+01
128	  0.045450903	-4.626000E+00	  0.045450903	-7.519000E+00	  0.045450903	1.814330E+02	  0.045450903	-4.254200E+01
129	  0.045651305	-4.662000E+00	  0.045651305	-9.408000E+00	  0.045651305	1.748140E+02	  0.045651305	-5.076600E+01
130	  0.045851704	-4.698000E+00	  0.045851704	-1.127500E+01	  0.045851704	1.677570E+02	  0.045851704	-5.778200E+01
131	  0.046052102	-4.731000E+00	  0.046052102	-1.313900E+01	  0.046052102	1.604640E+02	  0.046052102	-6.375800E+01
132	  0.046252504	-4.767000E+00	  0.046252504	-1.496000E+01	  0.046252504	1.531410E+02	  0.046252504	-6.854200E+01
133	  0.046452906	-4.801000E+00	  0.046452906	-1.677600E+01	  0.046452906	1.458710E+02	  0.046452906	-7.242300E+01
134	  0.046653304	-4.835000E+00	  0.046653304	-1.859900E+01	  0.046653304	1.386930E+02	  0.046653304	-7.550700E+01
135	  0.046853706	-4.867000E+00	  0.046853706	-2.042900E+01	  0.046853706	1.317000E+02	  0.046853706	-7.789200E+01
136	  0.047054108	-4.898000E+00	  0.047054108	-2.222700E+01	  0.047054108	1.250690E+02	  0.047054108	-7.960100E+01
137	  0.047254506	-4.929000E+00	  0.047254506	-2.403700E+01	  0.047254506	1.186860E+02	  0.047254506	-8.078300E+01
138	  0.047454908	-4.954000E+00	  0.047454908	-2.582000E+01	  0.047454908	1.127140E+02	  0.047454908	-8.156100E+01
139	  0.047655310	-4.984000E+00	  0.047655310	-2.758700E+01	  0.047655310	1.070760E+02	  0.047655310	-8.184700E+01
140	  0.047855709	-5.014000E+00	  0.047855709	-2.934900E+01	  0.047855709	1.017630E+02	  0.047855709	-8.178000E+01
141	  0.048056111	-5.042000E+00	  0.048056111	-3.108700E+01	  0.048056111	9.682200E+01	  0.048056111	-8.146600E+01
142	  0.048256513	-5.072000E+00	  0.048256513	-3.280500E+01	  0.048256513	9.222800E+01	  0.048256513	-8.088300E+01
143	  0.048456915	-5.099000E+00	  0.048456915	-3.452700E+01	  0.048456915	8.789500E+01	  0.048456915	-8.017100E+01
144	  0.048657313	-5.128000E+00	  0.048657313	-3.622400E+01	  0.048657313	8.388800E+01	  0.048657313	-7.927200E+01
145	  0.048857715	-5.152000E+00	  0.048857715	-3.797400E+01	  0.048857715	8.000100E+01	  0.048857715	-7.830600E+01
146	  0.049058117	-5.177000E+00	  0.049058117	-3.968200E+01	  0.049058117	7.644300E+01	  0.049058117	-7.723800E+01
147	  0.049258515	-5.201000E+00	  0.049258515	-4.137400E+01	  0.049258515	7.313600E+01	  0.049258515	-7.608900E+01
148	  0.049458917	-5.226000E+00	  0.049458917	-4.305600E+01	  0.049458917	7.005000E+01	  0.049458917	-7.487900E+01
149	  0.049659319	-5.254000E+00	  0.049659319	-4.475000E+01	  0.049659319	6.714700E+01	  0.049659319	-7.357300E+01
150	  0.049859721	-5.278000E+00	  0.049859721	-4.642700E+01	  0.049859721	6.443200E+01	  0.049859721	-7.228900E+01
151	  0.050060119	-5.303000E+00	  0.050060119	-4.807600E+01	  0.050060119	6.193500E+01	  0.050060119	-7.097600E+01
152	  0.050260521	-5.325000E+00	  0.050260521	-4.976400E+01	  0.050260521	5.951200E+01	  0.050260521	-6.965700E+01
153	  0.050460923	-5.345000E+00	  0.050460923	-5.143700E+01	  0.050460923	5.724900E+01	  0.050460923	-6.834700E+01
154	  0.050661322	-5.363000E+00	  0.050661322	-5.307900E+01	  0.050661322	5.515000E+01	  0.050661322	-6.706300E+01
155	  0.050861724	-5.381000E+00	  0.050861724	-5.474300E+01	  0.050861724	5.314300E+01	  0.050861724	-6.575900E+01
156	  0.051062126	-5.398000E+00	  0.051062126	-5.637800E+01	  0.051062126	5.128200E+01	  0.051062126	-6.447700E+01
157	  0.051262524	-5.419000E+00	  0.051262524	-5.800600E+01	  0.051262524	4.955300E+01	  0.051262524	-6.317300E+01
158	  0.051462926	-5.436000E+00	  0.051462926	-5.960600E+01	  0.051462926	4.793000E+01	  0.051462926	-6.192800E+01
159	  0.051663328	-5.453000E+00	  0.051663328	-6.122200E+01	  0.051663328	4.637700E+01	  0.051663328	-6.067700E+01
160	  0.051863730	-5.466000E+00	  0.051863730	-6.280900E+01	  0.051863730	4.491900E+01	  0.051863730	-5.948000E+01
161	  0.052064128	-5.478000E+00	  0.052064128	-6.440800E+01	  0.052064128	4.351800E+01	  0.052064128	-5.829100E+01
162	  0.052264530	-5.488000E+00	  0.052264530	-6.599100E+01	  0.052264530	4.220000E+01	  0.052264530	-5.712900E+01
163	  0.052464932	-5.500000E+00	  0.052464932	-6.754100E+01	  0.052464932	4.098400E+01	  0.052464932	-5.598700E+01
164	  0.052665330	-5.510000E+00	  0.052665330	-6.908700E+01	  0.052665330	3.982000E+01	  0.052665330	-5.487300E+01
165	  0.052865732	-5.521000E+00	  0.052865732	-7.061900E+01	  0.052865732	3.872800E+01	  0.052865732	-5.377500E+01
166	  0.053066134	-5.533000E+00	  0.053066134	-7.213700E+01	  0.053066134	3.770500E+01	  0.053066134	-5.269200E+01
167	  0.053266536	-5.544000E+00	  0.053266536	-7.364100E+01	  0.053266536	3.673100E+01	  0.053266536	-5.163800E+01
168	  0.053466935	-5.555000E+00	  0.053466935	-7.515900E+01	  0.053466935	3.580000E+01	  0.053466935	-5.058100E+01
169	  0.053667337	-5.566000E+00	  0.053667337	-7.664100E+01	  0.053667337	3.493200E+01	  0.053667337	-4.956500E+01
170	  0.053867739	-5.578000E+00	  0.053867739	-7.811400E+01	  0.053867739	3.411100E+01	  0.053867739	-4.856500E+01
171	  0.054068137	-5.584000E+00	  0.054068137	-7.959400E+01	  0.054068137	3.330000E+01	  0.054068137	-4.759100E+01
172	  0.054268539	-5.594000E+00	  0.054268539	-8.104500E+01	  0.054268539	3.255700E+01	  0.054268539	-4.663500E+01
173	  0.054468941	-5.605000E+00	  0.054468941	-8.250500E+01	  0.054468941	3.184300E+01	  0.054468941	-4.568400E+01
174	  0.054669335	-5.620000E+00	  0.054669335	-8.393600E+01	  0.054669335	3.119100E+01	  0.054669335	-4.474800E+01
175	  0.054869737	-5.630000E+00	  0.054869737	-8.536600E+01	  0.054869737	3.055000E+01	  0.054869737	-4.384000E+01
176	  0.055070139	-5.644000E+00	  0.055070139	-8.678800E+01	  0.055070139	2.995500E+01	  0.055070139	-4.293600E+01
177	  0.055270538	-5.652000E+00	  0.055270538	-8.820000E+01	  0.055270538	2.936700E+01	  0.055270538	-4.206800E+01
178	  0.055470940	-5.665000E+00	  0.055470940	-8.959700E+01	  0.055470940	2.882700E+01	  0.055470940	-4.120500E+01
179	  0.055671342	-5.677000E+00	  0.055671342	-9.102300E+01	  0.055671342	2.829000E+01	  0.055671342	-4.034300E+01
180	  0.055871744	-5.684000E+00	  0.055871744	-9.243500E+01	  0.055871744	2.776500E+01	  0.055871744	-3.950900E+01
181	  0.056072142	-5.695000E+00	  0.056072142	-9.384200E+01	  0.056072142	2.727900E+01	  0.056072142	-3.867800E+01
182	  0.056272544	-5.706000E+00	  0.056272544	-9.523500E+01	  0.056272544	2.681600E+01	  0.056272544	-3.786700E+01
183	  0.056472946	-5.719000E+00	  0.056472946	-9.661500E+01	  0.056472946	2.638500E+01	  0.056472946	-3.706600E+01
184	  0.056673344	-5.725000E+00	  0.056673344	-9.798000E+01	  0.056673344	2.594800E+01	  0.056673344	-3.630000E+01
185	  0.056873746	-5.736000E+00	  0.056873746	-9.934900E+01	  0.056873746	2.554900E+01	  0.056873746	-3.552800E+01
186	  0.057074148	-5.747000E+00	  0.057074148	-1.007220E+02	  0.057074148	2.516000E+01	  0.057074148	-3.476500E+01
187	  0.057274550	-5.754000E+00	  0.057274550	-1.020980E+02	  0.057274550	2.477200E+01	  0.057274550	-3.401600E+01
188	  0.057474948	-5.759000E+00	  0.057474948	-1.034890E+02	  0.057474948	2.438900E+01	  0.057474948	-3.327100E+01
189	  0.057675350	-5.767000E+00	  0.057675350	-1.048410E+02	  0.057675350	2.403800E+01	  0.057675350	-3.255100E+01
190	  0.057875752	-5.775000E+00	  0.057875752	-1.061960E+02	  0.057875752	2.370300E+01	  0.057875752	-3.183400E+01
191	  0.058076151	-5.782000E+00	  0.058076151	-1.075330E+02	  0.058076151	2.338100E+01	  0.058076151	-3.113700E+01
192	  0.058276553	-5.786000E+00	  0.058276553	-1.088590E+02	  0.058276553	2.306200E+01	  0.058276553	-3.045800E+01
193	  0.058476955	-5.790000E+00	  0.058476955	-1.101710E+02	  0.058476955	2.275900E+01	  0.058476955	-2.979100E+01
194	  0.058677353	-5.794000E+00	  0.058677353	-1.114910E+02	  0.058677353	2.246700E+01	  0.058677353	-2.912700E+01
195	  0.058877755	-5.798000E+00	  0.058877755	-1.128100E+02	  0.058877755	2.218400E+01	  0.058877755	-2.846900E+01
196	  0.059078157	-5.800000E+00	  0.059078157	-1.140870E+02	  0.059078157	2.191400E+01	  0.059078157	-2.784000E+01
197	  0.059278559	-5.801000E+00	  0.059278559	-1.153820E+02	  0.059278559	2.164600E+01	  0.059278559	-2.721000E+01
198	  0.059478957	-5.799000E+00	  0.059478957	-1.166570E+02	  0.059478957	2.138200E+01	  0.059478957	-2.659800E+01
199	  0.059679359	-5.804000E+00	  0.059679359	-1.179320E+02	  0.059679359	2.114800E+01	  0.059679359	-2.598300E+01
200	  0.059879761	-5.809000E+00	  0.059879761	-1.191680E+02	  0.059879761	2.093000E+01	  0.059879761	-2.539000E+01
201	  0.060080159	-5.811000E+00	  0.060080159	-1.204250E+02	  0.060080159	2.070700E+01	  0.060080159	-2.479700E+01
202	  0.060280561	-5.817000E+00	  0.060280561	-1.216620E+02	  0.060280561	2.050700E+01	  0.060280561	-2.421200E+01
203	  0.060480963	-5.820000E+00	  0.060480963	-1.228770E+02	  0.060480963	2.031000E+01	  0.060480963	-2.364500E+01
204	  0.060681365	-5.825000E+00	  0.060681365	-1.241000E+02	  0.060681365	2.012400E+01	  0.060681365	-2.307700E+01
205	  0.060881764	-5.825000E+00	  0.060881764	-1.253050E+02	  0.060881764	1.993100E+01	  0.060881764	-2.252600E+01
206	  0.061082166	-5.829000E+00	  0.061082166	-1.264980E+02	  0.061082166	1.976000E+01	  0.061082166	-2.198000E+01
207	  0.061282568	-5.833000E+00	  0.061282568	-1.277170E+02	  0.061282568	1.958900E+01	  0.061282568	-2.142700E+01
208	  0.061482966	-5.838000E+00	  0.061482966	-1.289060E+02	  0.061482966	1.943300E+01	  0.061482966	-2.088900E+01
209	  0.061683368	-5.843000E+00	  0.061683368	-1.300920E+02	  0.061683368	1.928200E+01	  0.061683368	-2.035700E+01
210	  0.061883770	-5.847000E+00	  0.061883770	-1.312700E+02	  0.061883770	1.913500E+01	  0.061883770	-1.983200E+01
211	  0.062084168	-5.856000E+00	  0.062084168	-1.324560E+02	  0.062084168	1.900600E+01	  0.062084168	-1.930300E+01
212	  0.062284570	-5.862000E+00	  0.062284570	-1.336160E+02	  0.062284570	1.887800E+01	  0.062284570	-1.879100E+01
213	  0.062484972	-5.858000E+00	  0.062484972	-1.347520E+02	  0.062484972	1.872800E+01	  0.062484972	-1.830000E+01
214	  0.062685370	-5.861000E+00	  0.062685370	-1.359370E+02	  0.062685370	1.859800E+01	  0.062685370	-1.778500E+01
215	  0.062885776	-5.863000E+00	  0.062885776	-1.371050E+02	  0.062885776	1.847300E+01	  0.062885776	-1.728100E+01
216	  0.063086174	-5.867000E+00	  0.063086174	-1.382740E+02	  0.063086174	1.835600E+01	  0.063086174	-1.677800E+01
217	  0.063286573	-5.873000E+00	  0.063286573	-1.394300E+02	  0.063286573	1.825000E+01	  0.063286573	-1.628200E+01
218	  0.063486971	-5.876000E+00	  0.063486971	-1.405700E+02	  0.063486971	1.814200E+01	  0.063486971	-1.579700E+01
219	  0.063687377	-5.876000E+00	  0.063687377	-1.417310E+02	  0.063687377	1.802700E+01	  0.063687377	-1.530900E+01
220	  0.063887775	-5.880000E+00	  0.063887775	-1.428520E+02	  0.063887775	1.793200E+01	  0.063887775	-1.483600E+01
221	  0.064088173	-5.881000E+00	  0.064088173	-1.440370E+02	  0.064088173	1.782800E+01	  0.064088173	-1.434000E+01
222	  0.064288579	-5.888000E+00	  0.064288579	-1.451620E+02	  0.064288579	1.774800E+01	  0.064288579	-1.386800E+01
223	  0.064488977	-5.884000E+00	  0.064488977	-1.463100E+02	  0.064488977	1.764100E+01	  0.064488977	-1.339500E+01
224	  0.064689375	-5.888000E+00	  0.064689375	-1.474490E+02	  0.064689375	1.755900E+01	  0.064689375	-1.292300E+01
225	  0.064889781	-5.893000E+00	  0.064889781	-1.485760E+02	  0.064889781	1.748600E+01	  0.064889781	-1.245700E+01
226	  0.065090179	-5.895000E+00	  0.065090179	-1.496960E+02	  0.065090179	1.740700E+01	  0.065090179	-1.199800E+01
227	  0.065290578	-5.893000E+00	  0.065290578	-1.507870E+02	  0.065290578	1.732400E+01	  0.065290578	-1.155400E+01
228	  0.065490983	-5.890000E+00	  0.065490983	-1.519030E+02	  0.065490983	1.723900E+01	  0.065490983	-1.110100E+01
229	  0.065691382	-5.891000E+00	  0.065691382	-1.530000E+02	  0.065691382	1.717100E+01	  0.065691382	-1.065600E+01
230	  0.065891780	-5.892000E+00	  0.065891780	-1.541020E+02	  0.065891780	1.710500E+01	  0.065891780	-1.021100E+01
231	  0.066092186	-5.893000E+00	  0.066092186	-1.551830E+02	  0.066092186	1.704200E+01	  0.066092186	-9.775000E+00
232	  0.066292584	-5.894000E+00	  0.066292584	-1.562510E+02	  0.066292584	1.698500E+01	  0.066292584	-9.345000E+00
233	  0.066492982	-5.892000E+00	  0.066492982	-1.573340E+02	  0.066492982	1.692100E+01	  0.066492982	-8.912000E+00
234	  0.066693388	-5.897000E+00	  0.066693388	-1.584120E+02	  0.066693388	1.687900E+01	  0.066693388	-8.480000E+00
235	  0.066893786	-5.896000E+00	  0.066893786	-1.594590E+02	  0.066893786	1.682500E+01	  0.066893786	-8.063000E+00
236	  0.067094192	-5.900000E+00	  0.067094192	-1.605090E+02	  0.067094192	1.678700E+01	  0.067094192	-7.644000E+00
237	  0.067294590	-5.904000E+00	  0.067294590	-1.615390E+02	  0.067294590	1.675300E+01	  0.067294590	-7.233000E+00
238	  0.067494988	-5.905000E+00	  0.067494988	-1.626170E+02	  0.067494988	1.671100E+01	  0.067494988	-6.806000E+00
239	  0.067695394	-5.908000E+00	  0.067695394	-1.636690E+02	  0.067695394	1.667900E+01	  0.067695394	-6.390000E+00
240	  0.067895792	-5.917000E+00	  0.067895792	-1.646650E+02	  0.067895792	1.666500E+01	  0.067895792	-5.995000E+00
241	  0.068096191	-5.918000E+00	  0.068096191	-1.657270E+02	  0.068096191	1.663400E+01	  0.068096191	-5.576000E+00
242	  0.068296596	-5.922000E+00	  0.068296596	-1.667740E+02	  0.068296596	1.661000E+01	  0.068296596	-5.164000E+00
243	  0.068496995	-5.928000E+00	  0.068496995	-1.677930E+02	  0.068496995	1.659600E+01	  0.068496995	-4.763000E+00
244	  0.068697393	-5.935000E+00	  0.068697393	-1.688180E+02	  0.068697393	1.658900E+01	  0.068697393	-4.360000E+00
245	  0.068897791	-5.934000E+00	  0.068897791	-1.698520E+02	  0.068897791	1.656200E+01	  0.068897791	-3.955000E+00
246	  0.069098189	-5.938000E+00	  0.069098189	-1.708700E+02	  0.069098189	1.654900E+01	  0.069098189	-3.556000E+00
247	  0.069298595	-5.940000E+00	  0.069298595	-1.719100E+02	  0.069298595	1.653300E+01	  0.069298595	-3.150000E+00
248	  0.069498993	-5.943000E+00	  0.069498993	-1.729350E+02	  0.069498993	1.652500E+01	  0.069498993	-2.750000E+00
249	  0.069699399	-5.954000E+00	  0.069699399	-1.739800E+02	  0.069699399	1.653800E+01	  0.069699399	-2.342000E+00
250	  0.069899797	-5.954000E+00	  0.069899797	-1.749940E+02	  0.069899797	1.652500E+01	  0.069899797	-1.947000E+00
251	  0.070100196	-5.959000E+00	  0.070100196	-1.759970E+02	  0.070100196	1.652900E+01	  0.070100196	-1.556000E+00
252	  0.070300601	-5.964000E+00	  0.070300601	-1.770120E+02	  0.070300601	1.653200E+01	  0.070300601	-1.161000E+00
253	  0.070501000	-5.971000E+00	  0.070501000	-1.780060E+02	  0.070501000	1.654400E+01	  0.070501000	-7.740000E-01
254	  0.070701398	-5.971000E+00	  0.070701398	-1.790010E+02	  0.070701398	1.654000E+01	  0.070701398	-3.880000E-01
255	  0.070901804	-5.974000E+00	  0.070901804	-1.799950E+02	  0.070901804	1.654900E+01	  0.070901804	-1.000000E-03
256	  0.071102202	-5.981000E+00	  0.071102202	1.789860E+02	  0.071102202	1.656600E+01	  0.071102202	3.930000E-01
257	  0.071302600	-5.980000E+00	  0.071302600	1.779880E+02	  0.071302600	1.656800E+01	  0.071302600	7.810000E-01
258	  0.071503006	-5.990000E+00	  0.071503006	1.769810E+02	  0.071503006	1.659900E+01	  0.071503006	1.172000E+00
259	  0.071703404	-5.992000E+00	  0.071703404	1.760050E+02	  0.071703404	1.661300E+01	  0.071703404	1.551000E+00
260	  0.071903802	-5.998000E+00	  0.071903802	1.750120E+02	  0.071903802	1.663800E+01	  0.071903802	1.936000E+00
261	  0.072104208	-6.005000E+00	  0.072104208	1.740410E+02	  0.072104208	1.666800E+01	  0.072104208	2.313000E+00
262	  0.072304606	-6.005000E+00	  0.072304606	1.730750E+02	  0.072304606	1.668100E+01	  0.072304606	2.689000E+00
263	  0.072505005	-6.012000E+00	  0.072505005	1.721100E+02	  0.072505005	1.671500E+01	  0.072505005	3.064000E+00
264	  0.072705410	-6.017000E+00	  0.072705410	1.711640E+02	  0.072705410	1.674600E+01	  0.072705410	3.431000E+00
265	  0.072905809	-6.022000E+00	  0.072905809	1.701970E+02	  0.072905809	1.678000E+01	  0.072905809	3.807000E+00
266	  0.073106214	-6.027000E+00	  0.073106214	1.692490E+02	  0.073106214	1.681400E+01	  0.073106214	4.176000E+00
267	  0.073306613	-6.034000E+00	  0.073306613	1.683140E+02	  0.073306613	1.685700E+01	  0.073306613	4.540000E+00
268	  0.073507011	-6.045000E+00	  0.073507011	1.673710E+02	  0.073507011	1.691200E+01	  0.073507011	4.906000E+00
269	  0.073707417	-6.057000E+00	  0.073707417	1.663990E+02	  0.073707417	1.697200E+01	  0.073707417	5.283000E+00
270	  0.073907815	-6.061000E+00	  0.073907815	1.654780E+02	  0.073907815	1.701200E+01	  0.073907815	5.643000E+00
271	  0.074108213	-6.068000E+00	  0.074108213	1.645540E+02	  0.074108213	1.706200E+01	  0.074108213	6.003000E+00
272	  0.074308619	-6.077000E+00	  0.074308619	1.636420E+02	  0.074308619	1.711800E+01	  0.074308619	6.358000E+00
273	  0.074509017	-6.083000E+00	  0.074509017	1.626690E+02	  0.074509017	1.717200E+01	  0.074509017	6.739000E+00
274	  0.074709415	-6.090000E+00	  0.074709415	1.617590E+02	  0.074709415	1.722900E+01	  0.074709415	7.094000E+00
275	  0.074909821	-6.101000E+00	  0.074909821	1.608250E+02	  0.074909821	1.729800E+01	  0.074909821	7.459000E+00
276	  0.075110219	-6.110000E+00	  0.075110219	1.598970E+02	  0.075110219	1.736500E+01	  0.075110219	7.822000E+00
277	  0.075310618	-6.121000E+00	  0.075310618	1.589540E+02	  0.075310618	1.743800E+01	  0.075310618	8.191000E+00
278	  0.075511023	-6.127000E+00	  0.075511023	1.580580E+02	  0.075511023	1.749900E+01	  0.075511023	8.543000E+00
279	  0.075711422	-6.137000E+00	  0.075711422	1.571470E+02	  0.075711422	1.757400E+01	  0.075711422	8.900000E+00
280	  0.075911827	-6.146000E+00	  0.075911827	1.562260E+02	  0.075911827	1.764900E+01	  0.075911827	9.262000E+00
281	  0.076112226	-6.151000E+00	  0.076112226	1.553100E+02	  0.076112226	1.771800E+01	  0.076112226	9.624000E+00
282	  0.076312624	-6.161000E+00	  0.076312624	1.543960E+02	  0.076312624	1.779900E+01	  0.076312624	9.984000E+00
283	  0.076513030	-6.174000E+00	  0.076513030	1.534590E+02	  0.076513030	1.789200E+01	  0.076513030	1.035200E+01
284	  0.076713428	-6.184000E+00	  0.076713428	1.525610E+02	  0.076713428	1.797700E+01	  0.076713428	1.070600E+01
285	  0.076913826	-6.189000E+00	  0.076913826	1.516590E+02	  0.076913826	1.805300E+01	  0.076913826	1.106500E+01
286	  0.077114232	-6.201000E+00	  0.077114232	1.507370E+02	  0.077114232	1.814900E+01	  0.077114232	1.143000E+01
287	  0.077314630	-6.214000E+00	  0.077314630	1.498710E+02	  0.077314630	1.824700E+01	  0.077314630	1.177200E+01
288	  0.077515028	-6.216000E+00	  0.077515028	1.489870E+02	  0.077515028	1.832200E+01	  0.077515028	1.212600E+01
289	  0.077715434	-6.227000E+00	  0.077715434	1.480950E+02	  0.077715434	1.842000E+01	  0.077715434	1.248100E+01
290	  0.077915832	-6.235000E+00	  0.077915832	1.472000E+02	  0.077915832	1.851400E+01	  0.077915832	1.283900E+01
291	  0.078116231	-6.247000E+00	  0.078116231	1.463110E+02	  0.078116231	1.862200E+01	  0.078116231	1.319300E+01
292	  0.078316636	-6.256000E+00	  0.078316636	1.454490E+02	  0.078316636	1.872100E+01	  0.078316636	1.353800E+01
293	  0.078517035	-6.262000E+00	  0.078517035	1.445700E+02	  0.078517035	1.881500E+01	  0.078517035	1.389300E+01
294	  0.078717433	-6.274000E+00	  0.078717433	1.436730E+02	  0.078717433	1.893000E+01	  0.078717433	1.425300E+01
295	  0.078917839	-6.286000E+00	  0.078917839	1.428040E+02	  0.078917839	1.904700E+01	  0.078917839	1.460100E+01
296	  0.079118237	-6.298000E+00	  0.079118237	1.419830E+02	  0.079118237	1.916100E+01	  0.079118237	1.493000E+01
297	  0.079318643	-6.308000E+00	  0.079318643	1.411250E+02	  0.079318643	1.927400E+01	  0.079318643	1.527700E+01
298	  0.079519041	-6.322000E+00	  0.079519041	1.402800E+02	  0.079519041	1.940200E+01	  0.079519041	1.561600E+01
299	  0.079719439	-6.332000E+00	  0.079719439	1.394510E+02	  0.079719439	1.951800E+01	  0.079719439	1.595200E+01
300	  0.079919845	-6.344000E+00	  0.079919845	1.385820E+02	  0.079919845	1.964500E+01	  0.079919845	1.630400E+01
301	  0.080120243	-6.359000E+00	  0.080120243	1.377530E+02	  0.080120243	1.978200E+01	  0.080120243	1.663700E+01
302	  0.080320641	-6.373000E+00	  0.080320641	1.369150E+02	  0.080320641	1.991800E+01	  0.080320641	1.697600E+01
303	  0.080521047	-6.389000E+00	  0.080521047	1.360800E+02	  0.080521047	2.006100E+01	  0.080521047	1.731200E+01
304	  0.080721445	-6.403000E+00	  0.080721445	1.352330E+02	  0.080721445	2.020300E+01	  0.080721445	1.765600E+01
305	  0.080921844	-6.414000E+00	  0.080921844	1.344010E+02	  0.080921844	2.033900E+01	  0.080921844	1.799600E+01
306	  0.081122249	-6.435000E+00	  0.081122249	1.335610E+02	  0.081122249	2.050700E+01	  0.081122249	1.833100E+01
307	  0.081322648	-6.449000E+00	  0.081322648	1.327500E+02	  0.081322648	2.065400E+01	  0.081322648	1.866200E+01
308	  0.081523046	-6.465000E+00	  0.081523046	1.319050E+02	  0.081523046	2.081200E+01	  0.081523046	1.900500E+01
309	  0.081723452	-6.482000E+00	  0.081723452	1.310440E+02	  0.081723452	2.098000E+01	  0.081723452	1.935500E+01
310	  0.081923850	-6.497000E+00	  0.081923850	1.302210E+02	  0.081923850	2.114200E+01	  0.081923850	1.969000E+01
311	  0.082124248	-6.514000E+00	  0.082124248	1.294080E+02	  0.082124248	2.130700E+01	  0.082124248	2.002100E+01
312	  0.082324654	-6.530000E+00	  0.082324654	1.285550E+02	  0.082324654	2.148100E+01	  0.082324654	2.037000E+01
313	  0.082525052	-6.548000E+00	  0.082525052	1.277390E+02	  0.082525052	2.166000E+01	  0.082525052	2.070100E+01
314	  0.082725458	-6.569000E+00	  0.082725458	1.269590E+02	  0.082725458	2.184400E+01	  0.082725458	2.101400E+01
315	  0.082925856	-6.585000E+00	  0.082925856	1.261270E+02	  0.082925856	2.202400E+01	  0.082925856	2.135500E+01
316	  0.083126254	-6.604000E+00	  0.083126254	1.253090E+02	  0.083126254	2.221300E+01	  0.083126254	2.168800E+01
317	  0.083326660	-6.620000E+00	  0.083326660	1.244830E+02	  0.083326660	2.240000E+01	  0.083326660	2.202700E+01
318	  0.083527058	-6.637000E+00	  0.083527058	1.236410E+02	  0.083527058	2.259400E+01	  0.083527058	2.237400E+01
319	  0.083727457	-6.657000E+00	  0.083727457	1.228550E+02	  0.083727457	2.279300E+01	  0.083727457	2.269100E+01
320	  0.083927862	-6.674000E+00	  0.083927862	1.220500E+02	  0.083927862	2.298900E+01	  0.083927862	2.302200E+01
321	  0.084128261	-6.696000E+00	  0.084128261	1.212410E+02	  0.084128261	2.320200E+01	  0.084128261	2.334900E+01
322	  0.084328659	-6.716000E+00	  0.084328659	1.204640E+02	  0.084328659	2.341000E+01	  0.084328659	2.366400E+01
323	  0.084529065	-6.736000E+00	  0.084529065	1.196800E+02	  0.084529065	2.361900E+01	  0.084529065	2.398300E+01
324	  0.084729463	-6.757000E+00	  0.084729463	1.188870E+02	  0.084729463	2.384100E+01	  0.084729463	2.430300E+01
325	  0.084929854	-6.776000E+00	  0.084929854	1.180930E+02	  0.084929854	2.405800E+01	  0.084929854	2.462800E+01
326	  0.085130259	-6.796000E+00	  0.085130259	1.172690E+02	  0.085130259	2.428900E+01	  0.085130259	2.496400E+01
327	  0.085330658	-6.820000E+00	  0.085330658	1.164770E+02	  0.085330658	2.452600E+01	  0.085330658	2.528100E+01
328	  0.085531056	-6.837000E+00	  0.085531056	1.157080E+02	  0.085531056	2.474600E+01	  0.085531056	2.559700E+01
329	  0.085731462	-6.859000E+00	  0.085731462	1.149520E+02	  0.085731462	2.498000E+01	  0.085731462	2.590000E+01
330	  0.085931860	-6.880000E+00	  0.085931860	1.141800E+02	  0.085931860	2.521700E+01	  0.085931860	2.621300E+01
331	  0.086132258	-6.902000E+00	  0.086132258	1.134290E+02	  0.086132258	2.545600E+01	  0.086132258	2.651300E+01
332	  0.086332664	-6.925000E+00	  0.086332664	1.126620E+02	  0.086332664	2.570700E+01	  0.086332664	2.681900E+01
333	  0.086533062	-6.951000E+00	  0.086533062	1.118950E+02	  0.086533062	2.597000E+01	  0.086533062	2.712100E+01
334	  0.086733460	-6.972000E+00	  0.086733460	1.111290E+02	  0.086733460	2.622200E+01	  0.086733460	2.742900E+01
335	  0.086933866	-6.997000E+00	  0.086933866	1.103990E+02	  0.086933866	2.648200E+01	  0.086933866	2.771300E+01
336	  0.087134264	-7.021000E+00	  0.087134264	1.096470E+02	  0.087134264	2.674700E+01	  0.087134264	2.801000E+01
337	  0.087334670	-7.045000E+00	  0.087334670	1.088930E+02	  0.087334670	2.701800E+01	  0.087334670	2.830500E+01
338	  0.087535068	-7.073000E+00	  0.087535068	1.081790E+02	  0.087535068	2.729400E+01	  0.087535068	2.857600E+01
339	  0.087735467	-7.097000E+00	  0.087735467	1.074470E+02	  0.087735467	2.756400E+01	  0.087735467	2.886200E+01
340	  0.087935872	-7.128000E+00	  0.087935872	1.067040E+02	  0.087935872	2.786500E+01	  0.087935872	2.913800E+01
341	  0.088136271	-7.155000E+00	  0.088136271	1.059940E+02	  0.088136271	2.814800E+01	  0.088136271	2.940600E+01
342	  0.088336669	-7.178000E+00	  0.088336669	1.052420E+02	  0.088336669	2.843700E+01	  0.088336669	2.969900E+01
343	  0.088537075	-7.202000E+00	  0.088537075	1.045370E+02	  0.088537075	2.871700E+01	  0.088537075	2.996900E+01
344	  0.088737473	-7.227000E+00	  0.088737473	1.038220E+02	  0.088737473	2.900800E+01	  0.088737473	3.024000E+01
345	  0.088937871	-7.247000E+00	  0.088937871	1.030740E+02	  0.088937871	2.929800E+01	  0.088937871	3.053500E+01
346	  0.089138277	-7.278000E+00	  0.089138277	1.023920E+02	  0.089138277	2.960700E+01	  0.089138277	3.077600E+01
347	  0.089338675	-7.301000E+00	  0.089338675	1.016790E+02	  0.089338675	2.990200E+01	  0.089338675	3.104800E+01
348	  0.089539073	-7.328000E+00	  0.089539073	1.010110E+02	  0.089539073	3.020200E+01	  0.089539073	3.128800E+01
349	  0.089739479	-7.356000E+00	  0.089739479	1.003100E+02	  0.089739479	3.051600E+01	  0.089739479	3.154200E+01
350	  0.089939877	-7.377000E+00	  0.089939877	9.962400E+01	  0.089939877	3.081200E+01	  0.089939877	3.180100E+01
351	  0.090140276	-7.403000E+00	  0.090140276	9.894800E+01	  0.090140276	3.112100E+01	  0.090140276	3.204400E+01
352	  0.090340681	-7.425000E+00	  0.090340681	9.827500E+01	  0.090340681	3.142100E+01	  0.090340681	3.229400E+01
353	  0.090541080	-7.455000E+00	  0.090541080	9.759300E+01	  0.090541080	3.175400E+01	  0.090541080	3.252700E+01
354	  0.090741485	-7.477000E+00	  0.090741485	9.693300E+01	  0.090741485	3.205800E+01	  0.090741485	3.276800E+01
355	  0.090941884	-7.503000E+00	  0.090941884	9.626700E+01	  0.090941884	3.238200E+01	  0.090941884	3.299800E+01
356	  0.091142282	-7.531000E+00	  0.091142282	9.560800E+01	  0.091142282	3.271200E+01	  0.091142282	3.322100E+01
357	  0.091342688	-7.559000E+00	  0.091342688	9.496700E+01	  0.091342688	3.303600E+01	  0.091342688	3.343600E+01
358	  0.091543086	-7.583000E+00	  0.091543086	9.428200E+01	  0.091543086	3.337400E+01	  0.091543086	3.367300E+01
359	  0.091743484	-7.613000E+00	  0.091743484	9.368000E+01	  0.091743484	3.369800E+01	  0.091743484	3.386100E+01
360	  0.091943890	-7.638000E+00	  0.091943890	9.301600E+01	  0.091943890	3.403900E+01	  0.091943890	3.408300E+01
361	  0.092144288	-7.663000E+00	  0.092144288	9.234800E+01	  0.092144288	3.438200E+01	  0.092144288	3.430900E+01
362	  0.092344686	-7.689000E+00	  0.092344686	9.170000E+01	  0.092344686	3.472500E+01	  0.092344686	3.452000E+01
363	  0.092545092	-7.719000E+00	  0.092545092	9.106800E+01	  0.092545092	3.507900E+01	  0.092545092	3.470900E+01
364	  0.092745490	-7.744000E+00	  0.092745490	9.044100E+01	  0.092745490	3.541900E+01	  0.092745490	3.490800E+01
365	  0.092945889	-7.777000E+00	  0.092945889	8.981300E+01	  0.092945889	3.578500E+01	  0.092945889	3.508200E+01
366	  0.093146294	-7.811000E+00	  0.093146294	8.921200E+01	  0.093146294	3.614400E+01	  0.093146294	3.524200E+01
367	  0.093346693	-7.832000E+00	  0.093346693	8.857100E+01	  0.093346693	3.649000E+01	  0.093346693	3.545100E+01
368	  0.093547091	-7.869000E+00	  0.093547091	8.799600E+01	  0.093547091	3.685700E+01	  0.093547091	3.558100E+01
369	  0.093747497	-7.891000E+00	  0.093747497	8.734300E+01	  0.093747497	3.721900E+01	  0.093747497	3.578700E+01
370	  0.093947895	-7.924000E+00	  0.093947895	8.674000E+01	  0.093947895	3.759000E+01	  0.093947895	3.593900E+01
371	  0.094148301	-7.958000E+00	  0.094148301	8.610000E+01	  0.094148301	3.798700E+01	  0.094148301	3.609700E+01
372	  0.094348699	-7.989000E+00	  0.094348699	8.551500E+01	  0.094348699	3.835300E+01	  0.094348699	3.623700E+01
373	  0.094549097	-8.023000E+00	  0.094549097	8.489500E+01	  0.094549097	3.874700E+01	  0.094549097	3.638100E+01
374	  0.094749503	-8.048000E+00	  0.094749503	8.430500E+01	  0.094749503	3.910700E+01	  0.094749503	3.653600E+01
375	  0.094949901	-8.082000E+00	  0.094949901	8.371300E+01	  0.094949901	3.949300E+01	  0.094949901	3.666200E+01
376	  0.095150299	-8.110000E+00	  0.095150299	8.310700E+01	  0.095150299	3.987500E+01	  0.095150299	3.680800E+01
377	  0.095350705	-8.145000E+00	  0.095350705	8.250300E+01	  0.095350705	4.027600E+01	  0.095350705	3.692800E+01
378	  0.095551103	-8.175000E+00	  0.095551103	8.190800E+01	  0.095551103	4.066500E+01	  0.095551103	3.705600E+01
379	  0.095751502	-8.204000E+00	  0.095751502	8.131700E+01	  0.095751502	4.105200E+01	  0.095751502	3.718100E+01
380	  0.095951907	-8.235000E+00	  0.095951907	8.072800E+01	  0.095951907	4.144700E+01	  0.095951907	3.729500E+01
381	  0.096152306	-8.267000E+00	  0.096152306	8.019200E+01	  0.096152306	4.181600E+01	  0.096152306	3.738500E+01
382	  0.096352704	-8.299000E+00	  0.096352704	7.961200E+01	  0.096352704	4.221400E+01	  0.096352704	3.748300E+01
383	  0.096553110	-8.331000E+00	  0.096553110	7.903600E+01	  0.096553110	4.261100E+01	  0.096553110	3.758000E+01
384	  0.096753508	-8.358000E+00	  0.096753508	7.849100E+01	  0.096753508	4.298300E+01	  0.096753508	3.767600E+01
385	  0.096953906	-8.390000E+00	  0.096953906	7.795400E+01	  0.096953906	4.336400E+01	  0.096953906	3.775000E+01
386	  0.097154312	-8.417000E+00	  0.097154312	7.739300E+01	  0.097154312	4.374800E+01	  0.097154312	3.784800E+01
387	  0.097354710	-8.446000E+00	  0.097354710	7.686400E+01	  0.097354710	4.412400E+01	  0.097354710	3.792000E+01
388	  0.097555116	-8.481000E+00	  0.097555116	7.634400E+01	  0.097555116	4.450800E+01	  0.097555116	3.796500E+01
389	  0.097755514	-8.507000E+00	  0.097755514	7.582600E+01	  0.097755514	4.487300E+01	  0.097755514	3.803800E+01
390	  0.097955912	-8.540000E+00	  0.097955912	7.531600E+01	  0.097955912	4.525200E+01	  0.097955912	3.807800E+01
391	  0.098156318	-8.570000E+00	  0.098156318	7.482000E+01	  0.098156318	4.561600E+01	  0.098156318	3.812500E+01
392	  0.098356716	-8.602000E+00	  0.098356716	7.432600E+01	  0.098356716	4.598700E+01	  0.098356716	3.815300E+01
393	  0.098557115	-8.626000E+00	  0.098557115	7.384600E+01	  0.098557115	4.633300E+01	  0.098557115	3.820900E+01
394	  0.098757520	-8.658000E+00	  0.098757520	7.337500E+01	  0.098757520	4.669100E+01	  0.098757520	3.822600E+01
395	  0.098957919	-8.688000E+00	  0.098957919	7.290100E+01	  0.098957919	4.704800E+01	  0.098957919	3.824900E+01
396	  0.099158317	-8.718000E+00	  0.099158317	7.239900E+01	  0.099158317	4.742400E+01	  0.099158317	3.827800E+01
397	  0.099358723	-8.744000E+00	  0.099358723	7.194300E+01	  0.099358723	4.776600E+01	  0.099358723	3.830000E+01
398	  0.099559121	-8.776000E+00	  0.099559121	7.147800E+01	  0.099559121	4.812500E+01	  0.099559121	3.830200E+01
399	  0.099759519	-8.804000E+00	  0.099759519	7.103600E+01	  0.099759519	4.846400E+01	  0.099759519	3.830800E+01
400	  0.099959925	-8.827000E+00	  0.099959925	7.062700E+01	  0.099959925	4.877100E+01	  0.099959925	3.832600E+01
401	  0.100160323	-8.851000E+00	  0.100160323	7.014100E+01	  0.100160323	4.913500E+01	  0.100160323	3.835300E+01
402	  0.100360721	-8.884000E+00	  0.100360721	6.974300E+01	  0.100360721	4.945400E+01	  0.100360721	3.831900E+01
403	  0.100561127	-8.910000E+00	  0.100561127	6.928200E+01	  0.100561127	4.980500E+01	  0.100561127	3.832700E+01
404	  0.100761525	-8.931000E+00	  0.100761525	6.880400E+01	  0.100761525	5.016100E+01	  0.100761525	3.835600E+01
405	  0.100961931	-8.953000E+00	  0.100961931	6.837400E+01	  0.100961931	5.048800E+01	  0.100961931	3.836400E+01
406	  0.101162329	-8.977000E+00	  0.101162329	6.796100E+01	  0.101162329	5.080700E+01	  0.101162329	3.835800E+01
407	  0.101362728	-9.002000E+00	  0.101362728	6.750300E+01	  0.101362728	5.115800E+01	  0.101362728	3.835900E+01
408	  0.101563133	-9.029000E+00	  0.101563133	6.708800E+01	  0.101563133	5.148600E+01	  0.101563133	3.833000E+01
409	  0.101763532	-9.036000E+00	  0.101763532	6.671500E+01	  0.101763532	5.175400E+01	  0.101763532	3.838500E+01
410	  0.101963930	-9.066000E+00	  0.101963930	6.629300E+01	  0.101963930	5.209100E+01	  0.101963930	3.834100E+01
411	  0.102164328	-9.079000E+00	  0.102164328	6.582700E+01	  0.102164328	5.243700E+01	  0.102164328	3.838000E+01
412	  0.102364726	-9.107000E+00	  0.102364726	6.536000E+01	  0.102364726	5.280400E+01	  0.102364726	3.835000E+01
413	  0.102565125	-9.117000E+00	  0.102565125	6.493600E+01	  0.102565125	5.311800E+01	  0.102565125	3.838800E+01
414	  0.102765530	-9.133000E+00	  0.102765530	6.455500E+01	  0.102765530	5.341100E+01	  0.102765530	3.838700E+01
415	  0.102965929	-9.150000E+00	  0.102965929	6.415900E+01	  0.102965929	5.371600E+01	  0.102965929	3.838500E+01
416	  0.103166327	-9.158000E+00	  0.103166327	6.370800E+01	  0.103166327	5.405200E+01	  0.103166327	3.843000E+01
417	  0.103366733	-9.165000E+00	  0.103366733	6.331500E+01	  0.103366733	5.434600E+01	  0.103366733	3.847100E+01
418	  0.103567131	-9.175000E+00	  0.103567131	6.289700E+01	  0.103567131	5.466400E+01	  0.103567131	3.849700E+01
419	  0.103767529	-9.184000E+00	  0.103767529	6.247600E+01	  0.103767529	5.498500E+01	  0.103767529	3.852100E+01
420	  0.103967935	-9.189000E+00	  0.103967935	6.206800E+01	  0.103967935	5.529300E+01	  0.103967935	3.856500E+01
421	  0.104168333	-9.199000E+00	  0.104168333	6.164000E+01	  0.104168333	5.562200E+01	  0.104168333	3.858700E+01
422	  0.104368731	-9.201000E+00	  0.104368731	6.125800E+01	  0.104368731	5.591200E+01	  0.104368731	3.863400E+01
423	  0.104569137	-9.207000E+00	  0.104569137	6.084900E+01	  0.104569137	5.622700E+01	  0.104569137	3.866400E+01
424	  0.104769535	-9.200000E+00	  0.104769535	6.047400E+01	  0.104769535	5.650700E+01	  0.104769535	3.875100E+01
425	  0.104969934	-9.212000E+00	  0.104969934	6.002700E+01	  0.104969934	5.685900E+01	  0.104969934	3.875600E+01
426	  0.105170339	-9.209000E+00	  0.105170339	5.963000E+01	  0.105170339	5.716400E+01	  0.105170339	3.882100E+01
427	  0.105370738	-9.220000E+00	  0.105370738	5.921700E+01	  0.105370738	5.749300E+01	  0.105370738	3.881800E+01
428	  0.105571143	-9.215000E+00	  0.105571143	5.876700E+01	  0.105571143	5.784200E+01	  0.105571143	3.889600E+01
429	  0.105771542	-9.218000E+00	  0.105771542	5.831300E+01	  0.105771542	5.820100E+01	  0.105771542	3.893300E+01
430	  0.105971940	-9.223000E+00	  0.105971940	5.794200E+01	  0.105971940	5.850000E+01	  0.105971940	3.894500E+01
431	  0.106172346	-9.222000E+00	  0.106172346	5.742500E+01	  0.106172346	5.891200E+01	  0.106172346	3.900300E+01
432	  0.106372744	-9.224000E+00	  0.106372744	5.705700E+01	  0.106372744	5.920900E+01	  0.106372744	3.902900E+01
433	  0.106573142	-9.229000E+00	  0.106573142	5.661500E+01	  0.106573142	5.957000E+01	  0.106573142	3.903800E+01
434	  0.106773548	-9.218000E+00	  0.106773548	5.610300E+01	  0.106773548	5.998100E+01	  0.106773548	3.914000E+01
435	  0.106973946	-9.213000E+00	  0.106973946	5.568100E+01	  0.106973946	6.032600E+01	  0.106973946	3.919800E+01
436	  0.107174344	-9.214000E+00	  0.107174344	5.518000E+01	  0.107174344	6.074200E+01	  0.107174344	3.922200E+01
437	  0.107374750	-9.213000E+00	  0.107374750	5.467800E+01	  0.107374750	6.116100E+01	  0.107374750	3.925500E+01
438	  0.107575148	-9.205000E+00	  0.107575148	5.419200E+01	  0.107575148	6.156700E+01	  0.107575148	3.932500E+01
439	  0.107775547	-9.206000E+00	  0.107775547	5.365400E+01	  0.107775547	6.202400E+01	  0.107775547	3.933800E+01
440	  0.107975952	-9.195000E+00	  0.107975952	5.315100E+01	  0.107975952	6.245200E+01	  0.107975952	3.941700E+01
441	  0.108176351	-9.191000E+00	  0.108176351	5.262800E+01	  0.108176351	6.290200E+01	  0.108176351	3.945200E+01
442	  0.108376749	-9.186000E+00	  0.108376749	5.208700E+01	  0.108376749	6.337300E+01	  0.108376749	3.948900E+01
443	  0.108577155	-9.179000E+00	  0.108577155	5.154400E+01	  0.108577155	6.384900E+01	  0.108577155	3.952700E+01
444	  0.108777553	-9.176000E+00	  0.108777553	5.098200E+01	  0.108777553	6.434600E+01	  0.108777553	3.954500E+01
445	  0.108977959	-9.159000E+00	  0.108977959	5.038300E+01	  0.108977959	6.488300E+01	  0.108977959	3.963100E+01
446	  0.109178357	-9.162000E+00	  0.109178357	4.978500E+01	  0.109178357	6.542100E+01	  0.109178357	3.959500E+01
447	  0.109378755	-9.154000E+00	  0.109378755	4.921900E+01	  0.109378755	6.593800E+01	  0.109378755	3.962000E+01
448	  0.109579161	-9.134000E+00	  0.109579161	4.866600E+01	  0.109579161	6.645100E+01	  0.109579161	3.971100E+01
449	  0.109779559	-9.121000E+00	  0.109779559	4.802800E+01	  0.109779559	6.704800E+01	  0.109779559	3.974500E+01
450	  0.109979957	-9.112000E+00	  0.109979957	4.744200E+01	  0.109979957	6.760000E+01	  0.109979957	3.975800E+01
451	  0.110180363	-9.100000E+00	  0.110180363	4.686200E+01	  0.110180363	6.815400E+01	  0.110180363	3.977800E+01
452	  0.110380761	-9.088000E+00	  0.110380761	4.616400E+01	  0.110380761	6.882600E+01	  0.110380761	3.978200E+01
453	  0.110581160	-9.083000E+00	  0.110581160	4.559200E+01	  0.110581160	6.937900E+01	  0.110581160	3.974300E+01
454	  0.110781565	-9.070000E+00	  0.110781565	4.495600E+01	  0.110781565	7.000500E+01	  0.110781565	3.973700E+01
455	  0.110981964	-9.053000E+00	  0.110981964	4.433300E+01	  0.110981964	7.062900E+01	  0.110981964	3.975300E+01
456	  0.111182362	-9.043000E+00	  0.111182362	4.371300E+01	  0.111182362	7.125100E+01	  0.111182362	3.971700E+01
457	  0.111382768	-9.030000E+00	  0.111382768	4.311400E+01	  0.111382768	7.186000E+01	  0.111382768	3.969100E+01
458	  0.111583166	-9.021000E+00	  0.111583166	4.247100E+01	  0.111583166	7.251400E+01	  0.111583166	3.962300E+01
459	  0.111783572	-9.021000E+00	  0.111783572	4.183500E+01	  0.111783572	7.315300E+01	  0.111783572	3.948300E+01
460	  0.111983970	-9.007000E+00	  0.111983970	4.119400E+01	  0.111983970	7.382500E+01	  0.111983970	3.943000E+01
461	  0.112184368	-9.003000E+00	  0.112184368	4.051400E+01	  0.112184368	7.452500E+01	  0.112184368	3.928500E+01
462	  0.112384774	-9.001000E+00	  0.112384774	3.983900E+01	  0.112384774	7.522000E+01	  0.112384774	3.911200E+01
463	  0.112585172	-8.997000E+00	  0.112585172	3.918300E+01	  0.112585172	7.590300E+01	  0.112585172	3.894500E+01
464	  0.112785570	-8.997000E+00	  0.112785570	3.852400E+01	  0.112785570	7.658300E+01	  0.112785570	3.873600E+01
465	  0.112985976	-8.990000E+00	  0.112985976	3.781200E+01	  0.112985976	7.733900E+01	  0.112985976	3.854600E+01
466	  0.113186374	-8.997000E+00	  0.113186374	3.711900E+01	  0.113186374	7.804400E+01	  0.113186374	3.825000E+01
467	  0.113386773	-9.009000E+00	  0.113386773	3.639000E+01	  0.113386773	7.877400E+01	  0.113386773	3.789000E+01
468	  0.113587178	-9.003000E+00	  0.113587178	3.569100E+01	  0.113587178	7.951900E+01	  0.113587178	3.764400E+01
469	  0.113787577	-9.009000E+00	  0.113787577	3.488800E+01	  0.113787577	8.034000E+01	  0.113787577	3.725300E+01
470	  0.113987975	-9.014000E+00	  0.113987975	3.412900E+01	  0.113987975	8.111700E+01	  0.113987975	3.686700E+01
471	  0.114188381	-9.023000E+00	  0.114188381	3.335000E+01	  0.114188381	8.190100E+01	  0.114188381	3.642600E+01
472	  0.114388779	-9.034000E+00	  0.114388779	3.255500E+01	  0.114388779	8.269100E+01	  0.114388779	3.594000E+01
473	  0.114589177	-9.043000E+00	  0.114589177	3.174700E+01	  0.114589177	8.349500E+01	  0.114589177	3.543900E+01
474	  0.114789583	-9.055000E+00	  0.114789583	3.093700E+01	  0.114789583	8.428000E+01	  0.114789583	3.488500E+01
475	  0.114989981	-9.064000E+00	  0.114989981	3.006600E+01	  0.114989981	8.513700E+01	  0.114989981	3.429700E+01
476	  0.115190387	-9.077000E+00	  0.115190387	2.920300E+01	  0.115190387	8.595800E+01	  0.115190387	3.365800E+01
477	  0.115390785	-9.095000E+00	  0.115390785	2.832200E+01	  0.115390785	8.676400E+01	  0.115390785	3.294900E+01
478	  0.115591183	-9.107000E+00	  0.115591183	2.744600E+01	  0.115591183	8.757500E+01	  0.115591183	3.225200E+01
479	  0.115791589	-9.121000E+00	  0.115791589	2.648400E+01	  0.115791589	8.845000E+01	  0.115791589	3.145100E+01
480	  0.115991987	-9.138000E+00	  0.115991987	2.560200E+01	  0.115991987	8.921500E+01	  0.115991987	3.066600E+01
481	  0.116192386	-9.156000E+00	  0.116192386	2.463900E+01	  0.116192386	9.002800E+01	  0.116192386	2.977500E+01
482	  0.116392791	-9.171000E+00	  0.116392791	2.366800E+01	  0.116392791	9.084500E+01	  0.116392791	2.886800E+01
483	  0.116593190	-9.193000E+00	  0.116593190	2.273400E+01	  0.116593190	9.155900E+01	  0.116593190	2.791600E+01
484	  0.116793588	-9.221000E+00	  0.116793588	2.172700E+01	  0.116793588	9.228000E+01	  0.116793588	2.684300E+01
485	  0.116993994	-9.228000E+00	  0.116993994	2.072300E+01	  0.116993994	9.308800E+01	  0.116993994	2.585400E+01
486	  0.117194392	-9.255000E+00	  0.117194392	1.972600E+01	  0.117194392	9.373700E+01	  0.117194392	2.473600E+01
487	  0.117394790	-9.276000E+00	  0.117394790	1.873200E+01	  0.117394790	9.438800E+01	  0.117394790	2.362700E+01
488	  0.117595196	-9.306000E+00	  0.117595196	1.768800E+01	  0.117595196	9.497500E+01	  0.117595196	2.239400E+01
489	  0.117795594	-9.328000E+00	  0.117795594	1.666200E+01	  0.117795594	9.556400E+01	  0.117795594	2.119500E+01
490	  0.117995992	-9.360000E+00	  0.117995992	1.564500E+01	  0.117995992	9.603600E+01	  0.117995992	1.994300E+01
491	  0.118196398	-9.396000E+00	  0.118196398	1.457300E+01	  0.118196398	9.646300E+01	  0.118196398	1.859100E+01
492	  0.118396796	-9.430000E+00	  0.118396796	1.351300E+01	  0.118396796	9.685400E+01	  0.118396796	1.725200E+01
493	  0.118597202	-9.468000E+00	  0.118597202	1.240500E+01	  0.118597202	9.718100E+01	  0.118597202	1.582500E+01
494	  0.118797600	-9.504000E+00	  0.118797600	1.129200E+01	  0.118797600	9.747100E+01	  0.118797600	1.439200E+01
