! Anritsu VNA Master:             	Model: MS2036C/10/77
! SN:             	1601066
! /bd0/18may10/256.ew.m1_1.txt
! Existing Calibration Information:
! TYPE:             	Current Settings	Active Cal Settings
! TIME:             	05/10/2018 10:11:07 AM	05/10/2018 10:05:08 AM
! INTERNAL TEMP:    	46.0 C	45.0 C
! # POINTS:         	494	494
! START FREQ:       	20.000 MHz	20.000 MHz
! STOP FREQ:        	118.797 594 MHz	118.797 594 MHz
! SOURCE POWER:     	High	High
! IFBW:             	50 Hz	50 Hz
! AVG FACTOR:       	  1 	  1 
! REF PLANE 1:      	0 mm	0 mm
! REF PLANE 2:      	0 mm	0 mm
! CAL TYPE:         	Full S22	Full S22
! CAL METHOD:       	SOLT	SOLT
! CAL LINE TYPE:    	Coax	Coax
! DUT PORT 1:       	K-Conn(M)	K-Conn(M)
! DUT PORT 2:       	K-Conn(M)	K-Conn(M)
! CAL STATUS:       	OK: Accuracy High	--
! PROP-V:       	0.700
! CABLE LOSS:       	0.000 dB/m
! REF IMPEDANCE:       	50.0
! Trace Specific Parameters:	TR1	TR2	TR3	TR4
! TRACE.#.Y (GRAPH TYPE)	LOG MAG	PHASE	REAL IMPEDANCE	IMAGINARY IMPEDANCE
! TRACE.#.X 	FREQ.GHZ	FREQ.GHZ	FREQ.GHZ	FREQ.GHZ
! S-PARAMETER	S22	S22	S22	S22
! SMOOTH/APERTURE %	0	0	0	0
! WINDOW	NSL	NSL	NSL	NSL
! GATING	OFF	OFF	OFF	OFF
! FGTD	OFF	OFF	OFF	OFF
Marker Information per Trace:	TR1	TR2	TR3	TR4
!MK1	--	"MK1 TR2:  20.000 MHz,PH:-126.98°"	--	--
!MK2	--	--	"MK2 TR3:  70.100 200 MHz,Z:(16.349 ohm, -1.322 ohm)"	--
!MK3	--	--	--	--
!MK4	--	--	--	--
!MK5	--	--	--	--
!MK6	--	--	--	--
!MK7	--	--	--	--
!MK8	--	--	--	--
PNT	TR1.FREQ.GHZ	TR1.LOG MAG.dB	TR2.FREQ.GHZ	TR2.PHASE.deg	TR3.FREQ.GHZ	TR3.REAL IMPEDANCE.ohm	TR4.FREQ.GHZ	TR4.IMAGINARY IMPEDANCE.ohm
1	  0.020000000	-6.160000E-01	  0.020000000	-1.269820E+02	  0.020000000	2.215000E+00	  0.020000000	-2.489900E+01
2	  0.020200402	-6.200000E-01	  0.020200402	-1.284440E+02	  0.020200402	2.200000E+00	  0.020200402	-2.410800E+01
3	  0.020400802	-6.240000E-01	  0.020400802	-1.299120E+02	  0.020400802	2.189000E+00	  0.020400802	-2.332500E+01
4	  0.020601204	-6.280000E-01	  0.020601204	-1.314050E+02	  0.020601204	2.174000E+00	  0.020601204	-2.253700E+01
5	  0.020801604	-6.320000E-01	  0.020801604	-1.329320E+02	  0.020801604	2.165000E+00	  0.020801604	-2.174100E+01
6	  0.021002004	-6.340000E-01	  0.021002004	-1.344680E+02	  0.021002004	2.146000E+00	  0.021002004	-2.095000E+01
7	  0.021202406	-6.400000E-01	  0.021202406	-1.360070E+02	  0.021202406	2.144000E+00	  0.021202406	-2.016500E+01
8	  0.021402806	-6.440000E-01	  0.021402806	-1.375390E+02	  0.021402806	2.132000E+00	  0.021402806	-1.939300E+01
9	  0.021603208	-6.460000E-01	  0.021603208	-1.390520E+02	  0.021603208	2.119000E+00	  0.021603208	-1.863800E+01
10	  0.021803608	-6.510000E-01	  0.021803608	-1.405840E+02	  0.021803608	2.115000E+00	  0.021803608	-1.788100E+01
11	  0.022004008	-6.590000E-01	  0.022004008	-1.421330E+02	  0.022004008	2.119000E+00	  0.022004008	-1.712300E+01
12	  0.022204408	-6.640000E-01	  0.022204408	-1.436950E+02	  0.022204408	2.115000E+00	  0.022204408	-1.636600E+01
13	  0.022404809	-6.720000E-01	  0.022404809	-1.453050E+02	  0.022404809	2.122000E+00	  0.022404809	-1.559200E+01
14	  0.022605211	-6.800000E-01	  0.022605211	-1.468920E+02	  0.022605211	2.129000E+00	  0.022605211	-1.483700E+01
15	  0.022805611	-6.850000E-01	  0.022805611	-1.484850E+02	  0.022805611	2.129000E+00	  0.022805611	-1.408400E+01
16	  0.023006011	-6.890000E-01	  0.023006011	-1.500820E+02	  0.023006011	2.124000E+00	  0.023006011	-1.333600E+01
17	  0.023206413	-6.940000E-01	  0.023206413	-1.516880E+02	  0.023206413	2.124000E+00	  0.023206413	-1.258900E+01
18	  0.023406813	-7.010000E-01	  0.023406813	-1.532790E+02	  0.023406813	2.131000E+00	  0.023406813	-1.185400E+01
19	  0.023607215	-7.090000E-01	  0.023607215	-1.548920E+02	  0.023607215	2.140000E+00	  0.023607215	-1.111400E+01
20	  0.023807615	-7.210000E-01	  0.023807615	-1.565260E+02	  0.023807615	2.165000E+00	  0.023807615	-1.036900E+01
21	  0.024008015	-7.320000E-01	  0.024008015	-1.581600E+02	  0.024008015	2.184000E+00	  0.024008015	-9.628000E+00
22	  0.024208417	-7.390000E-01	  0.024208417	-1.598130E+02	  0.024208417	2.194000E+00	  0.024208417	-8.883000E+00
23	  0.024408817	-7.450000E-01	  0.024408817	-1.614850E+02	  0.024408817	2.201000E+00	  0.024408817	-8.134000E+00
24	  0.024609219	-7.540000E-01	  0.024609219	-1.631400E+02	  0.024609219	2.218000E+00	  0.024609219	-7.395000E+00
25	  0.024809619	-7.640000E-01	  0.024809619	-1.648090E+02	  0.024809619	2.238000E+00	  0.024809619	-6.654000E+00
26	  0.025010020	-7.760000E-01	  0.025010020	-1.664920E+02	  0.025010020	2.264000E+00	  0.025010020	-5.909000E+00
27	  0.025210422	-7.880000E-01	  0.025210422	-1.681670E+02	  0.025210422	2.291000E+00	  0.025210422	-5.170000E+00
28	  0.025410822	-8.010000E-01	  0.025410822	-1.698590E+02	  0.025410822	2.323000E+00	  0.025410822	-4.426000E+00
29	  0.025611224	-8.140000E-01	  0.025611224	-1.715690E+02	  0.025611224	2.354000E+00	  0.025611224	-3.676000E+00
30	  0.025811624	-8.260000E-01	  0.025811624	-1.732810E+02	  0.025811624	2.386000E+00	  0.025811624	-2.928000E+00
31	  0.026012026	-8.390000E-01	  0.026012026	-1.750080E+02	  0.026012026	2.418000E+00	  0.026012026	-2.174000E+00
32	  0.026212426	-8.520000E-01	  0.026212426	-1.767530E+02	  0.026212426	2.454000E+00	  0.026212426	-1.413000E+00
33	  0.026412826	-8.690000E-01	  0.026412826	-1.785030E+02	  0.026412826	2.501000E+00	  0.026412826	-6.510000E-01
34	  0.026613226	-8.850000E-01	  0.026613226	1.797400E+02	  0.026613226	2.547000E+00	  0.026613226	1.120000E-01
35	  0.026813626	-9.020000E-01	  0.026813626	1.779830E+02	  0.026813626	2.595000E+00	  0.026813626	8.770000E-01
36	  0.027014028	-9.180000E-01	  0.027014028	1.762050E+02	  0.027014028	2.645000E+00	  0.027014028	1.651000E+00
37	  0.027214428	-9.380000E-01	  0.027214428	1.744310E+02	  0.027214428	2.703000E+00	  0.027214428	2.424000E+00
38	  0.027414829	-9.560000E-01	  0.027414829	1.726500E+02	  0.027414829	2.760000E+00	  0.027414829	3.201000E+00
39	  0.027615231	-9.760000E-01	  0.027615231	1.708430E+02	  0.027615231	2.825000E+00	  0.027615231	3.991000E+00
40	  0.027815631	-9.970000E-01	  0.027815631	1.690300E+02	  0.027815631	2.893000E+00	  0.027815631	4.785000E+00
41	  0.028016033	-1.018000E+00	  0.028016033	1.672040E+02	  0.028016033	2.963000E+00	  0.028016033	5.586000E+00
42	  0.028216433	-1.040000E+00	  0.028216433	1.653710E+02	  0.028216433	3.040000E+00	  0.028216433	6.394000E+00
43	  0.028416833	-1.063000E+00	  0.028416833	1.635250E+02	  0.028416833	3.121000E+00	  0.028416833	7.210000E+00
44	  0.028617235	-1.087000E+00	  0.028617235	1.616880E+02	  0.028617235	3.206000E+00	  0.028617235	8.026000E+00
45	  0.028817635	-1.111000E+00	  0.028817635	1.598430E+02	  0.028817635	3.295000E+00	  0.028817635	8.849000E+00
46	  0.029018037	-1.136000E+00	  0.029018037	1.579910E+02	  0.029018037	3.390000E+00	  0.029018037	9.679000E+00
47	  0.029218437	-1.162000E+00	  0.029218437	1.561270E+02	  0.029218437	3.490000E+00	  0.029218437	1.052000E+01
48	  0.029418837	-1.190000E+00	  0.029418837	1.542540E+02	  0.029418837	3.600000E+00	  0.029418837	1.137000E+01
49	  0.029619239	-1.217000E+00	  0.029619239	1.523660E+02	  0.029619239	3.710000E+00	  0.029619239	1.223300E+01
50	  0.029819639	-1.246000E+00	  0.029819639	1.504700E+02	  0.029819639	3.827000E+00	  0.029819639	1.310500E+01
51	  0.030020041	-1.275000E+00	  0.030020041	1.485810E+02	  0.030020041	3.952000E+00	  0.030020041	1.398100E+01
52	  0.030220442	-1.303000E+00	  0.030220442	1.466910E+02	  0.030220442	4.077000E+00	  0.030220442	1.486500E+01
53	  0.030420844	-1.332000E+00	  0.030420844	1.447950E+02	  0.030420844	4.210000E+00	  0.030420844	1.576000E+01
54	  0.030621244	-1.363000E+00	  0.030621244	1.429020E+02	  0.030621244	4.355000E+00	  0.030621244	1.666200E+01
55	  0.030821642	-1.396000E+00	  0.030821642	1.409870E+02	  0.030821642	4.510000E+00	  0.030821642	1.758300E+01
56	  0.031022044	-1.430000E+00	  0.031022044	1.390620E+02	  0.031022044	4.675000E+00	  0.031022044	1.851900E+01
57	  0.031222444	-1.458000E+00	  0.031222444	1.371370E+02	  0.031222444	4.828000E+00	  0.031222444	1.946700E+01
58	  0.031422846	-1.492000E+00	  0.031422846	1.351740E+02	  0.031422846	5.009000E+00	  0.031422846	2.044400E+01
59	  0.031623244	-1.528000E+00	  0.031623244	1.331920E+02	  0.031623244	5.203000E+00	  0.031623244	2.144200E+01
60	  0.031823646	-1.563000E+00	  0.031823646	1.312310E+02	  0.031823646	5.400000E+00	  0.031823646	2.244400E+01
61	  0.032024048	-1.600000E+00	  0.032024048	1.292710E+02	  0.032024048	5.615000E+00	  0.032024048	2.345900E+01
62	  0.032224450	-1.636000E+00	  0.032224450	1.272720E+02	  0.032224450	5.837000E+00	  0.032224450	2.450800E+01
63	  0.032424849	-1.676000E+00	  0.032424849	1.252910E+02	  0.032424849	6.083000E+00	  0.032424849	2.556400E+01
64	  0.032625251	-1.715000E+00	  0.032625251	1.232770E+02	  0.032625251	6.337000E+00	  0.032625251	2.665400E+01
65	  0.032825653	-1.756000E+00	  0.032825653	1.212440E+02	  0.032825653	6.613000E+00	  0.032825653	2.777200E+01
66	  0.033026051	-1.796000E+00	  0.033026051	1.192070E+02	  0.033026051	6.899000E+00	  0.033026051	2.891300E+01
67	  0.033226453	-1.837000E+00	  0.033226453	1.171730E+02	  0.033226453	7.204000E+00	  0.033226453	3.007200E+01
68	  0.033426855	-1.877000E+00	  0.033426855	1.151160E+02	  0.033426855	7.521000E+00	  0.033426855	3.126700E+01
69	  0.033627257	-1.922000E+00	  0.033627257	1.130820E+02	  0.033627257	7.875000E+00	  0.033627257	3.246800E+01
70	  0.033827655	-1.969000E+00	  0.033827655	1.110480E+02	  0.033827655	8.258000E+00	  0.033827655	3.369200E+01
71	  0.034028057	-2.009000E+00	  0.034028057	1.089890E+02	  0.034028057	8.631000E+00	  0.034028057	3.496200E+01
72	  0.034228459	-2.057000E+00	  0.034228459	1.069140E+02	  0.034228459	9.061000E+00	  0.034228459	3.626400E+01
73	  0.034428857	-2.102000E+00	  0.034428857	1.048430E+02	  0.034428857	9.507000E+00	  0.034428857	3.759300E+01
74	  0.034629259	-2.149000E+00	  0.034629259	1.027350E+02	  0.034629259	9.991000E+00	  0.034629259	3.897700E+01
75	  0.034829661	-2.197000E+00	  0.034829661	1.006610E+02	  0.034829661	1.050100E+01	  0.034829661	4.037000E+01
76	  0.035030060	-2.248000E+00	  0.035030060	9.859100E+01	  0.035030060	1.106400E+01	  0.035030060	4.178700E+01
77	  0.035230462	-2.296000E+00	  0.035230462	9.648800E+01	  0.035230462	1.164700E+01	  0.035230462	4.326800E+01
78	  0.035430863	-2.347000E+00	  0.035430863	9.441200E+01	  0.035430863	1.228100E+01	  0.035430863	4.476300E+01
79	  0.035631265	-2.396000E+00	  0.035631265	9.232900E+01	  0.035631265	1.294800E+01	  0.035631265	4.630300E+01
80	  0.035831664	-2.447000E+00	  0.035831664	9.022200E+01	  0.035831664	1.367800E+01	  0.035831664	4.789800E+01
81	  0.036032066	-2.498000E+00	  0.036032066	8.813900E+01	  0.036032066	1.444700E+01	  0.036032066	4.951800E+01
82	  0.036232468	-2.549000E+00	  0.036232468	8.606300E+01	  0.036232468	1.527100E+01	  0.036232468	5.117500E+01
83	  0.036432866	-2.602000E+00	  0.036432866	8.395700E+01	  0.036432866	1.617500E+01	  0.036432866	5.289800E+01
84	  0.036633268	-2.653000E+00	  0.036633268	8.187400E+01	  0.036633268	1.712700E+01	  0.036633268	5.465300E+01
85	  0.036833670	-2.708000E+00	  0.036833670	7.976700E+01	  0.036833670	1.818300E+01	  0.036833670	5.646800E+01
86	  0.037034072	-2.762000E+00	  0.037034072	7.766400E+01	  0.037034072	1.931200E+01	  0.037034072	5.833200E+01
87	  0.037234470	-2.815000E+00	  0.037234470	7.557900E+01	  0.037234470	2.051700E+01	  0.037234470	6.023100E+01
88	  0.037434869	-2.872000E+00	  0.037434869	7.346300E+01	  0.037434869	2.184900E+01	  0.037434869	6.220500E+01
89	  0.037635271	-2.925000E+00	  0.037635271	7.135600E+01	  0.037635271	2.326400E+01	  0.037635271	6.423300E+01
90	  0.037835669	-2.978000E+00	  0.037835669	6.924000E+01	  0.037835669	2.479900E+01	  0.037835669	6.632500E+01
91	  0.038036071	-3.040000E+00	  0.038036071	6.712300E+01	  0.038036071	2.653200E+01	  0.038036071	6.843600E+01
92	  0.038236473	-3.095000E+00	  0.038236473	6.498800E+01	  0.038236473	2.837700E+01	  0.038236473	7.064500E+01
93	  0.038436871	-3.155000E+00	  0.038436871	6.287500E+01	  0.038436871	3.039700E+01	  0.038436871	7.285700E+01
94	  0.038637273	-3.213000E+00	  0.038637273	6.074600E+01	  0.038637273	3.259200E+01	  0.038637273	7.514300E+01
95	  0.038837675	-3.270000E+00	  0.038837675	5.864200E+01	  0.038837675	3.495700E+01	  0.038837675	7.744100E+01
96	  0.039038073	-3.325000E+00	  0.039038073	5.655300E+01	  0.039038073	3.750200E+01	  0.039038073	7.976300E+01
97	  0.039238475	-3.383000E+00	  0.039238475	5.443800E+01	  0.039238475	4.032900E+01	  0.039238475	8.212700E+01
98	  0.039438877	-3.441000E+00	  0.039438877	5.233900E+01	  0.039438877	4.339200E+01	  0.039438877	8.448200E+01
99	  0.039639279	-3.500000E+00	  0.039639279	5.020800E+01	  0.039639279	4.680200E+01	  0.039639279	8.685500E+01
100	  0.039839678	-3.557000E+00	  0.039839678	4.810000E+01	  0.039839678	5.046300E+01	  0.039839678	8.920200E+01
101	  0.040040080	-3.617000E+00	  0.040040080	4.596500E+01	  0.040040080	5.454600E+01	  0.040040080	9.148900E+01
102	  0.040240481	-3.670000E+00	  0.040240481	4.385500E+01	  0.040240481	5.889200E+01	  0.040240481	9.375000E+01
103	  0.040440880	-3.726000E+00	  0.040440880	4.174800E+01	  0.040440880	6.366700E+01	  0.040440880	9.583500E+01
104	  0.040641282	-3.782000E+00	  0.040641282	3.964700E+01	  0.040641282	6.884600E+01	  0.040641282	9.776300E+01
105	  0.040841684	-3.840000E+00	  0.040841684	3.756800E+01	  0.040841684	7.444500E+01	  0.040841684	9.939200E+01
106	  0.041042086	-3.896000E+00	  0.041042086	3.548400E+01	  0.041042086	8.050700E+01	  0.041042086	1.007570E+02
107	  0.041242484	-3.955000E+00	  0.041242484	3.340700E+01	  0.041242484	8.704200E+01	  0.041242484	1.016960E+02
108	  0.041442886	-4.009000E+00	  0.041442886	3.129800E+01	  0.041442886	9.413500E+01	  0.041442886	1.022820E+02
109	  0.041643288	-4.061000E+00	  0.041643288	2.921600E+01	  0.041643288	1.016210E+02	  0.041643288	1.023040E+02
110	  0.041843686	-4.115000E+00	  0.041843686	2.713600E+01	  0.041843686	1.095460E+02	  0.041843686	1.016040E+02
111	  0.042044088	-4.167000E+00	  0.042044088	2.509000E+01	  0.042044088	1.177230E+02	  0.042044088	1.001680E+02
112	  0.042244490	-4.218000E+00	  0.042244490	2.304000E+01	  0.042244490	1.262150E+02	  0.042244490	9.781800E+01
113	  0.042444889	-4.272000E+00	  0.042444889	2.102500E+01	  0.042444889	1.347160E+02	  0.042444889	9.440200E+01
114	  0.042645290	-4.325000E+00	  0.042645290	1.899200E+01	  0.042645290	1.433140E+02	  0.042645290	8.990500E+01
115	  0.042845692	-4.373000E+00	  0.042845692	1.696600E+01	  0.042845692	1.517640E+02	  0.042845692	8.435100E+01
116	  0.043046094	-4.423000E+00	  0.043046094	1.497200E+01	  0.043046094	1.596680E+02	  0.043046094	7.759800E+01
117	  0.043246493	-4.471000E+00	  0.043246493	1.294500E+01	  0.043246493	1.671600E+02	  0.043246493	6.962600E+01
118	  0.043446895	-4.516000E+00	  0.043446895	1.095700E+01	  0.043446895	1.737260E+02	  0.043446895	6.073500E+01
119	  0.043647297	-4.562000E+00	  0.043647297	8.966000E+00	  0.043647297	1.792230E+02	  0.043647297	5.081200E+01
120	  0.043847695	-4.607000E+00	  0.043847695	6.997000E+00	  0.043847695	1.834160E+02	  0.043847695	4.020700E+01
121	  0.044048097	-4.652000E+00	  0.044048097	5.012000E+00	  0.044048097	1.862770E+02	  0.044048097	2.897900E+01
122	  0.044248499	-4.695000E+00	  0.044248499	3.052000E+00	  0.044248499	1.876970E+02	  0.044248499	1.761900E+01
123	  0.044448901	-4.736000E+00	  0.044448901	1.077000E+00	  0.044448901	1.876870E+02	  0.044448901	6.164000E+00
124	  0.044649299	-4.778000E+00	  0.044649299	-8.700000E-01	  0.044649299	1.861790E+02	  0.044649299	-4.889000E+00
125	  0.044849701	-4.820000E+00	  0.044849701	-2.820000E+00	  0.044849701	1.833740E+02	  0.044849701	-1.545000E+01
126	  0.045050103	-4.859000E+00	  0.045050103	-4.774000E+00	  0.045050103	1.794870E+02	  0.045050103	-2.535800E+01
127	  0.045250501	-4.904000E+00	  0.045250501	-6.706000E+00	  0.045250501	1.744850E+02	  0.045250501	-3.423800E+01
128	  0.045450903	-4.944000E+00	  0.045450903	-8.642000E+00	  0.045450903	1.688590E+02	  0.045450903	-4.225200E+01
129	  0.045651305	-4.987000E+00	  0.045651305	-1.056800E+01	  0.045651305	1.626330E+02	  0.045651305	-4.920000E+01
130	  0.045851704	-5.023000E+00	  0.045851704	-1.249200E+01	  0.045851704	1.561910E+02	  0.045851704	-5.528000E+01
131	  0.046052102	-5.061000E+00	  0.046052102	-1.438900E+01	  0.046052102	1.495630E+02	  0.046052102	-6.030700E+01
132	  0.046252504	-5.099000E+00	  0.046252504	-1.626600E+01	  0.046252504	1.429260E+02	  0.046252504	-6.442200E+01
133	  0.046452906	-5.138000E+00	  0.046452906	-1.811800E+01	  0.046452906	1.364030E+02	  0.046452906	-6.769000E+01
134	  0.046653304	-5.174000E+00	  0.046653304	-1.997100E+01	  0.046653304	1.300140E+02	  0.046653304	-7.031000E+01
135	  0.046853706	-5.203000E+00	  0.046853706	-2.180900E+01	  0.046853706	1.239160E+02	  0.046853706	-7.244100E+01
136	  0.047054108	-5.231000E+00	  0.047054108	-2.363600E+01	  0.047054108	1.180450E+02	  0.047054108	-7.402500E+01
137	  0.047254506	-5.258000E+00	  0.047254506	-2.547500E+01	  0.047254506	1.123660E+02	  0.047254506	-7.516100E+01
138	  0.047454908	-5.282000E+00	  0.047454908	-2.732800E+01	  0.047454908	1.069000E+02	  0.047454908	-7.592500E+01
139	  0.047655310	-5.303000E+00	  0.047655310	-2.916000E+01	  0.047655310	1.017560E+02	  0.047655310	-7.636600E+01
140	  0.047855709	-5.327000E+00	  0.047855709	-3.099300E+01	  0.047855709	9.686000E+01	  0.047855709	-7.643200E+01
141	  0.048056111	-5.353000E+00	  0.048056111	-3.283600E+01	  0.048056111	9.219900E+01	  0.048056111	-7.619700E+01
142	  0.048256513	-5.375000E+00	  0.048256513	-3.464300E+01	  0.048256513	8.788800E+01	  0.048256513	-7.580100E+01
143	  0.048456915	-5.399000E+00	  0.048456915	-3.645100E+01	  0.048456915	8.382000E+01	  0.048456915	-7.518100E+01
144	  0.048657313	-5.420000E+00	  0.048657313	-3.827000E+01	  0.048657313	7.996400E+01	  0.048657313	-7.444200E+01
145	  0.048857715	-5.442000E+00	  0.048857715	-4.009100E+01	  0.048857715	7.633800E+01	  0.048857715	-7.354500E+01
146	  0.049058117	-5.461000E+00	  0.049058117	-4.186100E+01	  0.049058117	7.301500E+01	  0.049058117	-7.260700E+01
147	  0.049258515	-5.482000E+00	  0.049258515	-4.362900E+01	  0.049258515	6.990000E+01	  0.049258515	-7.155700E+01
148	  0.049458917	-5.502000E+00	  0.049458917	-4.538800E+01	  0.049458917	6.698100E+01	  0.049458917	-7.045900E+01
149	  0.049659319	-5.528000E+00	  0.049659319	-4.710000E+01	  0.049659319	6.433000E+01	  0.049659319	-6.927200E+01
150	  0.049859721	-5.547000E+00	  0.049859721	-4.882300E+01	  0.049859721	6.179800E+01	  0.049859721	-6.810100E+01
151	  0.050060119	-5.568000E+00	  0.050060119	-5.053000E+01	  0.050060119	5.943900E+01	  0.050060119	-6.690100E+01
152	  0.050260521	-5.586000E+00	  0.050260521	-5.222200E+01	  0.050260521	5.722800E+01	  0.050260521	-6.570800E+01
153	  0.050460923	-5.605000E+00	  0.050460923	-5.393000E+01	  0.050460923	5.512700E+01	  0.050460923	-6.447800E+01
154	  0.050661322	-5.620000E+00	  0.050661322	-5.561600E+01	  0.050661322	5.315800E+01	  0.050661322	-6.328100E+01
155	  0.050861724	-5.640000E+00	  0.050861724	-5.726900E+01	  0.050861724	5.135300E+01	  0.050861724	-6.206400E+01
156	  0.051062126	-5.657000E+00	  0.051062126	-5.891500E+01	  0.051062126	4.964200E+01	  0.051062126	-6.087100E+01
157	  0.051262524	-5.677000E+00	  0.051262524	-6.056100E+01	  0.051262524	4.803600E+01	  0.051262524	-5.966200E+01
158	  0.051462926	-5.694000E+00	  0.051462926	-6.219000E+01	  0.051462926	4.652300E+01	  0.051462926	-5.848200E+01
159	  0.051663328	-5.712000E+00	  0.051663328	-6.380300E+01	  0.051663328	4.510400E+01	  0.051663328	-5.731900E+01
160	  0.051863730	-5.731000E+00	  0.051863730	-6.541500E+01	  0.051863730	4.376900E+01	  0.051863730	-5.615500E+01
161	  0.052064128	-5.744000E+00	  0.052064128	-6.701200E+01	  0.052064128	4.248900E+01	  0.052064128	-5.504200E+01
162	  0.052264530	-5.754000E+00	  0.052264530	-6.861500E+01	  0.052264530	4.125300E+01	  0.052264530	-5.395200E+01
163	  0.052464932	-5.769000E+00	  0.052464932	-7.020000E+01	  0.052464932	4.011500E+01	  0.052464932	-5.285300E+01
164	  0.052665330	-5.783000E+00	  0.052665330	-7.174700E+01	  0.052665330	3.905800E+01	  0.052665330	-5.179300E+01
165	  0.052865732	-5.797000E+00	  0.052865732	-7.332100E+01	  0.052865732	3.802900E+01	  0.052865732	-5.073200E+01
166	  0.053066134	-5.813000E+00	  0.053066134	-7.483800E+01	  0.053066134	3.709600E+01	  0.053066134	-4.970600E+01
167	  0.053266536	-5.826000E+00	  0.053266536	-7.637200E+01	  0.053266536	3.618800E+01	  0.053266536	-4.869100E+01
168	  0.053466935	-5.838000E+00	  0.053466935	-7.790800E+01	  0.053466935	3.531200E+01	  0.053466935	-4.769400E+01
169	  0.053667337	-5.851000E+00	  0.053667337	-7.942300E+01	  0.053667337	3.449500E+01	  0.053667337	-4.671600E+01
170	  0.053867739	-5.862000E+00	  0.053867739	-8.092600E+01	  0.053867739	3.370800E+01	  0.053867739	-4.576700E+01
171	  0.054068137	-5.871000E+00	  0.054068137	-8.243700E+01	  0.054068137	3.294900E+01	  0.054068137	-4.482600E+01
172	  0.054268539	-5.881000E+00	  0.054268539	-8.393500E+01	  0.054268539	3.223100E+01	  0.054268539	-4.390300E+01
173	  0.054468941	-5.893000E+00	  0.054468941	-8.539900E+01	  0.054468941	3.157100E+01	  0.054468941	-4.300200E+01
174	  0.054669335	-5.902000E+00	  0.054669335	-8.687100E+01	  0.054669335	3.092300E+01	  0.054669335	-4.211800E+01
175	  0.054869737	-5.910000E+00	  0.054869737	-8.831000E+01	  0.054869737	3.031100E+01	  0.054869737	-4.126700E+01
176	  0.055070139	-5.921000E+00	  0.055070139	-8.975800E+01	  0.055070139	2.973200E+01	  0.055070139	-4.041000E+01
177	  0.055270538	-5.925000E+00	  0.055270538	-9.119500E+01	  0.055270538	2.915900E+01	  0.055270538	-3.958700E+01
178	  0.055470940	-5.935000E+00	  0.055470940	-9.262000E+01	  0.055470940	2.863200E+01	  0.055470940	-3.876500E+01
179	  0.055671342	-5.938000E+00	  0.055671342	-9.404000E+01	  0.055671342	2.810300E+01	  0.055671342	-3.797300E+01
180	  0.055871744	-5.945000E+00	  0.055871744	-9.545500E+01	  0.055871744	2.761200E+01	  0.055871744	-3.718100E+01
181	  0.056072142	-5.953000E+00	  0.056072142	-9.685400E+01	  0.056072142	2.714700E+01	  0.056072142	-3.640500E+01
182	  0.056272544	-5.958000E+00	  0.056272544	-9.822800E+01	  0.056272544	2.669900E+01	  0.056272544	-3.565700E+01
183	  0.056472946	-5.962000E+00	  0.056472946	-9.957700E+01	  0.056472946	2.627500E+01	  0.056472946	-3.493100E+01
184	  0.056673344	-5.969000E+00	  0.056673344	-1.009320E+02	  0.056673344	2.587200E+01	  0.056673344	-3.420400E+01
185	  0.056873746	-5.974000E+00	  0.056873746	-1.022700E+02	  0.056873746	2.548300E+01	  0.056873746	-3.349700E+01
186	  0.057074148	-5.979000E+00	  0.057074148	-1.036300E+02	  0.057074148	2.510100E+01	  0.057074148	-3.278500E+01
187	  0.057274550	-5.981000E+00	  0.057274550	-1.049880E+02	  0.057274550	2.472600E+01	  0.057274550	-3.208600E+01
188	  0.057474948	-5.986000E+00	  0.057474948	-1.063020E+02	  0.057474948	2.438400E+01	  0.057474948	-3.141100E+01
189	  0.057675350	-5.991000E+00	  0.057675350	-1.076170E+02	  0.057675350	2.405500E+01	  0.057675350	-3.074200E+01
190	  0.057875752	-5.999000E+00	  0.057875752	-1.089390E+02	  0.057875752	2.374600E+01	  0.057875752	-3.007000E+01
191	  0.058076151	-6.004000E+00	  0.058076151	-1.102390E+02	  0.058076151	2.344300E+01	  0.058076151	-2.942100E+01
192	  0.058276553	-6.006000E+00	  0.058276553	-1.115170E+02	  0.058276553	2.315000E+01	  0.058276553	-2.879100E+01
193	  0.058476955	-6.012000E+00	  0.058476955	-1.127910E+02	  0.058476955	2.287600E+01	  0.058476955	-2.816400E+01
194	  0.058677353	-6.015000E+00	  0.058677353	-1.140850E+02	  0.058677353	2.260000E+01	  0.058677353	-2.753600E+01
195	  0.058877755	-6.021000E+00	  0.058877755	-1.153620E+02	  0.058877755	2.234700E+01	  0.058877755	-2.691700E+01
196	  0.059078157	-6.024000E+00	  0.059078157	-1.166110E+02	  0.059078157	2.209700E+01	  0.059078157	-2.632200E+01
197	  0.059278559	-6.029000E+00	  0.059278559	-1.178680E+02	  0.059278559	2.186200E+01	  0.059278559	-2.572500E+01
198	  0.059478957	-6.032000E+00	  0.059478957	-1.191240E+02	  0.059478957	2.162900E+01	  0.059478957	-2.513500E+01
199	  0.059679359	-6.037000E+00	  0.059679359	-1.203650E+02	  0.059679359	2.141300E+01	  0.059679359	-2.455300E+01
200	  0.059879761	-6.042000E+00	  0.059879761	-1.215900E+02	  0.059879761	2.120700E+01	  0.059879761	-2.398400E+01
201	  0.060080159	-6.048000E+00	  0.060080159	-1.228130E+02	  0.060080159	2.101000E+01	  0.060080159	-2.341900E+01
202	  0.060280561	-6.051000E+00	  0.060280561	-1.240130E+02	  0.060280561	2.081700E+01	  0.060280561	-2.287100E+01
203	  0.060480963	-6.057000E+00	  0.060480963	-1.252180E+02	  0.060480963	2.063700E+01	  0.060480963	-2.232300E+01
204	  0.060681365	-6.061000E+00	  0.060681365	-1.264030E+02	  0.060681365	2.046300E+01	  0.060681365	-2.178700E+01
205	  0.060881764	-6.061000E+00	  0.060881764	-1.276130E+02	  0.060881764	2.027800E+01	  0.060881764	-2.124900E+01
206	  0.061082166	-6.068000E+00	  0.061082166	-1.288000E+02	  0.061082166	2.012200E+01	  0.061082166	-2.071800E+01
207	  0.061282568	-6.072000E+00	  0.061282568	-1.299850E+02	  0.061282568	1.996500E+01	  0.061282568	-2.019400E+01
208	  0.061482966	-6.074000E+00	  0.061482966	-1.311530E+02	  0.061482966	1.980900E+01	  0.061482966	-1.968200E+01
209	  0.061683368	-6.078000E+00	  0.061683368	-1.323190E+02	  0.061683368	1.966300E+01	  0.061683368	-1.917200E+01
210	  0.061883770	-6.082000E+00	  0.061883770	-1.334490E+02	  0.061883770	1.952800E+01	  0.061883770	-1.868000E+01
211	  0.062084168	-6.082000E+00	  0.062084168	-1.345710E+02	  0.062084168	1.938800E+01	  0.062084168	-1.819800E+01
212	  0.062284570	-6.084000E+00	  0.062284570	-1.357100E+02	  0.062284570	1.925600E+01	  0.062284570	-1.771000E+01
213	  0.062484972	-6.082000E+00	  0.062484972	-1.368080E+02	  0.062484972	1.912100E+01	  0.062484972	-1.724500E+01
214	  0.062685370	-6.079000E+00	  0.062685370	-1.379150E+02	  0.062685370	1.898800E+01	  0.062685370	-1.677800E+01
215	  0.062885776	-6.082000E+00	  0.062885776	-1.390320E+02	  0.062885776	1.887400E+01	  0.062885776	-1.630500E+01
216	  0.063086174	-6.081000E+00	  0.063086174	-1.401180E+02	  0.063086174	1.875600E+01	  0.063086174	-1.585000E+01
217	  0.063286573	-6.080000E+00	  0.063286573	-1.411760E+02	  0.063286573	1.864700E+01	  0.063286573	-1.540800E+01
218	  0.063486971	-6.081000E+00	  0.063486971	-1.422600E+02	  0.063486971	1.854100E+01	  0.063486971	-1.495700E+01
219	  0.063687377	-6.073000E+00	  0.063687377	-1.433180E+02	  0.063687377	1.841900E+01	  0.063687377	-1.452300E+01
220	  0.063887775	-6.070000E+00	  0.063887775	-1.443740E+02	  0.063887775	1.831500E+01	  0.063887775	-1.408800E+01
221	  0.064088173	-6.066000E+00	  0.064088173	-1.454400E+02	  0.064088173	1.820900E+01	  0.064088173	-1.365200E+01
222	  0.064288579	-6.062000E+00	  0.064288579	-1.465070E+02	  0.064288579	1.810800E+01	  0.064288579	-1.321600E+01
223	  0.064488977	-6.061000E+00	  0.064488977	-1.475710E+02	  0.064488977	1.801600E+01	  0.064488977	-1.278200E+01
224	  0.064689375	-6.052000E+00	  0.064689375	-1.486180E+02	  0.064689375	1.791100E+01	  0.064689375	-1.236000E+01
225	  0.064889781	-6.045000E+00	  0.064889781	-1.496540E+02	  0.064889781	1.781400E+01	  0.064889781	-1.194200E+01
226	  0.065090179	-6.036000E+00	  0.065090179	-1.507000E+02	  0.065090179	1.771400E+01	  0.065090179	-1.152300E+01
227	  0.065290578	-6.034000E+00	  0.065290578	-1.517530E+02	  0.065290578	1.763500E+01	  0.065290578	-1.109800E+01
228	  0.065490983	-6.026000E+00	  0.065490983	-1.527770E+02	  0.065490983	1.754500E+01	  0.065490983	-1.068900E+01
229	  0.065691382	-6.017000E+00	  0.065691382	-1.538610E+02	  0.065691382	1.745200E+01	  0.065691382	-1.025700E+01
230	  0.065891780	-6.008000E+00	  0.065891780	-1.548750E+02	  0.065891780	1.736500E+01	  0.065891780	-9.854000E+00
231	  0.066092186	-6.003000E+00	  0.066092186	-1.559540E+02	  0.066092186	1.728900E+01	  0.066092186	-9.424000E+00
232	  0.066292584	-5.991000E+00	  0.066292584	-1.569970E+02	  0.066292584	1.720100E+01	  0.066292584	-9.012000E+00
233	  0.066492982	-5.983000E+00	  0.066492982	-1.580510E+02	  0.066492982	1.712400E+01	  0.066492982	-8.594000E+00
234	  0.066693388	-5.976000E+00	  0.066693388	-1.590960E+02	  0.066693388	1.705300E+01	  0.066693388	-8.181000E+00
235	  0.066893786	-5.970000E+00	  0.066893786	-1.601180E+02	  0.066893786	1.699000E+01	  0.066893786	-7.778000E+00
236	  0.067094192	-5.959000E+00	  0.067094192	-1.612050E+02	  0.067094192	1.691100E+01	  0.067094192	-7.350000E+00
237	  0.067294590	-5.954000E+00	  0.067294590	-1.622370E+02	  0.067294590	1.685400E+01	  0.067294590	-6.943000E+00
238	  0.067494988	-5.948000E+00	  0.067494988	-1.632570E+02	  0.067494988	1.680000E+01	  0.067494988	-6.542000E+00
239	  0.067695394	-5.939000E+00	  0.067695394	-1.643520E+02	  0.067695394	1.673600E+01	  0.067695394	-6.113000E+00
240	  0.067895792	-5.936000E+00	  0.067895792	-1.653420E+02	  0.067895792	1.669200E+01	  0.067895792	-5.724000E+00
241	  0.068096191	-5.930000E+00	  0.068096191	-1.664010E+02	  0.068096191	1.664300E+01	  0.068096191	-5.309000E+00
242	  0.068296596	-5.922000E+00	  0.068296596	-1.674380E+02	  0.068296596	1.659200E+01	  0.068296596	-4.903000E+00
243	  0.068496995	-5.923000E+00	  0.068496995	-1.684630E+02	  0.068496995	1.656700E+01	  0.068496995	-4.501000E+00
244	  0.068697393	-5.917000E+00	  0.068697393	-1.694890E+02	  0.068697393	1.652500E+01	  0.068697393	-4.100000E+00
245	  0.068897791	-5.908000E+00	  0.068897791	-1.705390E+02	  0.068897791	1.647800E+01	  0.068897791	-3.690000E+00
246	  0.069098189	-5.904000E+00	  0.069098189	-1.715330E+02	  0.069098189	1.644800E+01	  0.069098189	-3.302000E+00
247	  0.069298595	-5.900000E+00	  0.069298595	-1.725450E+02	  0.069298595	1.642100E+01	  0.069298595	-2.907000E+00
248	  0.069498993	-5.895000E+00	  0.069498993	-1.735930E+02	  0.069498993	1.639200E+01	  0.069498993	-2.498000E+00
249	  0.069699399	-5.896000E+00	  0.069699399	-1.746130E+02	  0.069699399	1.637900E+01	  0.069699399	-2.100000E+00
250	  0.069899797	-5.896000E+00	  0.069899797	-1.756010E+02	  0.069899797	1.636900E+01	  0.069899797	-1.714000E+00
251	  0.070100196	-5.891000E+00	  0.070100196	-1.766080E+02	  0.070100196	1.634800E+01	  0.070100196	-1.322000E+00
252	  0.070300601	-5.891000E+00	  0.070300601	-1.775920E+02	  0.070300601	1.634200E+01	  0.070300601	-9.380000E-01
253	  0.070501000	-5.888000E+00	  0.070501000	-1.785940E+02	  0.070501000	1.633100E+01	  0.070501000	-5.470000E-01
254	  0.070701398	-5.884000E+00	  0.070701398	-1.795840E+02	  0.070701398	1.631800E+01	  0.070701398	-1.620000E-01
255	  0.070901804	-5.885000E+00	  0.070901804	1.794440E+02	  0.070901804	1.632100E+01	  0.070901804	2.160000E-01
256	  0.071102202	-5.887000E+00	  0.071102202	1.784310E+02	  0.071102202	1.632700E+01	  0.071102202	6.110000E-01
257	  0.071302600	-5.886000E+00	  0.071302600	1.774540E+02	  0.071302600	1.632900E+01	  0.071302600	9.920000E-01
258	  0.071503006	-5.889000E+00	  0.071503006	1.764670E+02	  0.071503006	1.634400E+01	  0.071503006	1.377000E+00
259	  0.071703404	-5.893000E+00	  0.071703404	1.754760E+02	  0.071703404	1.636300E+01	  0.071703404	1.763000E+00
260	  0.071903802	-5.890000E+00	  0.071903802	1.745200E+02	  0.071903802	1.636700E+01	  0.071903802	2.136000E+00
261	  0.072104208	-5.894000E+00	  0.072104208	1.735300E+02	  0.072104208	1.638900E+01	  0.072104208	2.523000E+00
262	  0.072304606	-5.895000E+00	  0.072304606	1.725640E+02	  0.072304606	1.640700E+01	  0.072304606	2.900000E+00
263	  0.072505005	-5.898000E+00	  0.072505005	1.716110E+02	  0.072505005	1.643100E+01	  0.072505005	3.272000E+00
264	  0.072705410	-5.901000E+00	  0.072705410	1.706530E+02	  0.072705410	1.645900E+01	  0.072705410	3.647000E+00
265	  0.072905809	-5.904000E+00	  0.072905809	1.696790E+02	  0.072905809	1.648600E+01	  0.072905809	4.027000E+00
266	  0.073106214	-5.909000E+00	  0.073106214	1.687300E+02	  0.073106214	1.652400E+01	  0.073106214	4.399000E+00
267	  0.073306613	-5.911000E+00	  0.073306613	1.677640E+02	  0.073306613	1.655300E+01	  0.073306613	4.777000E+00
268	  0.073507011	-5.915000E+00	  0.073507011	1.668010E+02	  0.073507011	1.659300E+01	  0.073507011	5.155000E+00
269	  0.073707417	-5.923000E+00	  0.073707417	1.658610E+02	  0.073707417	1.664300E+01	  0.073707417	5.522000E+00
270	  0.073907815	-5.928000E+00	  0.073907815	1.649160E+02	  0.073907815	1.668500E+01	  0.073907815	5.893000E+00
271	  0.074108213	-5.928000E+00	  0.074108213	1.640010E+02	  0.074108213	1.671900E+01	  0.074108213	6.254000E+00
272	  0.074308619	-5.933000E+00	  0.074308619	1.630460E+02	  0.074308619	1.676800E+01	  0.074308619	6.629000E+00
273	  0.074509017	-5.936000E+00	  0.074509017	1.621120E+02	  0.074509017	1.681400E+01	  0.074509017	6.998000E+00
274	  0.074709415	-5.944000E+00	  0.074709415	1.611700E+02	  0.074709415	1.687400E+01	  0.074709415	7.369000E+00
275	  0.074909821	-5.952000E+00	  0.074909821	1.602400E+02	  0.074909821	1.693600E+01	  0.074909821	7.735000E+00
276	  0.075110219	-5.959000E+00	  0.075110219	1.593160E+02	  0.075110219	1.699900E+01	  0.075110219	8.099000E+00
277	  0.075310618	-5.964000E+00	  0.075310618	1.584020E+02	  0.075310618	1.705600E+01	  0.075310618	8.461000E+00
278	  0.075511023	-5.970000E+00	  0.075511023	1.574780E+02	  0.075511023	1.712000E+01	  0.075511023	8.827000E+00
279	  0.075711422	-5.977000E+00	  0.075711422	1.565730E+02	  0.075711422	1.718800E+01	  0.075711422	9.186000E+00
280	  0.075911827	-5.986000E+00	  0.075911827	1.556860E+02	  0.075911827	1.726100E+01	  0.075911827	9.537000E+00
281	  0.076112226	-5.994000E+00	  0.076112226	1.547680E+02	  0.076112226	1.733500E+01	  0.076112226	9.902000E+00
282	  0.076312624	-6.004000E+00	  0.076312624	1.538560E+02	  0.076312624	1.741800E+01	  0.076312624	1.026400E+01
283	  0.076513030	-6.012000E+00	  0.076513030	1.529520E+02	  0.076513030	1.749700E+01	  0.076513030	1.062400E+01
284	  0.076713428	-6.022000E+00	  0.076713428	1.520490E+02	  0.076713428	1.758300E+01	  0.076713428	1.098400E+01
285	  0.076913826	-6.032000E+00	  0.076913826	1.511640E+02	  0.076913826	1.767100E+01	  0.076913826	1.133700E+01
286	  0.077114232	-6.044000E+00	  0.077114232	1.503030E+02	  0.077114232	1.776400E+01	  0.077114232	1.167900E+01
287	  0.077314630	-6.056000E+00	  0.077314630	1.494030E+02	  0.077314630	1.786100E+01	  0.077314630	1.203900E+01
288	  0.077515028	-6.067000E+00	  0.077515028	1.485170E+02	  0.077515028	1.796000E+01	  0.077515028	1.239300E+01
289	  0.077715434	-6.083000E+00	  0.077715434	1.476420E+02	  0.077715434	1.807100E+01	  0.077715434	1.274100E+01
290	  0.077915832	-6.093000E+00	  0.077915832	1.467530E+02	  0.077915832	1.817000E+01	  0.077915832	1.309900E+01
291	  0.078116231	-6.107000E+00	  0.078116231	1.458650E+02	  0.078116231	1.828200E+01	  0.078116231	1.345400E+01
292	  0.078316636	-6.119000E+00	  0.078316636	1.449840E+02	  0.078316636	1.839300E+01	  0.078316636	1.380800E+01
293	  0.078517035	-6.133000E+00	  0.078517035	1.440950E+02	  0.078517035	1.850900E+01	  0.078517035	1.416600E+01
294	  0.078717433	-6.149000E+00	  0.078717433	1.432220E+02	  0.078717433	1.863600E+01	  0.078717433	1.451500E+01
295	  0.078917839	-6.163000E+00	  0.078917839	1.423640E+02	  0.078917839	1.875500E+01	  0.078917839	1.486100E+01
296	  0.079118237	-6.177000E+00	  0.079118237	1.414730E+02	  0.079118237	1.888200E+01	  0.079118237	1.522100E+01
297	  0.079318643	-6.192000E+00	  0.079318643	1.406220E+02	  0.079318643	1.901000E+01	  0.079318643	1.556400E+01
298	  0.079519041	-6.212000E+00	  0.079519041	1.397810E+02	  0.079519041	1.915300E+01	  0.079519041	1.590000E+01
299	  0.079719439	-6.223000E+00	  0.079719439	1.388920E+02	  0.079719439	1.928000E+01	  0.079719439	1.626300E+01
300	  0.079919845	-6.239000E+00	  0.079919845	1.380200E+02	  0.079919845	1.941900E+01	  0.079919845	1.661600E+01
301	  0.080120243	-6.253000E+00	  0.080120243	1.371520E+02	  0.080120243	1.955800E+01	  0.080120243	1.696900E+01
302	  0.080320641	-6.270000E+00	  0.080320641	1.363140E+02	  0.080320641	1.970400E+01	  0.080320641	1.730800E+01
303	  0.080521047	-6.292000E+00	  0.080521047	1.354590E+02	  0.080521047	1.986800E+01	  0.080521047	1.765100E+01
304	  0.080721445	-6.305000E+00	  0.080721445	1.346240E+02	  0.080721445	2.000800E+01	  0.080721445	1.799300E+01
305	  0.080921844	-6.322000E+00	  0.080921844	1.337680E+02	  0.080921844	2.016400E+01	  0.080921844	1.834100E+01
306	  0.081122249	-6.341000E+00	  0.081122249	1.329670E+02	  0.081122249	2.032200E+01	  0.081122249	1.866500E+01
307	  0.081322648	-6.359000E+00	  0.081322648	1.321220E+02	  0.081322648	2.048600E+01	  0.081322648	1.900900E+01
308	  0.081523046	-6.374000E+00	  0.081523046	1.312840E+02	  0.081523046	2.064500E+01	  0.081523046	1.935200E+01
309	  0.081723452	-6.393000E+00	  0.081723452	1.304460E+02	  0.081723452	2.081600E+01	  0.081723452	1.969300E+01
310	  0.081923850	-6.408000E+00	  0.081923850	1.296470E+02	  0.081923850	2.097400E+01	  0.081923850	2.002200E+01
311	  0.082124248	-6.426000E+00	  0.082124248	1.288330E+02	  0.082124248	2.114700E+01	  0.082124248	2.035400E+01
312	  0.082324654	-6.447000E+00	  0.082324654	1.280120E+02	  0.082324654	2.133000E+01	  0.082324654	2.068700E+01
313	  0.082525052	-6.466000E+00	  0.082525052	1.272520E+02	  0.082525052	2.150300E+01	  0.082525052	2.099600E+01
314	  0.082725458	-6.490000E+00	  0.082725458	1.264650E+02	  0.082725458	2.169800E+01	  0.082725458	2.131100E+01
315	  0.082925856	-6.511000E+00	  0.082925856	1.256850E+02	  0.082925856	2.188400E+01	  0.082925856	2.162800E+01
316	  0.083126254	-6.534000E+00	  0.083126254	1.248770E+02	  0.083126254	2.208500E+01	  0.083126254	2.195300E+01
317	  0.083326660	-6.556000E+00	  0.083326660	1.240900E+02	  0.083326660	2.228500E+01	  0.083326660	2.227100E+01
318	  0.083527058	-6.586000E+00	  0.083527058	1.233090E+02	  0.083527058	2.250600E+01	  0.083527058	2.257800E+01
319	  0.083727457	-6.607000E+00	  0.083727457	1.225520E+02	  0.083727457	2.270400E+01	  0.083727457	2.288400E+01
320	  0.083927862	-6.633000E+00	  0.083927862	1.217860E+02	  0.083927862	2.291900E+01	  0.083927862	2.318800E+01
321	  0.084128261	-6.661000E+00	  0.084128261	1.210240E+02	  0.084128261	2.314400E+01	  0.084128261	2.348800E+01
322	  0.084328659	-6.688000E+00	  0.084328659	1.202850E+02	  0.084328659	2.336200E+01	  0.084328659	2.377900E+01
323	  0.084529065	-6.714000E+00	  0.084529065	1.195360E+02	  0.084529065	2.358400E+01	  0.084529065	2.407500E+01
324	  0.084729463	-6.742000E+00	  0.084729463	1.187620E+02	  0.084729463	2.382200E+01	  0.084729463	2.437800E+01
325	  0.084929854	-6.771000E+00	  0.084929854	1.180030E+02	  0.084929854	2.406100E+01	  0.084929854	2.467400E+01
326	  0.085130259	-6.797000E+00	  0.085130259	1.172600E+02	  0.085130259	2.429300E+01	  0.085130259	2.496700E+01
327	  0.085330658	-6.829000E+00	  0.085330658	1.165260E+02	  0.085330658	2.454300E+01	  0.085330658	2.524700E+01
328	  0.085531056	-6.857000E+00	  0.085531056	1.157820E+02	  0.085531056	2.478900E+01	  0.085531056	2.553400E+01
329	  0.085731462	-6.888000E+00	  0.085731462	1.150740E+02	  0.085731462	2.503700E+01	  0.085731462	2.580300E+01
330	  0.085931860	-6.918000E+00	  0.085931860	1.144020E+02	  0.085931860	2.527600E+01	  0.085931860	2.605600E+01
331	  0.086132258	-6.949000E+00	  0.086132258	1.137180E+02	  0.086132258	2.552800E+01	  0.086132258	2.631100E+01
332	  0.086332664	-6.979000E+00	  0.086332664	1.130050E+02	  0.086332664	2.578200E+01	  0.086332664	2.658100E+01
333	  0.086533062	-7.004000E+00	  0.086533062	1.123410E+02	  0.086533062	2.601800E+01	  0.086533062	2.683500E+01
334	  0.086733460	-7.033000E+00	  0.086733460	1.116630E+02	  0.086733460	2.626900E+01	  0.086733460	2.709000E+01
335	  0.086933866	-7.062000E+00	  0.086933866	1.110130E+02	  0.086933866	2.651700E+01	  0.086933866	2.733100E+01
336	  0.087134264	-7.084000E+00	  0.087134264	1.103550E+02	  0.087134264	2.674900E+01	  0.087134264	2.758500E+01
337	  0.087334670	-7.106000E+00	  0.087334670	1.097410E+02	  0.087334670	2.697400E+01	  0.087334670	2.782000E+01
338	  0.087535068	-7.129000E+00	  0.087535068	1.091030E+02	  0.087535068	2.720800E+01	  0.087535068	2.806500E+01
339	  0.087735467	-7.146000E+00	  0.087735467	1.084830E+02	  0.087735467	2.742600E+01	  0.087735467	2.830900E+01
340	  0.087935872	-7.166000E+00	  0.087935872	1.078720E+02	  0.087935872	2.765100E+01	  0.087935872	2.854500E+01
341	  0.088136271	-7.175000E+00	  0.088136271	1.072220E+02	  0.088136271	2.785700E+01	  0.088136271	2.882000E+01
342	  0.088336669	-7.183000E+00	  0.088336669	1.065680E+02	  0.088336669	2.806700E+01	  0.088336669	2.909500E+01
343	  0.088537075	-7.194000E+00	  0.088537075	1.058740E+02	  0.088537075	2.829900E+01	  0.088537075	2.938500E+01
344	  0.088737473	-7.210000E+00	  0.088737473	1.052110E+02	  0.088737473	2.854000E+01	  0.088737473	2.965100E+01
345	  0.088937871	-7.214000E+00	  0.088937871	1.045020E+02	  0.088937871	2.876400E+01	  0.088937871	2.996000E+01
346	  0.089138277	-7.230000E+00	  0.089138277	1.038340E+02	  0.089138277	2.901400E+01	  0.089138277	3.022800E+01
347	  0.089338675	-7.244000E+00	  0.089338675	1.031050E+02	  0.089338675	2.928000E+01	  0.089338675	3.052700E+01
348	  0.089539073	-7.266000E+00	  0.089539073	1.024320E+02	  0.089539073	2.955600E+01	  0.089539073	3.078400E+01
349	  0.089739479	-7.278000E+00	  0.089739479	1.017230E+02	  0.089739479	2.982000E+01	  0.089739479	3.107700E+01
350	  0.089939877	-7.305000E+00	  0.089939877	1.010360E+02	  0.089939877	3.012500E+01	  0.089939877	3.132700E+01
351	  0.090140276	-7.325000E+00	  0.090140276	1.003240E+02	  0.090140276	3.042200E+01	  0.090140276	3.160300E+01
352	  0.090340681	-7.352000E+00	  0.090340681	9.964700E+01	  0.090340681	3.073100E+01	  0.090340681	3.184600E+01
353	  0.090541080	-7.370000E+00	  0.090541080	9.891400E+01	  0.090541080	3.103700E+01	  0.090541080	3.213400E+01
354	  0.090741485	-7.408000E+00	  0.090741485	9.827400E+01	  0.090741485	3.137400E+01	  0.090741485	3.233300E+01
355	  0.090941884	-7.434000E+00	  0.090941884	9.756900E+01	  0.090941884	3.170200E+01	  0.090941884	3.258700E+01
356	  0.091142282	-7.469000E+00	  0.091142282	9.689800E+01	  0.091142282	3.204700E+01	  0.091142282	3.280300E+01
357	  0.091342688	-7.496000E+00	  0.091342688	9.626100E+01	  0.091342688	3.236400E+01	  0.091342688	3.301900E+01
358	  0.091543086	-7.529000E+00	  0.091543086	9.559500E+01	  0.091543086	3.271100E+01	  0.091543086	3.323100E+01
359	  0.091743484	-7.561000E+00	  0.091743484	9.493500E+01	  0.091743484	3.305500E+01	  0.091743484	3.344400E+01
360	  0.091943890	-7.595000E+00	  0.091943890	9.425500E+01	  0.091943890	3.341900E+01	  0.091943890	3.365500E+01
361	  0.092144288	-7.632000E+00	  0.092144288	9.361900E+01	  0.092144288	3.377900E+01	  0.092144288	3.383600E+01
362	  0.092344686	-7.656000E+00	  0.092344686	9.295400E+01	  0.092344686	3.411500E+01	  0.092344686	3.406300E+01
363	  0.092545092	-7.697000E+00	  0.092545092	9.234300E+01	  0.092545092	3.448300E+01	  0.092545092	3.421800E+01
364	  0.092745490	-7.724000E+00	  0.092745490	9.173500E+01	  0.092745490	3.481000E+01	  0.092745490	3.440800E+01
365	  0.092945889	-7.764000E+00	  0.092945889	9.110400E+01	  0.092945889	3.519200E+01	  0.092945889	3.456600E+01
366	  0.093146294	-7.795000E+00	  0.093146294	9.043600E+01	  0.093146294	3.556300E+01	  0.093146294	3.476700E+01
367	  0.093346693	-7.833000E+00	  0.093346693	8.985200E+01	  0.093346693	3.592400E+01	  0.093346693	3.490600E+01
368	  0.093547091	-7.861000E+00	  0.093547091	8.926600E+01	  0.093547091	3.626000E+01	  0.093547091	3.507300E+01
369	  0.093747497	-7.899000E+00	  0.093747497	8.865300E+01	  0.093747497	3.664000E+01	  0.093747497	3.521700E+01
370	  0.093947895	-7.929000E+00	  0.093947895	8.804400E+01	  0.093947895	3.699900E+01	  0.093947895	3.538100E+01
371	  0.094148301	-7.966000E+00	  0.094148301	8.745600E+01	  0.094148301	3.736900E+01	  0.094148301	3.551300E+01
372	  0.094348699	-8.004000E+00	  0.094348699	8.688500E+01	  0.094348699	3.773900E+01	  0.094348699	3.563100E+01
373	  0.094549097	-8.040000E+00	  0.094549097	8.630900E+01	  0.094549097	3.810800E+01	  0.094549097	3.575400E+01
374	  0.094749503	-8.072000E+00	  0.094749503	8.573900E+01	  0.094749503	3.846700E+01	  0.094749503	3.588200E+01
375	  0.094949901	-8.104000E+00	  0.094949901	8.519300E+01	  0.094949901	3.881600E+01	  0.094949901	3.599900E+01
376	  0.095150299	-8.138000E+00	  0.095150299	8.465100E+01	  0.095150299	3.917100E+01	  0.095150299	3.610500E+01
377	  0.095350705	-8.170000E+00	  0.095350705	8.410000E+01	  0.095350705	3.952900E+01	  0.095350705	3.621600E+01
378	  0.095551103	-8.209000E+00	  0.095551103	8.354200E+01	  0.095551103	3.990800E+01	  0.095551103	3.630700E+01
379	  0.095751502	-8.240000E+00	  0.095751502	8.303500E+01	  0.095751502	4.024700E+01	  0.095751502	3.639600E+01
380	  0.095951907	-8.273000E+00	  0.095951907	8.252800E+01	  0.095951907	4.059100E+01	  0.095951907	3.647800E+01
381	  0.096152306	-8.308000E+00	  0.096152306	8.201100E+01	  0.096152306	4.094600E+01	  0.096152306	3.655600E+01
382	  0.096352704	-8.343000E+00	  0.096352704	8.152000E+01	  0.096352704	4.129100E+01	  0.096352704	3.661800E+01
383	  0.096553110	-8.373000E+00	  0.096553110	8.104200E+01	  0.096553110	4.161700E+01	  0.096553110	3.669100E+01
384	  0.096753508	-8.408000E+00	  0.096753508	8.055200E+01	  0.096753508	4.196500E+01	  0.096753508	3.674700E+01
385	  0.096953906	-8.441000E+00	  0.096953906	8.005300E+01	  0.096953906	4.231500E+01	  0.096953906	3.680900E+01
386	  0.097154312	-8.477000E+00	  0.097154312	7.959600E+01	  0.097154312	4.264800E+01	  0.097154312	3.684600E+01
387	  0.097354710	-8.511000E+00	  0.097354710	7.913600E+01	  0.097354710	4.298100E+01	  0.097354710	3.688400E+01
388	  0.097555116	-8.544000E+00	  0.097555116	7.868900E+01	  0.097555116	4.330700E+01	  0.097555116	3.691700E+01
389	  0.097755514	-8.581000E+00	  0.097755514	7.826300E+01	  0.097755514	4.363000E+01	  0.097755514	3.692600E+01
390	  0.097955912	-8.615000E+00	  0.097955912	7.783000E+01	  0.097955912	4.394800E+01	  0.097955912	3.695000E+01
391	  0.098156318	-8.644000E+00	  0.098156318	7.740200E+01	  0.098156318	4.425800E+01	  0.098156318	3.698100E+01
392	  0.098356716	-8.677000E+00	  0.098356716	7.698900E+01	  0.098356716	4.456700E+01	  0.098356716	3.699400E+01
393	  0.098557115	-8.711000E+00	  0.098557115	7.656800E+01	  0.098557115	4.488200E+01	  0.098557115	3.700300E+01
394	  0.098757520	-8.743000E+00	  0.098757520	7.612400E+01	  0.098757520	4.520800E+01	  0.098757520	3.702200E+01
395	  0.098957919	-8.775000E+00	  0.098957919	7.570000E+01	  0.098957919	4.552400E+01	  0.098957919	3.703100E+01
396	  0.099158317	-8.802000E+00	  0.099158317	7.529100E+01	  0.099158317	4.582200E+01	  0.099158317	3.705400E+01
397	  0.099358723	-8.831000E+00	  0.099358723	7.487300E+01	  0.099358723	4.612900E+01	  0.099358723	3.706900E+01
398	  0.099559121	-8.864000E+00	  0.099559121	7.450500E+01	  0.099559121	4.641400E+01	  0.099559121	3.705300E+01
399	  0.099759519	-8.891000E+00	  0.099759519	7.411800E+01	  0.099759519	4.670000E+01	  0.099759519	3.706000E+01
400	  0.099959925	-8.925000E+00	  0.099959925	7.376500E+01	  0.099959925	4.697900E+01	  0.099959925	3.702800E+01
401	  0.100160323	-8.944000E+00	  0.100160323	7.339000E+01	  0.100160323	4.724400E+01	  0.100160323	3.705900E+01
402	  0.100360721	-8.964000E+00	  0.100360721	7.295000E+01	  0.100360721	4.755300E+01	  0.100360721	3.710100E+01
403	  0.100561127	-8.983000E+00	  0.100561127	7.257400E+01	  0.100561127	4.782000E+01	  0.100561127	3.713000E+01
404	  0.100761525	-9.014000E+00	  0.100761525	7.222300E+01	  0.100761525	4.809400E+01	  0.100761525	3.709900E+01
405	  0.100961931	-9.032000E+00	  0.100961931	7.185700E+01	  0.100961931	4.835400E+01	  0.100961931	3.712600E+01
406	  0.101162329	-9.039000E+00	  0.101162329	7.145000E+01	  0.101162329	4.862200E+01	  0.101162329	3.720500E+01
407	  0.101362728	-9.065000E+00	  0.101362728	7.115300E+01	  0.101362728	4.885600E+01	  0.101362728	3.717300E+01
408	  0.101563133	-9.079000E+00	  0.101563133	7.078800E+01	  0.101563133	4.911200E+01	  0.101563133	3.720800E+01
409	  0.101763532	-9.103000E+00	  0.101763532	7.046600E+01	  0.101763532	4.935800E+01	  0.101763532	3.719200E+01
410	  0.101963930	-9.108000E+00	  0.101963930	7.008800E+01	  0.101963930	4.960900E+01	  0.101963930	3.726500E+01
411	  0.102164328	-9.120000E+00	  0.102164328	6.976200E+01	  0.102164328	4.984000E+01	  0.102164328	3.729400E+01
412	  0.102364726	-9.135000E+00	  0.102364726	6.944100E+01	  0.102364726	5.007400E+01	  0.102364726	3.730600E+01
413	  0.102565125	-9.141000E+00	  0.102565125	6.906800E+01	  0.102565125	5.032600E+01	  0.102565125	3.737300E+01
414	  0.102765530	-9.143000E+00	  0.102765530	6.875300E+01	  0.102765530	5.053700E+01	  0.102765530	3.743700E+01
415	  0.102965929	-9.145000E+00	  0.102965929	6.841400E+01	  0.102965929	5.076500E+01	  0.102965929	3.750600E+01
416	  0.103166327	-9.147000E+00	  0.103166327	6.810000E+01	  0.103166327	5.097700E+01	  0.103166327	3.757200E+01
417	  0.103366733	-9.150000E+00	  0.103366733	6.772300E+01	  0.103366733	5.123500E+01	  0.103366733	3.764300E+01
418	  0.103567131	-9.157000E+00	  0.103567131	6.742200E+01	  0.103567131	5.144800E+01	  0.103567131	3.768100E+01
419	  0.103767529	-9.149000E+00	  0.103767529	6.704500E+01	  0.103767529	5.169200E+01	  0.103767529	3.779800E+01
420	  0.103967935	-9.151000E+00	  0.103967935	6.672100E+01	  0.103967935	5.191700E+01	  0.103967935	3.785900E+01
421	  0.104168333	-9.147000E+00	  0.104168333	6.636500E+01	  0.104168333	5.215700E+01	  0.104168333	3.795600E+01
422	  0.104368731	-9.147000E+00	  0.104368731	6.604600E+01	  0.104368731	5.237700E+01	  0.104368731	3.802400E+01
423	  0.104569137	-9.141000E+00	  0.104569137	6.571300E+01	  0.104569137	5.260200E+01	  0.104569137	3.811900E+01
424	  0.104769535	-9.132000E+00	  0.104769535	6.529000E+01	  0.104769535	5.288600E+01	  0.104769535	3.825000E+01
425	  0.104969934	-9.124000E+00	  0.104969934	6.492100E+01	  0.104969934	5.313800E+01	  0.104969934	3.835900E+01
426	  0.105170339	-9.111000E+00	  0.105170339	6.455400E+01	  0.105170339	5.338300E+01	  0.105170339	3.849300E+01
427	  0.105370738	-9.097000E+00	  0.105370738	6.416100E+01	  0.105370738	5.364900E+01	  0.105370738	3.863600E+01
428	  0.105571143	-9.089000E+00	  0.105571143	6.373600E+01	  0.105571143	5.394600E+01	  0.105571143	3.875800E+01
429	  0.105771542	-9.080000E+00	  0.105771542	6.335100E+01	  0.105771542	5.421800E+01	  0.105771542	3.887400E+01
430	  0.105971940	-9.073000E+00	  0.105971940	6.289700E+01	  0.105971940	5.454400E+01	  0.105971940	3.899400E+01
431	  0.106172346	-9.041000E+00	  0.106172346	6.245100E+01	  0.106172346	5.484000E+01	  0.106172346	3.923000E+01
432	  0.106372744	-9.037000E+00	  0.106372744	6.202100E+01	  0.106372744	5.515900E+01	  0.106372744	3.932600E+01
433	  0.106573142	-9.015000E+00	  0.106573142	6.156600E+01	  0.106573142	5.548000E+01	  0.106573142	3.951800E+01
434	  0.106773548	-8.998000E+00	  0.106773548	6.111900E+01	  0.106773548	5.580500E+01	  0.106773548	3.967900E+01
435	  0.106973946	-8.976000E+00	  0.106973946	6.061100E+01	  0.106973946	5.617500E+01	  0.106973946	3.987600E+01
436	  0.107174344	-8.957000E+00	  0.107174344	6.013900E+01	  0.107174344	5.652700E+01	  0.107174344	4.004700E+01
437	  0.107374750	-8.936000E+00	  0.107374750	5.959700E+01	  0.107374750	5.693500E+01	  0.107374750	4.024500E+01
438	  0.107575148	-8.922000E+00	  0.107575148	5.905700E+01	  0.107575148	5.735700E+01	  0.107575148	4.039900E+01
439	  0.107775547	-8.899000E+00	  0.107775547	5.852700E+01	  0.107775547	5.776500E+01	  0.107775547	4.060200E+01
440	  0.107975952	-8.871000E+00	  0.107975952	5.797700E+01	  0.107975952	5.819400E+01	  0.107975952	4.082500E+01
441	  0.108176351	-8.859000E+00	  0.108176351	5.743300E+01	  0.108176351	5.863600E+01	  0.108176351	4.096800E+01
442	  0.108376749	-8.836000E+00	  0.108376749	5.689000E+01	  0.108376749	5.907600E+01	  0.108376749	4.116300E+01
443	  0.108577155	-8.817000E+00	  0.108577155	5.626900E+01	  0.108577155	5.959100E+01	  0.108577155	4.134500E+01
444	  0.108777553	-8.798000E+00	  0.108777553	5.564100E+01	  0.108777553	6.012100E+01	  0.108777553	4.152100E+01
445	  0.108977959	-8.778000E+00	  0.108977959	5.506200E+01	  0.108977959	6.061600E+01	  0.108977959	4.169400E+01
446	  0.109178357	-8.764000E+00	  0.109178357	5.437400E+01	  0.109178357	6.121800E+01	  0.109178357	4.184100E+01
447	  0.109378755	-8.750000E+00	  0.109378755	5.376000E+01	  0.109378755	6.176200E+01	  0.109378755	4.197800E+01
448	  0.109579161	-8.732000E+00	  0.109579161	5.307500E+01	  0.109579161	6.237700E+01	  0.109579161	4.213800E+01
449	  0.109779559	-8.719000E+00	  0.109779559	5.242100E+01	  0.109779559	6.297600E+01	  0.109779559	4.225500E+01
450	  0.109979957	-8.714000E+00	  0.109979957	5.178300E+01	  0.109979957	6.357000E+01	  0.109979957	4.231600E+01
451	  0.110180363	-8.695000E+00	  0.110180363	5.113700E+01	  0.110180363	6.417600E+01	  0.110180363	4.245600E+01
452	  0.110380761	-8.687000E+00	  0.110380761	5.044200E+01	  0.110380761	6.484000E+01	  0.110380761	4.252700E+01
453	  0.110581160	-8.683000E+00	  0.110581160	4.973000E+01	  0.110581160	6.552900E+01	  0.110581160	4.256000E+01
454	  0.110781565	-8.675000E+00	  0.110781565	4.905600E+01	  0.110781565	6.618900E+01	  0.110781565	4.260700E+01
455	  0.110981964	-8.665000E+00	  0.110981964	4.836700E+01	  0.110981964	6.687200E+01	  0.110981964	4.266400E+01
456	  0.111182362	-8.667000E+00	  0.111182362	4.766200E+01	  0.111182362	6.757700E+01	  0.111182362	4.262300E+01
457	  0.111382768	-8.660000E+00	  0.111382768	4.694400E+01	  0.111382768	6.830600E+01	  0.111382768	4.263500E+01
458	  0.111583166	-8.651000E+00	  0.111583166	4.623900E+01	  0.111583166	6.903000E+01	  0.111583166	4.264500E+01
459	  0.111783572	-8.652000E+00	  0.111783572	4.550000E+01	  0.111783572	6.979300E+01	  0.111783572	4.257100E+01
460	  0.111983970	-8.651000E+00	  0.111983970	4.476700E+01	  0.111983970	7.055800E+01	  0.111983970	4.250300E+01
461	  0.112184368	-8.650000E+00	  0.112184368	4.402700E+01	  0.112184368	7.133600E+01	  0.112184368	4.241600E+01
462	  0.112384774	-8.648000E+00	  0.112384774	4.325300E+01	  0.112384774	7.216000E+01	  0.112384774	4.231400E+01
463	  0.112585172	-8.650000E+00	  0.112585172	4.253300E+01	  0.112585172	7.292700E+01	  0.112585172	4.217500E+01
464	  0.112785570	-8.647000E+00	  0.112785570	4.178000E+01	  0.112785570	7.374300E+01	  0.112785570	4.205200E+01
465	  0.112985976	-8.650000E+00	  0.112985976	4.101300E+01	  0.112985976	7.457200E+01	  0.112985976	4.186500E+01
466	  0.113186374	-8.653000E+00	  0.113186374	4.024500E+01	  0.113186374	7.540700E+01	  0.113186374	4.166000E+01
467	  0.113386773	-8.654000E+00	  0.113386773	3.945400E+01	  0.113386773	7.627500E+01	  0.113386773	4.144200E+01
468	  0.113587178	-8.656000E+00	  0.113587178	3.865300E+01	  0.113587178	7.715700E+01	  0.113587178	4.118800E+01
469	  0.113787577	-8.658000E+00	  0.113787577	3.789400E+01	  0.113787577	7.799700E+01	  0.113787577	4.093200E+01
470	  0.113987975	-8.663000E+00	  0.113987975	3.704400E+01	  0.113987975	7.893400E+01	  0.113987975	4.060000E+01
471	  0.114188381	-8.670000E+00	  0.114188381	3.620800E+01	  0.114188381	7.985500E+01	  0.114188381	4.023500E+01
472	  0.114388779	-8.670000E+00	  0.114388779	3.544100E+01	  0.114388779	8.071500E+01	  0.114388779	3.991800E+01
473	  0.114589177	-8.678000E+00	  0.114589177	3.456200E+01	  0.114589177	8.168200E+01	  0.114589177	3.947500E+01
474	  0.114789583	-8.684000E+00	  0.114789583	3.371200E+01	  0.114789583	8.262100E+01	  0.114789583	3.903100E+01
475	  0.114989981	-8.688000E+00	  0.114989981	3.286000E+01	  0.114989981	8.356600E+01	  0.114989981	3.857000E+01
476	  0.115190387	-8.698000E+00	  0.115190387	3.194700E+01	  0.115190387	8.455400E+01	  0.115190387	3.799500E+01
477	  0.115390785	-8.707000E+00	  0.115390785	3.107800E+01	  0.115390785	8.549200E+01	  0.115390785	3.742900E+01
478	  0.115591183	-8.722000E+00	  0.115591183	3.018600E+01	  0.115591183	8.642500E+01	  0.115591183	3.677300E+01
479	  0.115791589	-8.733000E+00	  0.115791589	2.925500E+01	  0.115791589	8.740800E+01	  0.115791589	3.608900E+01
480	  0.115991987	-8.747000E+00	  0.115991987	2.832200E+01	  0.115991987	8.836700E+01	  0.115991987	3.534400E+01
481	  0.116192386	-8.770000E+00	  0.116192386	2.736800E+01	  0.116192386	8.928800E+01	  0.116192386	3.448200E+01
482	  0.116392791	-8.786000E+00	  0.116392791	2.640400E+01	  0.116392791	9.023800E+01	  0.116392791	3.363300E+01
483	  0.116593190	-8.806000E+00	  0.116593190	2.541000E+01	  0.116593190	9.117300E+01	  0.116593190	3.269000E+01
484	  0.116793588	-8.833000E+00	  0.116793588	2.436900E+01	  0.116793588	9.209700E+01	  0.116793588	3.162700E+01
485	  0.116993994	-8.865000E+00	  0.116993994	2.337000E+01	  0.116993994	9.291100E+01	  0.116993994	3.052700E+01
486	  0.117194392	-8.890000E+00	  0.117194392	2.231400E+01	  0.117194392	9.378900E+01	  0.117194392	2.938500E+01
487	  0.117394790	-8.925000E+00	  0.117394790	2.130600E+01	  0.117394790	9.451700E+01	  0.117394790	2.819100E+01
488	  0.117595196	-8.963000E+00	  0.117595196	2.021000E+01	  0.117595196	9.526400E+01	  0.117595196	2.686300E+01
489	  0.117795594	-9.007000E+00	  0.117795594	1.912500E+01	  0.117795594	9.591100E+01	  0.117795594	2.548200E+01
490	  0.117995992	-9.043000E+00	  0.117995992	1.801400E+01	  0.117995992	9.658000E+01	  0.117995992	2.409000E+01
491	  0.118196398	-9.092000E+00	  0.118196398	1.684900E+01	  0.118196398	9.714400E+01	  0.118196398	2.254900E+01
492	  0.118396796	-9.138000E+00	  0.118396796	1.571200E+01	  0.118396796	9.764000E+01	  0.118396796	2.103100E+01
493	  0.118597202	-9.192000E+00	  0.118597202	1.456600E+01	  0.118597202	9.802000E+01	  0.118597202	1.945400E+01
494	  0.118797600	-9.246000E+00	  0.118797600	1.338900E+01	  0.118797600	9.835100E+01	  0.118797600	1.783100E+01
