! Anritsu VNA Master:             	Model: MS2036C/10/77
! SN:             	1601066
! /bd0/18may10/256.ew.m7.txt
! Existing Calibration Information:
! TYPE:             	Current Settings	Active Cal Settings
! TIME:             	05/10/2018 10:27:53 AM	05/10/2018 10:22:12 AM
! INTERNAL TEMP:    	47.3 C	47.0 C
! # POINTS:         	494	494
! START FREQ:       	20.000 MHz	20.000 MHz
! STOP FREQ:        	118.797 594 MHz	118.797 594 MHz
! SOURCE POWER:     	High	High
! IFBW:             	50 Hz	50 Hz
! AVG FACTOR:       	  1 	  1 
! REF PLANE 1:      	0 mm	0 mm
! REF PLANE 2:      	0 mm	0 mm
! CAL TYPE:         	Full S22	Full S22
! CAL METHOD:       	SOLT	SOLT
! CAL LINE TYPE:    	Coax	Coax
! DUT PORT 1:       	K-Conn(M)	K-Conn(M)
! DUT PORT 2:       	K-Conn(M)	K-Conn(M)
! CAL STATUS:       	OK: Accuracy High	--
! PROP-V:       	0.700
! CABLE LOSS:       	0.000 dB/m
! REF IMPEDANCE:       	50.0
! Trace Specific Parameters:	TR1	TR2	TR3	TR4
! TRACE.#.Y (GRAPH TYPE)	LOG MAG	PHASE	REAL IMPEDANCE	IMAGINARY IMPEDANCE
! TRACE.#.X 	FREQ.GHZ	FREQ.GHZ	FREQ.GHZ	FREQ.GHZ
! S-PARAMETER	S22	S22	S22	S22
! SMOOTH/APERTURE %	0	0	0	0
! WINDOW	NSL	NSL	NSL	NSL
! GATING	OFF	OFF	OFF	OFF
! FGTD	OFF	OFF	OFF	OFF
Marker Information per Trace:	TR1	TR2	TR3	TR4
!MK1	--	"MK1 TR2:  20.000 MHz,PH:-127.03°"	--	--
!MK2	--	--	"MK2 TR3:  70.100 200 MHz,Z:(16.358 ohm, -1.232 ohm)"	--
!MK3	--	--	--	--
!MK4	--	--	--	--
!MK5	--	--	--	--
!MK6	--	--	--	--
!MK7	--	--	--	--
!MK8	--	--	--	--
PNT	TR1.FREQ.GHZ	TR1.LOG MAG.dB	TR2.FREQ.GHZ	TR2.PHASE.deg	TR3.FREQ.GHZ	TR3.REAL IMPEDANCE.ohm	TR4.FREQ.GHZ	TR4.IMAGINARY IMPEDANCE.ohm
1	  0.020000000	-6.090000E-01	  0.020000000	-1.270340E+02	  0.020000000	2.188000E+00	  0.020000000	-2.487200E+01
2	  0.020200402	-6.120000E-01	  0.020200402	-1.285020E+02	  0.020200402	2.173000E+00	  0.020200402	-2.407800E+01
3	  0.020400802	-6.150000E-01	  0.020400802	-1.299880E+02	  0.020400802	2.156000E+00	  0.020400802	-2.328500E+01
4	  0.020601204	-6.200000E-01	  0.020601204	-1.314800E+02	  0.020601204	2.145000E+00	  0.020601204	-2.249800E+01
5	  0.020801604	-6.250000E-01	  0.020801604	-1.330150E+02	  0.020801604	2.138000E+00	  0.020801604	-2.169900E+01
6	  0.021002004	-6.280000E-01	  0.021002004	-1.345500E+02	  0.021002004	2.123000E+00	  0.021002004	-2.090800E+01
7	  0.021202406	-6.340000E-01	  0.021202406	-1.360880E+02	  0.021202406	2.121000E+00	  0.021202406	-2.012500E+01
8	  0.021402806	-6.350000E-01	  0.021402806	-1.376210E+02	  0.021402806	2.103000E+00	  0.021402806	-1.935200E+01
9	  0.021603208	-6.400000E-01	  0.021603208	-1.391490E+02	  0.021603208	2.098000E+00	  0.021603208	-1.859100E+01
10	  0.021803608	-6.440000E-01	  0.021803608	-1.406920E+02	  0.021803608	2.091000E+00	  0.021803608	-1.782900E+01
11	  0.022004008	-6.500000E-01	  0.022004008	-1.422300E+02	  0.022004008	2.089000E+00	  0.022004008	-1.707700E+01
12	  0.022204408	-6.570000E-01	  0.022204408	-1.438010E+02	  0.022204408	2.092000E+00	  0.022204408	-1.631600E+01
13	  0.022404809	-6.640000E-01	  0.022404809	-1.453940E+02	  0.022404809	2.095000E+00	  0.022404809	-1.555100E+01
14	  0.022605211	-6.680000E-01	  0.022605211	-1.469840E+02	  0.022605211	2.092000E+00	  0.022605211	-1.479400E+01
15	  0.022805611	-6.770000E-01	  0.022805611	-1.485750E+02	  0.022805611	2.101000E+00	  0.022805611	-1.404200E+01
16	  0.023006011	-6.830000E-01	  0.023006011	-1.501630E+02	  0.023006011	2.104000E+00	  0.023006011	-1.329800E+01
17	  0.023206413	-6.870000E-01	  0.023206413	-1.517600E+02	  0.023206413	2.102000E+00	  0.023206413	-1.255600E+01
18	  0.023406813	-6.920000E-01	  0.023406813	-1.533570E+02	  0.023406813	2.105000E+00	  0.023406813	-1.181800E+01
19	  0.023607215	-7.020000E-01	  0.023607215	-1.549650E+02	  0.023607215	2.119000E+00	  0.023607215	-1.108100E+01
20	  0.023807615	-7.130000E-01	  0.023807615	-1.565980E+02	  0.023807615	2.140000E+00	  0.023807615	-1.033700E+01
21	  0.024008015	-7.240000E-01	  0.024008015	-1.582400E+02	  0.024008015	2.160000E+00	  0.024008015	-9.592000E+00
22	  0.024208417	-7.310000E-01	  0.024208417	-1.599040E+02	  0.024208417	2.169000E+00	  0.024208417	-8.843000E+00
23	  0.024408817	-7.400000E-01	  0.024408817	-1.615590E+02	  0.024408817	2.184000E+00	  0.024408817	-8.101000E+00
24	  0.024609219	-7.490000E-01	  0.024609219	-1.632290E+02	  0.024609219	2.203000E+00	  0.024609219	-7.356000E+00
25	  0.024809619	-7.580000E-01	  0.024809619	-1.648900E+02	  0.024809619	2.220000E+00	  0.024809619	-6.618000E+00
26	  0.025010020	-7.690000E-01	  0.025010020	-1.665660E+02	  0.025010020	2.243000E+00	  0.025010020	-5.876000E+00
27	  0.025210422	-7.820000E-01	  0.025210422	-1.682500E+02	  0.025210422	2.273000E+00	  0.025210422	-5.134000E+00
28	  0.025410822	-7.950000E-01	  0.025410822	-1.699360E+02	  0.025410822	2.304000E+00	  0.025410822	-4.392000E+00
29	  0.025611224	-8.090000E-01	  0.025611224	-1.716560E+02	  0.025611224	2.340000E+00	  0.025611224	-3.638000E+00
30	  0.025811624	-8.230000E-01	  0.025811624	-1.733720E+02	  0.025811624	2.375000E+00	  0.025811624	-2.888000E+00
31	  0.026012026	-8.350000E-01	  0.026012026	-1.751070E+02	  0.026012026	2.408000E+00	  0.026012026	-2.130000E+00
32	  0.026212426	-8.480000E-01	  0.026212426	-1.768470E+02	  0.026212426	2.442000E+00	  0.026212426	-1.372000E+00
33	  0.026412826	-8.660000E-01	  0.026412826	-1.785990E+02	  0.026412826	2.490000E+00	  0.026412826	-6.090000E-01
34	  0.026613226	-8.790000E-01	  0.026613226	1.796450E+02	  0.026613226	2.529000E+00	  0.026613226	1.540000E-01
35	  0.026813626	-8.970000E-01	  0.026813626	1.778760E+02	  0.026813626	2.581000E+00	  0.026813626	9.240000E-01
36	  0.027014028	-9.150000E-01	  0.027014028	1.760970E+02	  0.027014028	2.634000E+00	  0.027014028	1.698000E+00
37	  0.027214428	-9.320000E-01	  0.027214428	1.743270E+02	  0.027214428	2.686000E+00	  0.027214428	2.469000E+00
38	  0.027414829	-9.520000E-01	  0.027414829	1.725390E+02	  0.027414829	2.749000E+00	  0.027414829	3.250000E+00
39	  0.027615231	-9.690000E-01	  0.027615231	1.707300E+02	  0.027615231	2.806000E+00	  0.027615231	4.040000E+00
40	  0.027815631	-9.910000E-01	  0.027815631	1.689210E+02	  0.027815631	2.876000E+00	  0.027815631	4.833000E+00
41	  0.028016033	-1.013000E+00	  0.028016033	1.670940E+02	  0.028016033	2.949000E+00	  0.028016033	5.635000E+00
42	  0.028216433	-1.036000E+00	  0.028216433	1.652590E+02	  0.028216433	3.029000E+00	  0.028216433	6.443000E+00
43	  0.028416833	-1.057000E+00	  0.028416833	1.634210E+02	  0.028416833	3.104000E+00	  0.028416833	7.257000E+00
44	  0.028617235	-1.082000E+00	  0.028617235	1.615830E+02	  0.028617235	3.191000E+00	  0.028617235	8.073000E+00
45	  0.028817635	-1.105000E+00	  0.028817635	1.597400E+02	  0.028817635	3.277000E+00	  0.028817635	8.896000E+00
46	  0.029018037	-1.132000E+00	  0.029018037	1.578970E+02	  0.029018037	3.378000E+00	  0.029018037	9.722000E+00
47	  0.029218437	-1.158000E+00	  0.029218437	1.560400E+02	  0.029218437	3.479000E+00	  0.029218437	1.056000E+01
48	  0.029418837	-1.186000E+00	  0.029418837	1.541610E+02	  0.029418837	3.589000E+00	  0.029418837	1.141200E+01
49	  0.029619239	-1.215000E+00	  0.029619239	1.522800E+02	  0.029619239	3.703000E+00	  0.029619239	1.227200E+01
50	  0.029819639	-1.244000E+00	  0.029819639	1.504010E+02	  0.029819639	3.823000E+00	  0.029819639	1.313700E+01
51	  0.030020041	-1.274000E+00	  0.030020041	1.485030E+02	  0.030020041	3.950000E+00	  0.030020041	1.401800E+01
52	  0.030220442	-1.302000E+00	  0.030220442	1.466070E+02	  0.030220442	4.075000E+00	  0.030220442	1.490500E+01
53	  0.030420844	-1.331000E+00	  0.030420844	1.447230E+02	  0.030420844	4.209000E+00	  0.030420844	1.579500E+01
54	  0.030621244	-1.362000E+00	  0.030621244	1.428290E+02	  0.030621244	4.353000E+00	  0.030621244	1.669700E+01
55	  0.030821642	-1.397000E+00	  0.030821642	1.409260E+02	  0.030821642	4.514000E+00	  0.030821642	1.761300E+01
56	  0.031022044	-1.429000E+00	  0.031022044	1.389960E+02	  0.031022044	4.673000E+00	  0.031022044	1.855200E+01
57	  0.031222444	-1.458000E+00	  0.031222444	1.370830E+02	  0.031222444	4.831000E+00	  0.031222444	1.949400E+01
58	  0.031422846	-1.492000E+00	  0.031422846	1.351060E+02	  0.031422846	5.008000E+00	  0.031422846	2.047800E+01
59	  0.031623244	-1.527000E+00	  0.031623244	1.331250E+02	  0.031623244	5.202000E+00	  0.031623244	2.147700E+01
60	  0.031823646	-1.562000E+00	  0.031823646	1.311540E+02	  0.031823646	5.400000E+00	  0.031823646	2.248500E+01
61	  0.032024048	-1.598000E+00	  0.032024048	1.291790E+02	  0.032024048	5.612000E+00	  0.032024048	2.350800E+01
62	  0.032224450	-1.637000E+00	  0.032224450	1.271940E+02	  0.032224450	5.844000E+00	  0.032224450	2.455000E+01
63	  0.032424849	-1.675000E+00	  0.032424849	1.252000E+02	  0.032424849	6.083000E+00	  0.032424849	2.561400E+01
64	  0.032625251	-1.714000E+00	  0.032625251	1.231760E+02	  0.032625251	6.341000E+00	  0.032625251	2.671000E+01
65	  0.032825653	-1.752000E+00	  0.032825653	1.211440E+02	  0.032825653	6.606000E+00	  0.032825653	2.783000E+01
66	  0.033026051	-1.793000E+00	  0.033026051	1.190900E+02	  0.033026051	6.896000E+00	  0.033026051	2.898100E+01
67	  0.033226453	-1.833000E+00	  0.033226453	1.170690E+02	  0.033226453	7.196000E+00	  0.033226453	3.013500E+01
68	  0.033426855	-1.875000E+00	  0.033426855	1.150290E+02	  0.033426855	7.521000E+00	  0.033426855	3.132000E+01
69	  0.033627257	-1.916000E+00	  0.033627257	1.129910E+02	  0.033627257	7.859000E+00	  0.033627257	3.252700E+01
70	  0.033827655	-1.961000E+00	  0.033827655	1.109520E+02	  0.033827655	8.233000E+00	  0.033827655	3.375700E+01
71	  0.034028057	-2.006000E+00	  0.034028057	1.088880E+02	  0.034028057	8.627000E+00	  0.034028057	3.502900E+01
72	  0.034228459	-2.051000E+00	  0.034228459	1.068250E+02	  0.034228459	9.046000E+00	  0.034228459	3.632600E+01
73	  0.034428857	-2.097000E+00	  0.034428857	1.047620E+02	  0.034428857	9.495000E+00	  0.034428857	3.765200E+01
74	  0.034629259	-2.144000E+00	  0.034629259	1.026790E+02	  0.034629259	9.975000E+00	  0.034629259	3.902000E+01
75	  0.034829661	-2.190000E+00	  0.034829661	1.005980E+02	  0.034829661	1.048200E+01	  0.034829661	4.042000E+01
76	  0.035030060	-2.240000E+00	  0.035030060	9.852300E+01	  0.035030060	1.103600E+01	  0.035030060	4.184500E+01
77	  0.035230462	-2.288000E+00	  0.035230462	9.643200E+01	  0.035230462	1.162000E+01	  0.035230462	4.331900E+01
78	  0.035430863	-2.338000E+00	  0.035430863	9.435600E+01	  0.035430863	1.225000E+01	  0.035430863	4.481600E+01
79	  0.035631265	-2.390000E+00	  0.035631265	9.228500E+01	  0.035631265	1.292700E+01	  0.035631265	4.634500E+01
80	  0.035831664	-2.441000E+00	  0.035831664	9.018900E+01	  0.035831664	1.365100E+01	  0.035831664	4.793500E+01
81	  0.036032066	-2.491000E+00	  0.036032066	8.810700E+01	  0.036032066	1.441900E+01	  0.036032066	4.955600E+01
82	  0.036232468	-2.542000E+00	  0.036232468	8.602600E+01	  0.036232468	1.524500E+01	  0.036232468	5.121800E+01
83	  0.036432866	-2.593000E+00	  0.036432866	8.392800E+01	  0.036432866	1.613500E+01	  0.036432866	5.294100E+01
84	  0.036633268	-2.646000E+00	  0.036633268	8.181800E+01	  0.036633268	1.710700E+01	  0.036633268	5.471700E+01
85	  0.036833670	-2.702000E+00	  0.036833670	7.973400E+01	  0.036833670	1.815700E+01	  0.036833670	5.651300E+01
86	  0.037034072	-2.756000E+00	  0.037034072	7.763500E+01	  0.037034072	1.928700E+01	  0.037034072	5.837500E+01
87	  0.037234470	-2.811000E+00	  0.037234470	7.553000E+01	  0.037234470	2.050600E+01	  0.037234470	6.029300E+01
88	  0.037434869	-2.862000E+00	  0.037434869	7.343900E+01	  0.037434869	2.179800E+01	  0.037434869	6.225800E+01
89	  0.037635271	-2.917000E+00	  0.037635271	7.131400E+01	  0.037635271	2.323300E+01	  0.037635271	6.430300E+01
90	  0.037835669	-2.975000E+00	  0.037835669	6.918900E+01	  0.037835669	2.480800E+01	  0.037835669	6.639200E+01
91	  0.038036071	-3.031000E+00	  0.038036071	6.705800E+01	  0.038036071	2.651000E+01	  0.038036071	6.854600E+01
92	  0.038236473	-3.091000E+00	  0.038236473	6.492500E+01	  0.038236473	2.838500E+01	  0.038236473	7.074000E+01
93	  0.038436871	-3.149000E+00	  0.038436871	6.279700E+01	  0.038436871	3.041000E+01	  0.038436871	7.298200E+01
94	  0.038637273	-3.206000E+00	  0.038637273	6.065300E+01	  0.038637273	3.262000E+01	  0.038637273	7.529400E+01
95	  0.038837675	-3.264000E+00	  0.038837675	5.854800E+01	  0.038837675	3.499400E+01	  0.038837675	7.759900E+01
96	  0.039038073	-3.317000E+00	  0.039038073	5.643300E+01	  0.039038073	3.755700E+01	  0.039038073	7.997700E+01
97	  0.039238475	-3.374000E+00	  0.039238475	5.430800E+01	  0.039238475	4.039600E+01	  0.039238475	8.237300E+01
98	  0.039438877	-3.432000E+00	  0.039438877	5.220600E+01	  0.039438877	4.348900E+01	  0.039438877	8.473300E+01
99	  0.039639279	-3.491000E+00	  0.039639279	5.007200E+01	  0.039639279	4.691000E+01	  0.039639279	8.713200E+01
100	  0.039839678	-3.547000E+00	  0.039839678	4.796000E+01	  0.039839678	5.059300E+01	  0.039839678	8.949800E+01
101	  0.040040080	-3.602000E+00	  0.040040080	4.581700E+01	  0.040040080	5.467100E+01	  0.040040080	9.186200E+01
102	  0.040240481	-3.659000E+00	  0.040240481	4.371100E+01	  0.040240481	5.907600E+01	  0.040240481	9.407700E+01
103	  0.040440880	-3.712000E+00	  0.040440880	4.160400E+01	  0.040440880	6.385000E+01	  0.040440880	9.622900E+01
104	  0.040641282	-3.771000E+00	  0.040641282	3.950100E+01	  0.040641282	6.909500E+01	  0.040641282	9.812400E+01
105	  0.040841684	-3.823000E+00	  0.040841684	3.742100E+01	  0.040841684	7.469400E+01	  0.040841684	9.985800E+01
106	  0.041042086	-3.882000E+00	  0.041042086	3.536300E+01	  0.041042086	8.075100E+01	  0.041042086	1.011550E+02
107	  0.041242484	-3.938000E+00	  0.041242484	3.326900E+01	  0.041242484	8.737200E+01	  0.041242484	1.021550E+02
108	  0.041442886	-3.993000E+00	  0.041442886	3.118200E+01	  0.041442886	9.445500E+01	  0.041442886	1.027130E+02
109	  0.041643288	-4.047000E+00	  0.041643288	2.911100E+01	  0.041643288	1.019590E+02	  0.041643288	1.026890E+02
110	  0.041843686	-4.102000E+00	  0.041843686	2.704300E+01	  0.041843686	1.098980E+02	  0.041843686	1.019670E+02
111	  0.042044088	-4.154000E+00	  0.042044088	2.499300E+01	  0.042044088	1.181430E+02	  0.042044088	1.004830E+02
112	  0.042244490	-4.207000E+00	  0.042244490	2.295100E+01	  0.042244490	1.266510E+02	  0.042244490	9.806500E+01
113	  0.042444889	-4.258000E+00	  0.042444889	2.092800E+01	  0.042444889	1.352560E+02	  0.042444889	9.469000E+01
114	  0.042645290	-4.313000E+00	  0.042645290	1.889900E+01	  0.042645290	1.438670E+02	  0.042645290	9.009300E+01
115	  0.042845692	-4.366000E+00	  0.042845692	1.689700E+01	  0.042845692	1.521760E+02	  0.042845692	8.438200E+01
116	  0.043046094	-4.416000E+00	  0.043046094	1.488000E+01	  0.043046094	1.602170E+02	  0.043046094	7.754400E+01
117	  0.043246493	-4.465000E+00	  0.043246493	1.286700E+01	  0.043246493	1.676190E+02	  0.043246493	6.950300E+01
118	  0.043446895	-4.512000E+00	  0.043446895	1.087200E+01	  0.043446895	1.741470E+02	  0.043446895	6.047000E+01
119	  0.043647297	-4.558000E+00	  0.043647297	8.865000E+00	  0.043647297	1.796730E+02	  0.043647297	5.042300E+01
120	  0.043847695	-4.605000E+00	  0.043847695	6.892000E+00	  0.043847695	1.837740E+02	  0.043847695	3.971100E+01
121	  0.044048097	-4.651000E+00	  0.044048097	4.904000E+00	  0.044048097	1.865130E+02	  0.044048097	2.839700E+01
122	  0.044248499	-4.694000E+00	  0.044248499	2.935000E+00	  0.044248499	1.878710E+02	  0.044248499	1.696400E+01
123	  0.044448901	-4.736000E+00	  0.044448901	9.740000E-01	  0.044448901	1.877100E+02	  0.044448901	5.571000E+00
124	  0.044649299	-4.779000E+00	  0.044649299	-9.900000E-01	  0.044649299	1.861260E+02	  0.044649299	-5.564000E+00
125	  0.044849701	-4.821000E+00	  0.044849701	-2.948000E+00	  0.044849701	1.832180E+02	  0.044849701	-1.613500E+01
126	  0.045050103	-4.859000E+00	  0.045050103	-4.904000E+00	  0.045050103	1.792970E+02	  0.045050103	-2.601900E+01
127	  0.045250501	-4.903000E+00	  0.045250501	-6.854000E+00	  0.045250501	1.742180E+02	  0.045250501	-3.494800E+01
128	  0.045450903	-4.945000E+00	  0.045450903	-8.788000E+00	  0.045450903	1.684730E+02	  0.045450903	-4.285400E+01
129	  0.045651305	-4.982000E+00	  0.045651305	-1.071200E+01	  0.045651305	1.623470E+02	  0.045651305	-4.982900E+01
130	  0.045851704	-5.020000E+00	  0.045851704	-1.261600E+01	  0.045851704	1.558830E+02	  0.045851704	-5.575000E+01
131	  0.046052102	-5.057000E+00	  0.046052102	-1.453000E+01	  0.046052102	1.491870E+02	  0.046052102	-6.078500E+01
132	  0.046252504	-5.097000E+00	  0.046252504	-1.638200E+01	  0.046252504	1.425920E+02	  0.046252504	-6.475100E+01
133	  0.046452906	-5.134000E+00	  0.046452906	-1.825400E+01	  0.046452906	1.360050E+02	  0.046452906	-6.802900E+01
134	  0.046653304	-5.169000E+00	  0.046653304	-2.008300E+01	  0.046653304	1.297120E+02	  0.046653304	-7.060400E+01
135	  0.046853706	-5.199000E+00	  0.046853706	-2.189500E+01	  0.046853706	1.236750E+02	  0.046853706	-7.262700E+01
136	  0.047054108	-5.225000E+00	  0.047054108	-2.372900E+01	  0.047054108	1.177970E+02	  0.047054108	-7.423200E+01
137	  0.047254506	-5.251000E+00	  0.047254506	-2.556800E+01	  0.047254506	1.121230E+02	  0.047254506	-7.535600E+01
138	  0.047454908	-5.272000E+00	  0.047454908	-2.739900E+01	  0.047454908	1.067350E+02	  0.047454908	-7.615200E+01
139	  0.047655310	-5.295000E+00	  0.047655310	-2.922800E+01	  0.047655310	1.015900E+02	  0.047655310	-7.653200E+01
140	  0.047855709	-5.318000E+00	  0.047855709	-3.104400E+01	  0.047855709	9.673900E+01	  0.047855709	-7.660200E+01
141	  0.048056111	-5.344000E+00	  0.048056111	-3.286100E+01	  0.048056111	9.214100E+01	  0.048056111	-7.635200E+01
142	  0.048256513	-5.368000E+00	  0.048256513	-3.467200E+01	  0.048256513	8.781600E+01	  0.048256513	-7.590700E+01
143	  0.048456915	-5.393000E+00	  0.048456915	-3.648600E+01	  0.048456915	8.373500E+01	  0.048456915	-7.526000E+01
144	  0.048657313	-5.413000E+00	  0.048657313	-3.829400E+01	  0.048657313	7.990100E+01	  0.048657313	-7.453000E+01
145	  0.048857715	-5.436000E+00	  0.048857715	-4.008600E+01	  0.048857715	7.633200E+01	  0.048857715	-7.362400E+01
146	  0.049058117	-5.457000E+00	  0.049058117	-4.187800E+01	  0.049058117	7.297000E+01	  0.049058117	-7.265800E+01
147	  0.049258515	-5.480000E+00	  0.049258515	-4.363100E+01	  0.049258515	6.988900E+01	  0.049258515	-7.158500E+01
148	  0.049458917	-5.501000E+00	  0.049458917	-4.537600E+01	  0.049458917	6.699600E+01	  0.049458917	-7.047700E+01
149	  0.049659319	-5.523000E+00	  0.049659319	-4.711900E+01	  0.049659319	6.428400E+01	  0.049659319	-6.930600E+01
150	  0.049859721	-5.549000E+00	  0.049859721	-4.884300E+01	  0.049859721	6.177600E+01	  0.049859721	-6.807100E+01
151	  0.050060119	-5.571000E+00	  0.050060119	-5.054700E+01	  0.050060119	5.942800E+01	  0.050060119	-6.686400E+01
152	  0.050260521	-5.589000E+00	  0.050260521	-5.225500E+01	  0.050260521	5.719900E+01	  0.050260521	-6.565800E+01
153	  0.050460923	-5.607000E+00	  0.050460923	-5.397700E+01	  0.050460923	5.507700E+01	  0.050460923	-6.443300E+01
154	  0.050661322	-5.626000E+00	  0.050661322	-5.564300E+01	  0.050661322	5.314800E+01	  0.050661322	-6.322300E+01
155	  0.050861724	-5.641000E+00	  0.050861724	-5.733500E+01	  0.050861724	5.128200E+01	  0.050861724	-6.201700E+01
156	  0.051062126	-5.662000E+00	  0.051062126	-5.898800E+01	  0.051062126	4.958500E+01	  0.051062126	-6.079100E+01
157	  0.051262524	-5.681000E+00	  0.051262524	-6.062900E+01	  0.051262524	4.798600E+01	  0.051262524	-5.958900E+01
158	  0.051462926	-5.697000E+00	  0.051462926	-6.226100E+01	  0.051462926	4.646600E+01	  0.051462926	-5.842000E+01
159	  0.051663328	-5.712000E+00	  0.051663328	-6.388400E+01	  0.051663328	4.503500E+01	  0.051663328	-5.726300E+01
160	  0.051863730	-5.731000E+00	  0.051863730	-6.549400E+01	  0.051863730	4.370000E+01	  0.051863730	-5.610400E+01
161	  0.052064128	-5.744000E+00	  0.052064128	-6.713100E+01	  0.052064128	4.239300E+01	  0.052064128	-5.496400E+01
162	  0.052264530	-5.755000E+00	  0.052264530	-6.871600E+01	  0.052264530	4.117800E+01	  0.052264530	-5.388100E+01
163	  0.052464932	-5.770000E+00	  0.052464932	-7.029800E+01	  0.052464932	4.004800E+01	  0.052464932	-5.278500E+01
164	  0.052665330	-5.782000E+00	  0.052665330	-7.186100E+01	  0.052665330	3.897200E+01	  0.052665330	-5.172800E+01
165	  0.052865732	-5.796000E+00	  0.052865732	-7.338300E+01	  0.052865732	3.798400E+01	  0.052865732	-5.069500E+01
166	  0.053066134	-5.808000E+00	  0.053066134	-7.492700E+01	  0.053066134	3.702100E+01	  0.053066134	-4.966900E+01
167	  0.053266536	-5.822000E+00	  0.053266536	-7.647600E+01	  0.053266536	3.610500E+01	  0.053266536	-4.864600E+01
168	  0.053466935	-5.835000E+00	  0.053466935	-7.798100E+01	  0.053466935	3.525700E+01	  0.053466935	-4.766100E+01
169	  0.053667337	-5.847000E+00	  0.053667337	-7.950400E+01	  0.053667337	3.443000E+01	  0.053667337	-4.668400E+01
170	  0.053867739	-5.857000E+00	  0.053867739	-8.099300E+01	  0.053867739	3.365300E+01	  0.053867739	-4.574300E+01
171	  0.054068137	-5.867000E+00	  0.054068137	-8.251400E+01	  0.054068137	3.289300E+01	  0.054068137	-4.479400E+01
172	  0.054268539	-5.876000E+00	  0.054268539	-8.400500E+01	  0.054268539	3.217900E+01	  0.054268539	-4.387700E+01
173	  0.054468941	-5.887000E+00	  0.054468941	-8.544800E+01	  0.054468941	3.152400E+01	  0.054468941	-4.299400E+01
174	  0.054669335	-5.902000E+00	  0.054669335	-8.692100E+01	  0.054669335	3.089800E+01	  0.054669335	-4.209100E+01
175	  0.054869737	-5.910000E+00	  0.054869737	-8.837500E+01	  0.054869737	3.028200E+01	  0.054869737	-4.123000E+01
176	  0.055070139	-5.920000E+00	  0.055070139	-8.981100E+01	  0.055070139	2.970700E+01	  0.055070139	-4.038200E+01
177	  0.055270538	-5.928000E+00	  0.055270538	-9.126200E+01	  0.055270538	2.914100E+01	  0.055270538	-3.954200E+01
178	  0.055470940	-5.934000E+00	  0.055470940	-9.268400E+01	  0.055470940	2.860400E+01	  0.055470940	-3.873200E+01
179	  0.055671342	-5.944000E+00	  0.055671342	-9.410800E+01	  0.055671342	2.809900E+01	  0.055671342	-3.792100E+01
180	  0.055871744	-5.951000E+00	  0.055871744	-9.552100E+01	  0.055871744	2.760700E+01	  0.055871744	-3.713200E+01
181	  0.056072142	-5.959000E+00	  0.056072142	-9.692600E+01	  0.056072142	2.714400E+01	  0.056072142	-3.635300E+01
182	  0.056272544	-5.967000E+00	  0.056272544	-9.831200E+01	  0.056272544	2.670500E+01	  0.056272544	-3.559200E+01
183	  0.056472946	-5.972000E+00	  0.056472946	-9.968200E+01	  0.056472946	2.627400E+01	  0.056472946	-3.485500E+01
184	  0.056673344	-5.979000E+00	  0.056673344	-1.010510E+02	  0.056673344	2.586900E+01	  0.056673344	-3.412100E+01
185	  0.056873746	-5.980000E+00	  0.056873746	-1.024130E+02	  0.056873746	2.546000E+01	  0.056873746	-3.341100E+01
186	  0.057074148	-5.987000E+00	  0.057074148	-1.037640E+02	  0.057074148	2.509100E+01	  0.057074148	-3.270100E+01
187	  0.057274550	-5.995000E+00	  0.057274550	-1.051280E+02	  0.057274550	2.473300E+01	  0.057274550	-3.199000E+01
188	  0.057474948	-5.997000E+00	  0.057474948	-1.064680E+02	  0.057474948	2.437500E+01	  0.057474948	-3.130900E+01
189	  0.057675350	-6.001000E+00	  0.057675350	-1.078020E+02	  0.057675350	2.404000E+01	  0.057675350	-3.063200E+01
190	  0.057875752	-6.004000E+00	  0.057875752	-1.091260E+02	  0.057875752	2.371700E+01	  0.057875752	-2.996800E+01
191	  0.058076151	-6.012000E+00	  0.058076151	-1.104570E+02	  0.058076151	2.341600E+01	  0.058076151	-2.930100E+01
192	  0.058276553	-6.014000E+00	  0.058276553	-1.117230E+02	  0.058276553	2.312800E+01	  0.058276553	-2.867800E+01
193	  0.058476955	-6.017000E+00	  0.058476955	-1.130140E+02	  0.058476955	2.284200E+01	  0.058476955	-2.804900E+01
194	  0.058677353	-6.020000E+00	  0.058677353	-1.143010E+02	  0.058677353	2.256900E+01	  0.058677353	-2.742600E+01
195	  0.058877755	-6.023000E+00	  0.058877755	-1.155800E+02	  0.058877755	2.230700E+01	  0.058877755	-2.681100E+01
196	  0.059078157	-6.026000E+00	  0.059078157	-1.168490E+02	  0.059078157	2.205500E+01	  0.059078157	-2.620700E+01
197	  0.059278559	-6.027000E+00	  0.059278559	-1.180720E+02	  0.059278559	2.181500E+01	  0.059278559	-2.563200E+01
198	  0.059478957	-6.031000E+00	  0.059478957	-1.193320E+02	  0.059478957	2.158700E+01	  0.059478957	-2.503900E+01
199	  0.059679359	-6.036000E+00	  0.059679359	-1.205760E+02	  0.059679359	2.137100E+01	  0.059679359	-2.445700E+01
200	  0.059879761	-6.041000E+00	  0.059879761	-1.217880E+02	  0.059879761	2.116900E+01	  0.059879761	-2.389400E+01
201	  0.060080159	-6.045000E+00	  0.060080159	-1.229980E+02	  0.060080159	2.097100E+01	  0.060080159	-2.333800E+01
202	  0.060280561	-6.053000E+00	  0.060280561	-1.241950E+02	  0.060280561	2.079200E+01	  0.060280561	-2.278700E+01
203	  0.060480963	-6.057000E+00	  0.060480963	-1.253850E+02	  0.060480963	2.061200E+01	  0.060480963	-2.224700E+01
204	  0.060681365	-6.061000E+00	  0.060681365	-1.265610E+02	  0.060681365	2.043900E+01	  0.060681365	-2.171700E+01
205	  0.060881764	-6.064000E+00	  0.060881764	-1.277520E+02	  0.060881764	2.026600E+01	  0.060881764	-2.118500E+01
206	  0.061082166	-6.070000E+00	  0.061082166	-1.289210E+02	  0.061082166	2.011000E+01	  0.061082166	-2.066300E+01
207	  0.061282568	-6.078000E+00	  0.061282568	-1.300990E+02	  0.061282568	1.996400E+01	  0.061282568	-2.013900E+01
208	  0.061482966	-6.081000E+00	  0.061482966	-1.312430E+02	  0.061482966	1.981600E+01	  0.061482966	-1.963600E+01
209	  0.061683368	-6.084000E+00	  0.061683368	-1.324090E+02	  0.061683368	1.966900E+01	  0.061683368	-1.912800E+01
210	  0.061883770	-6.089000E+00	  0.061883770	-1.335610E+02	  0.061883770	1.953300E+01	  0.061883770	-1.862700E+01
211	  0.062084168	-6.092000E+00	  0.062084168	-1.346510E+02	  0.062084168	1.940500E+01	  0.062084168	-1.815700E+01
212	  0.062284570	-6.093000E+00	  0.062284570	-1.358030E+02	  0.062284570	1.927100E+01	  0.062284570	-1.766300E+01
213	  0.062484972	-6.091000E+00	  0.062484972	-1.368920E+02	  0.062484972	1.913800E+01	  0.062484972	-1.720200E+01
214	  0.062685370	-6.089000E+00	  0.062685370	-1.380120E+02	  0.062685370	1.900500E+01	  0.062685370	-1.673000E+01
215	  0.062885776	-6.092000E+00	  0.062885776	-1.391340E+02	  0.062885776	1.889000E+01	  0.062885776	-1.625500E+01
216	  0.063086174	-6.092000E+00	  0.063086174	-1.402400E+02	  0.063086174	1.877300E+01	  0.063086174	-1.579200E+01
217	  0.063286573	-6.086000E+00	  0.063286573	-1.413060E+02	  0.063286573	1.865100E+01	  0.063286573	-1.535000E+01
218	  0.063486971	-6.086000E+00	  0.063486971	-1.423930E+02	  0.063486971	1.854300E+01	  0.063486971	-1.489800E+01
219	  0.063687377	-6.080000E+00	  0.063687377	-1.434670E+02	  0.063687377	1.842300E+01	  0.063687377	-1.445700E+01
220	  0.063887775	-6.075000E+00	  0.063887775	-1.445620E+02	  0.063887775	1.831100E+01	  0.063887775	-1.400800E+01
221	  0.064088173	-6.070000E+00	  0.064088173	-1.456440E+02	  0.064088173	1.820300E+01	  0.064088173	-1.356600E+01
222	  0.064288579	-6.064000E+00	  0.064288579	-1.467230E+02	  0.064288579	1.809500E+01	  0.064288579	-1.312700E+01
223	  0.064488977	-6.055000E+00	  0.064488977	-1.477700E+02	  0.064488977	1.798500E+01	  0.064488977	-1.270400E+01
224	  0.064689375	-6.049000E+00	  0.064689375	-1.488470E+02	  0.064689375	1.788600E+01	  0.064689375	-1.226800E+01
225	  0.064889781	-6.042000E+00	  0.064889781	-1.499130E+02	  0.064889781	1.778700E+01	  0.064889781	-1.183900E+01
226	  0.065090179	-6.034000E+00	  0.065090179	-1.509530E+02	  0.065090179	1.768900E+01	  0.065090179	-1.142100E+01
227	  0.065290578	-6.026000E+00	  0.065290578	-1.520310E+02	  0.065290578	1.759400E+01	  0.065290578	-1.099000E+01
228	  0.065490983	-6.012000E+00	  0.065490983	-1.530630E+02	  0.065490983	1.748800E+01	  0.065490983	-1.058000E+01
229	  0.065691382	-6.006000E+00	  0.065691382	-1.541460E+02	  0.065691382	1.740400E+01	  0.065691382	-1.014700E+01
230	  0.065891780	-5.997000E+00	  0.065891780	-1.552110E+02	  0.065891780	1.731600E+01	  0.065891780	-9.724000E+00
231	  0.066092186	-5.987000E+00	  0.066092186	-1.562440E+02	  0.066092186	1.723100E+01	  0.066092186	-9.314000E+00
232	  0.066292584	-5.974000E+00	  0.066292584	-1.572830E+02	  0.066292584	1.714100E+01	  0.066292584	-8.904000E+00
233	  0.066492982	-5.969000E+00	  0.066492982	-1.583370E+02	  0.066492982	1.707200E+01	  0.066492982	-8.486000E+00
234	  0.066693388	-5.963000E+00	  0.066693388	-1.593660E+02	  0.066693388	1.700500E+01	  0.066693388	-8.079000E+00
235	  0.066893786	-5.952000E+00	  0.066893786	-1.603910E+02	  0.066893786	1.692900E+01	  0.066893786	-7.675000E+00
236	  0.067094192	-5.943000E+00	  0.067094192	-1.614450E+02	  0.067094192	1.686000E+01	  0.067094192	-7.260000E+00
237	  0.067294590	-5.939000E+00	  0.067294590	-1.624780E+02	  0.067294590	1.680700E+01	  0.067294590	-6.852000E+00
238	  0.067494988	-5.933000E+00	  0.067494988	-1.635020E+02	  0.067494988	1.675200E+01	  0.067494988	-6.449000E+00
239	  0.067695394	-5.927000E+00	  0.067695394	-1.645310E+02	  0.067695394	1.669800E+01	  0.067695394	-6.045000E+00
240	  0.067895792	-5.922000E+00	  0.067895792	-1.655650E+02	  0.067895792	1.665000E+01	  0.067895792	-5.639000E+00
241	  0.068096191	-5.918000E+00	  0.068096191	-1.666100E+02	  0.068096191	1.660600E+01	  0.068096191	-5.229000E+00
242	  0.068296596	-5.916000E+00	  0.068296596	-1.676510E+02	  0.068296596	1.657000E+01	  0.068296596	-4.821000E+00
243	  0.068496995	-5.915000E+00	  0.068496995	-1.686490E+02	  0.068496995	1.654200E+01	  0.068496995	-4.429000E+00
244	  0.068697393	-5.909000E+00	  0.068697393	-1.696940E+02	  0.068697393	1.650100E+01	  0.068697393	-4.021000E+00
245	  0.068897791	-5.905000E+00	  0.068897791	-1.707180E+02	  0.068897791	1.646600E+01	  0.068897791	-3.621000E+00
246	  0.069098189	-5.902000E+00	  0.069098189	-1.717400E+02	  0.069098189	1.644000E+01	  0.069098189	-3.221000E+00
247	  0.069298595	-5.899000E+00	  0.069298595	-1.727540E+02	  0.069298595	1.641300E+01	  0.069298595	-2.825000E+00
248	  0.069498993	-5.895000E+00	  0.069498993	-1.738240E+02	  0.069498993	1.638700E+01	  0.069498993	-2.408000E+00
249	  0.069699399	-5.897000E+00	  0.069699399	-1.748240E+02	  0.069699399	1.638100E+01	  0.069699399	-2.017000E+00
250	  0.069899797	-5.896000E+00	  0.069899797	-1.758320E+02	  0.069899797	1.636700E+01	  0.069899797	-1.624000E+00
251	  0.070100196	-5.895000E+00	  0.070100196	-1.768370E+02	  0.070100196	1.635700E+01	  0.070100196	-1.232000E+00
252	  0.070300601	-5.893000E+00	  0.070300601	-1.778440E+02	  0.070300601	1.634600E+01	  0.070300601	-8.390000E-01
253	  0.070501000	-5.891000E+00	  0.070501000	-1.788650E+02	  0.070501000	1.633500E+01	  0.070501000	-4.420000E-01
254	  0.070701398	-5.888000E+00	  0.070701398	-1.798690E+02	  0.070701398	1.632800E+01	  0.070701398	-5.000000E-02
255	  0.070901804	-5.885000E+00	  0.070901804	1.791440E+02	  0.070901804	1.632100E+01	  0.070901804	3.330000E-01
256	  0.071102202	-5.887000E+00	  0.071102202	1.781180E+02	  0.071102202	1.632900E+01	  0.071102202	7.330000E-01
257	  0.071302600	-5.885000E+00	  0.071302600	1.771110E+02	  0.071302600	1.632800E+01	  0.071302600	1.126000E+00
258	  0.071503006	-5.886000E+00	  0.071503006	1.761410E+02	  0.071503006	1.634000E+01	  0.071503006	1.504000E+00
259	  0.071703404	-5.885000E+00	  0.071703404	1.751530E+02	  0.071703404	1.634500E+01	  0.071703404	1.889000E+00
260	  0.071903802	-5.887000E+00	  0.071903802	1.741660E+02	  0.071903802	1.636300E+01	  0.071903802	2.275000E+00
261	  0.072104208	-5.886000E+00	  0.072104208	1.732130E+02	  0.072104208	1.637300E+01	  0.072104208	2.647000E+00
262	  0.072304606	-5.887000E+00	  0.072304606	1.722230E+02	  0.072304606	1.639300E+01	  0.072304606	3.034000E+00
263	  0.072505005	-5.888000E+00	  0.072505005	1.712980E+02	  0.072505005	1.641100E+01	  0.072505005	3.396000E+00
264	  0.072705410	-5.888000E+00	  0.072705410	1.703040E+02	  0.072705410	1.643200E+01	  0.072705410	3.785000E+00
265	  0.072905809	-5.894000E+00	  0.072905809	1.693420E+02	  0.072905809	1.646900E+01	  0.072905809	4.161000E+00
266	  0.073106214	-5.895000E+00	  0.073106214	1.684160E+02	  0.073106214	1.649600E+01	  0.073106214	4.524000E+00
267	  0.073306613	-5.897000E+00	  0.073306613	1.674390E+02	  0.073306613	1.652800E+01	  0.073306613	4.907000E+00
268	  0.073507011	-5.903000E+00	  0.073507011	1.664930E+02	  0.073507011	1.657000E+01	  0.073507011	5.278000E+00
269	  0.073707417	-5.905000E+00	  0.073707417	1.655620E+02	  0.073707417	1.660500E+01	  0.073707417	5.644000E+00
270	  0.073907815	-5.908000E+00	  0.073907815	1.646020E+02	  0.073907815	1.664500E+01	  0.073907815	6.022000E+00
271	  0.074108213	-5.913000E+00	  0.074108213	1.637080E+02	  0.074108213	1.669000E+01	  0.074108213	6.373000E+00
272	  0.074308619	-5.920000E+00	  0.074308619	1.627520E+02	  0.074308619	1.674500E+01	  0.074308619	6.749000E+00
273	  0.074509017	-5.924000E+00	  0.074509017	1.618300E+02	  0.074509017	1.679400E+01	  0.074509017	7.113000E+00
274	  0.074709415	-5.930000E+00	  0.074709415	1.608910E+02	  0.074709415	1.684900E+01	  0.074709415	7.483000E+00
275	  0.074909821	-5.939000E+00	  0.074909821	1.599770E+02	  0.074909821	1.691500E+01	  0.074909821	7.843000E+00
276	  0.075110219	-5.947000E+00	  0.075110219	1.590610E+02	  0.075110219	1.697800E+01	  0.075110219	8.205000E+00
277	  0.075310618	-5.951000E+00	  0.075310618	1.581410E+02	  0.075310618	1.703400E+01	  0.075310618	8.570000E+00
278	  0.075511023	-5.959000E+00	  0.075511023	1.572420E+02	  0.075511023	1.710200E+01	  0.075511023	8.926000E+00
279	  0.075711422	-5.964000E+00	  0.075711422	1.563420E+02	  0.075711422	1.716600E+01	  0.075711422	9.283000E+00
280	  0.075911827	-5.973000E+00	  0.075911827	1.554280E+02	  0.075911827	1.724100E+01	  0.075911827	9.646000E+00
281	  0.076112226	-5.984000E+00	  0.076112226	1.545040E+02	  0.076112226	1.732400E+01	  0.076112226	1.001200E+01
282	  0.076312624	-5.994000E+00	  0.076312624	1.535870E+02	  0.076312624	1.740800E+01	  0.076312624	1.037600E+01
283	  0.076513030	-6.001000E+00	  0.076513030	1.526760E+02	  0.076513030	1.748600E+01	  0.076513030	1.074000E+01
284	  0.076713428	-6.011000E+00	  0.076713428	1.517680E+02	  0.076713428	1.757300E+01	  0.076713428	1.110200E+01
285	  0.076913826	-6.023000E+00	  0.076913826	1.508540E+02	  0.076913826	1.766800E+01	  0.076913826	1.146600E+01
286	  0.077114232	-6.034000E+00	  0.077114232	1.499750E+02	  0.077114232	1.776000E+01	  0.077114232	1.181700E+01
287	  0.077314630	-6.045000E+00	  0.077314630	1.490840E+02	  0.077314630	1.785700E+01	  0.077314630	1.217400E+01
288	  0.077515028	-6.056000E+00	  0.077515028	1.481850E+02	  0.077515028	1.795500E+01	  0.077515028	1.253400E+01
289	  0.077715434	-6.067000E+00	  0.077715434	1.473000E+02	  0.077715434	1.805700E+01	  0.077715434	1.288900E+01
290	  0.077915832	-6.077000E+00	  0.077915832	1.464040E+02	  0.077915832	1.815600E+01	  0.077915832	1.325000E+01
291	  0.078116231	-6.092000E+00	  0.078116231	1.455260E+02	  0.078116231	1.827300E+01	  0.078116231	1.360200E+01
292	  0.078316636	-6.103000E+00	  0.078316636	1.446230E+02	  0.078316636	1.838000E+01	  0.078316636	1.396700E+01
293	  0.078517035	-6.115000E+00	  0.078517035	1.437280E+02	  0.078517035	1.849700E+01	  0.078517035	1.432800E+01
294	  0.078717433	-6.130000E+00	  0.078717433	1.428440E+02	  0.078717433	1.862100E+01	  0.078717433	1.468300E+01
295	  0.078917839	-6.146000E+00	  0.078917839	1.419710E+02	  0.078917839	1.874700E+01	  0.078917839	1.503500E+01
296	  0.079118237	-6.158000E+00	  0.079118237	1.411110E+02	  0.079118237	1.886600E+01	  0.079118237	1.538400E+01
297	  0.079318643	-6.174000E+00	  0.079318643	1.402650E+02	  0.079318643	1.899700E+01	  0.079318643	1.572500E+01
298	  0.079519041	-6.185000E+00	  0.079519041	1.393970E+02	  0.079519041	1.912000E+01	  0.079519041	1.607900E+01
299	  0.079719439	-6.202000E+00	  0.079719439	1.385530E+02	  0.079719439	1.925900E+01	  0.079719439	1.642000E+01
300	  0.079919845	-6.217000E+00	  0.079919845	1.376850E+02	  0.079919845	1.939700E+01	  0.079919845	1.677300E+01
301	  0.080120243	-6.231000E+00	  0.080120243	1.368250E+02	  0.080120243	1.953500E+01	  0.080120243	1.712400E+01
302	  0.080320641	-6.251000E+00	  0.080320641	1.359770E+02	  0.080320641	1.969000E+01	  0.080320641	1.746500E+01
303	  0.080521047	-6.266000E+00	  0.080521047	1.351200E+02	  0.080521047	1.983800E+01	  0.080521047	1.781500E+01
304	  0.080721445	-6.283000E+00	  0.080721445	1.342990E+02	  0.080721445	1.998800E+01	  0.080721445	1.814900E+01
305	  0.080921844	-6.300000E+00	  0.080921844	1.334730E+02	  0.080921844	2.014000E+01	  0.080921844	1.848500E+01
306	  0.081122249	-6.321000E+00	  0.081122249	1.326390E+02	  0.081122249	2.030800E+01	  0.081122249	1.882200E+01
307	  0.081322648	-6.339000E+00	  0.081322648	1.318390E+02	  0.081322648	2.046800E+01	  0.081322648	1.914700E+01
308	  0.081523046	-6.360000E+00	  0.081523046	1.309960E+02	  0.081523046	2.064600E+01	  0.081523046	1.948800E+01
309	  0.081723452	-6.375000E+00	  0.081723452	1.301600E+02	  0.081723452	2.080600E+01	  0.081723452	1.983300E+01
310	  0.081923850	-6.392000E+00	  0.081923850	1.293750E+02	  0.081923850	2.096700E+01	  0.081923850	2.015500E+01
311	  0.082124248	-6.414000E+00	  0.082124248	1.285730E+02	  0.082124248	2.115000E+01	  0.082124248	2.047900E+01
312	  0.082324654	-6.434000E+00	  0.082324654	1.277550E+02	  0.082324654	2.133300E+01	  0.082324654	2.081100E+01
313	  0.082525052	-6.454000E+00	  0.082525052	1.269680E+02	  0.082525052	2.151300E+01	  0.082525052	2.113100E+01
314	  0.082725458	-6.479000E+00	  0.082725458	1.262120E+02	  0.082725458	2.170500E+01	  0.082725458	2.143300E+01
315	  0.082925856	-6.502000E+00	  0.082925856	1.254170E+02	  0.082925856	2.190200E+01	  0.082925856	2.175400E+01
316	  0.083126254	-6.522000E+00	  0.083126254	1.245750E+02	  0.083126254	2.210300E+01	  0.083126254	2.209800E+01
317	  0.083326660	-6.547000E+00	  0.083326660	1.238080E+02	  0.083326660	2.230700E+01	  0.083326660	2.240500E+01
318	  0.083527058	-6.571000E+00	  0.083527058	1.230290E+02	  0.083527058	2.251200E+01	  0.083527058	2.271900E+01
319	  0.083727457	-6.599000E+00	  0.083727457	1.222380E+02	  0.083727457	2.273700E+01	  0.083727457	2.303100E+01
320	  0.083927862	-6.626000E+00	  0.083927862	1.214770E+02	  0.083927862	2.295500E+01	  0.083927862	2.333300E+01
321	  0.084128261	-6.650000E+00	  0.084128261	1.207240E+02	  0.084128261	2.316700E+01	  0.084128261	2.363400E+01
322	  0.084328659	-6.677000E+00	  0.084328659	1.199770E+02	  0.084328659	2.339000E+01	  0.084328659	2.392800E+01
323	  0.084529065	-6.702000E+00	  0.084529065	1.192230E+02	  0.084529065	2.361200E+01	  0.084529065	2.422800E+01
324	  0.084729463	-6.733000E+00	  0.084729463	1.184650E+02	  0.084729463	2.385500E+01	  0.084729463	2.452200E+01
325	  0.084929854	-6.760000E+00	  0.084929854	1.176990E+02	  0.084929854	2.409200E+01	  0.084929854	2.482400E+01
326	  0.085130259	-6.788000E+00	  0.085130259	1.169550E+02	  0.085130259	2.433100E+01	  0.085130259	2.511500E+01
327	  0.085330658	-6.813000E+00	  0.085330658	1.162270E+02	  0.085330658	2.456200E+01	  0.085330658	2.540100E+01
328	  0.085531056	-6.847000E+00	  0.085531056	1.154950E+02	  0.085531056	2.482400E+01	  0.085531056	2.567600E+01
329	  0.085731462	-6.875000E+00	  0.085731462	1.147840E+02	  0.085731462	2.506600E+01	  0.085731462	2.595100E+01
330	  0.085931860	-6.901000E+00	  0.085931860	1.140800E+02	  0.085931860	2.530100E+01	  0.085931860	2.622500E+01
331	  0.086132258	-6.933000E+00	  0.086132258	1.134000E+02	  0.086132258	2.555400E+01	  0.086132258	2.647800E+01
332	  0.086332664	-6.963000E+00	  0.086332664	1.127350E+02	  0.086332664	2.580300E+01	  0.086332664	2.672600E+01
333	  0.086533062	-6.992000E+00	  0.086533062	1.120390E+02	  0.086533062	2.605500E+01	  0.086533062	2.699000E+01
334	  0.086733460	-7.017000E+00	  0.086733460	1.113980E+02	  0.086733460	2.628900E+01	  0.086733460	2.723300E+01
335	  0.086933866	-7.043000E+00	  0.086933866	1.107640E+02	  0.086933866	2.652300E+01	  0.086933866	2.747300E+01
336	  0.087134264	-7.068000E+00	  0.087134264	1.101050E+02	  0.087134264	2.676500E+01	  0.087134264	2.772500E+01
337	  0.087334670	-7.090000E+00	  0.087334670	1.094810E+02	  0.087334670	2.699400E+01	  0.087334670	2.796500E+01
338	  0.087535068	-7.113000E+00	  0.087535068	1.088520E+02	  0.087535068	2.722800E+01	  0.087535068	2.820400E+01
339	  0.087735467	-7.125000E+00	  0.087735467	1.082560E+02	  0.087735467	2.742600E+01	  0.087735467	2.844800E+01
340	  0.087935872	-7.144000E+00	  0.087935872	1.075950E+02	  0.087935872	2.766300E+01	  0.087935872	2.870900E+01
341	  0.088136271	-7.158000E+00	  0.088136271	1.069720E+02	  0.088136271	2.787900E+01	  0.088136271	2.896200E+01
342	  0.088336669	-7.167000E+00	  0.088336669	1.062980E+02	  0.088336669	2.809500E+01	  0.088336669	2.924700E+01
343	  0.088537075	-7.180000E+00	  0.088537075	1.056440E+02	  0.088537075	2.832300E+01	  0.088537075	2.951500E+01
344	  0.088737473	-7.188000E+00	  0.088737473	1.049370E+02	  0.088737473	2.855600E+01	  0.088737473	2.981700E+01
345	  0.088937871	-7.197000E+00	  0.088937871	1.042410E+02	  0.088937871	2.879200E+01	  0.088937871	3.011100E+01
346	  0.089138277	-7.212000E+00	  0.089138277	1.035420E+02	  0.089138277	2.905100E+01	  0.089138277	3.039500E+01
347	  0.089338675	-7.232000E+00	  0.089338675	1.028450E+02	  0.089338675	2.932500E+01	  0.089338675	3.066900E+01
348	  0.089539073	-7.247000E+00	  0.089539073	1.021220E+02	  0.089539073	2.960100E+01	  0.089539073	3.096200E+01
349	  0.089739479	-7.269000E+00	  0.089739479	1.014210E+02	  0.089739479	2.989100E+01	  0.089739479	3.123200E+01
350	  0.089939877	-7.288000E+00	  0.089939877	1.006960E+02	  0.089939877	3.018500E+01	  0.089939877	3.151900E+01
351	  0.090140276	-7.311000E+00	  0.090140276	9.996900E+01	  0.090140276	3.050000E+01	  0.090140276	3.179300E+01
352	  0.090340681	-7.337000E+00	  0.090340681	9.928100E+01	  0.090340681	3.081100E+01	  0.090340681	3.204600E+01
353	  0.090541080	-7.358000E+00	  0.090541080	9.858600E+01	  0.090541080	3.111500E+01	  0.090541080	3.231000E+01
354	  0.090741485	-7.387000E+00	  0.090741485	9.789900E+01	  0.090741485	3.144400E+01	  0.090741485	3.255100E+01
355	  0.090941884	-7.412000E+00	  0.090941884	9.721200E+01	  0.090941884	3.176600E+01	  0.090941884	3.279900E+01
356	  0.091142282	-7.449000E+00	  0.091142282	9.656500E+01	  0.091142282	3.211100E+01	  0.091142282	3.300000E+01
357	  0.091342688	-7.476000E+00	  0.091342688	9.588000E+01	  0.091342688	3.244700E+01	  0.091342688	3.323800E+01
358	  0.091543086	-7.504000E+00	  0.091543086	9.522100E+01	  0.091543086	3.277900E+01	  0.091543086	3.346100E+01
359	  0.091743484	-7.537000E+00	  0.091743484	9.455200E+01	  0.091743484	3.313500E+01	  0.091743484	3.367400E+01
360	  0.091943890	-7.564000E+00	  0.091943890	9.389300E+01	  0.091943890	3.347100E+01	  0.091943890	3.389600E+01
361	  0.092144288	-7.598000E+00	  0.092144288	9.325900E+01	  0.092144288	3.382500E+01	  0.092144288	3.408400E+01
362	  0.092344686	-7.628000E+00	  0.092344686	9.259400E+01	  0.092344686	3.418000E+01	  0.092344686	3.429700E+01
363	  0.092545092	-7.663000E+00	  0.092545092	9.200000E+01	  0.092545092	3.452500E+01	  0.092545092	3.446100E+01
364	  0.092745490	-7.692000E+00	  0.092745490	9.133400E+01	  0.092745490	3.489000E+01	  0.092745490	3.466800E+01
365	  0.092945889	-7.734000E+00	  0.092945889	9.077400E+01	  0.092945889	3.524500E+01	  0.092945889	3.479500E+01
366	  0.093146294	-7.761000E+00	  0.093146294	9.012900E+01	  0.093146294	3.560000E+01	  0.093146294	3.499500E+01
367	  0.093346693	-7.796000E+00	  0.093346693	8.957300E+01	  0.093346693	3.594300E+01	  0.093346693	3.513000E+01
368	  0.093547091	-7.830000E+00	  0.093547091	8.897300E+01	  0.093547091	3.630400E+01	  0.093547091	3.528700E+01
369	  0.093747497	-7.867000E+00	  0.093747497	8.835000E+01	  0.093747497	3.668800E+01	  0.093747497	3.543900E+01
370	  0.093947895	-7.898000E+00	  0.093947895	8.778000E+01	  0.093947895	3.703600E+01	  0.093947895	3.558300E+01
371	  0.094148301	-7.938000E+00	  0.094148301	8.718700E+01	  0.094148301	3.741900E+01	  0.094148301	3.571000E+01
372	  0.094348699	-7.973000E+00	  0.094348699	8.664400E+01	  0.094348699	3.776900E+01	  0.094348699	3.582600E+01
373	  0.094549097	-8.010000E+00	  0.094549097	8.610300E+01	  0.094549097	3.812800E+01	  0.094549097	3.593000E+01
374	  0.094749503	-8.042000E+00	  0.094749503	8.553100E+01	  0.094749503	3.848800E+01	  0.094749503	3.606100E+01
375	  0.094949901	-8.077000E+00	  0.094949901	8.499400E+01	  0.094949901	3.884300E+01	  0.094949901	3.616500E+01
376	  0.095150299	-8.114000E+00	  0.095150299	8.441300E+01	  0.095150299	3.922800E+01	  0.095150299	3.627600E+01
377	  0.095350705	-8.149000E+00	  0.095350705	8.386100E+01	  0.095350705	3.959500E+01	  0.095350705	3.637900E+01
378	  0.095551103	-8.186000E+00	  0.095551103	8.332000E+01	  0.095551103	3.996300E+01	  0.095551103	3.646800E+01
379	  0.095751502	-8.219000E+00	  0.095751502	8.277000E+01	  0.095751502	4.032800E+01	  0.095751502	3.657100E+01
380	  0.095951907	-8.256000E+00	  0.095951907	8.226700E+01	  0.095951907	4.068300E+01	  0.095951907	3.663700E+01
381	  0.096152306	-8.290000E+00	  0.096152306	8.174600E+01	  0.096152306	4.104100E+01	  0.096152306	3.671800E+01
382	  0.096352704	-8.327000E+00	  0.096352704	8.124800E+01	  0.096352704	4.139700E+01	  0.096352704	3.677500E+01
383	  0.096553110	-8.360000E+00	  0.096553110	8.075600E+01	  0.096553110	4.173800E+01	  0.096553110	3.684400E+01
384	  0.096753508	-8.392000E+00	  0.096753508	8.025800E+01	  0.096753508	4.208400E+01	  0.096753508	3.691200E+01
385	  0.096953906	-8.428000E+00	  0.096953906	7.975100E+01	  0.096953906	4.244900E+01	  0.096953906	3.696400E+01
386	  0.097154312	-8.463000E+00	  0.097154312	7.927100E+01	  0.097154312	4.279500E+01	  0.097154312	3.701100E+01
387	  0.097354710	-8.499000E+00	  0.097354710	7.877000E+01	  0.097354710	4.315700E+01	  0.097354710	3.705600E+01
388	  0.097555116	-8.532000E+00	  0.097555116	7.832500E+01	  0.097555116	4.348300E+01	  0.097555116	3.708800E+01
389	  0.097755514	-8.567000E+00	  0.097755514	7.786200E+01	  0.097755514	4.382400E+01	  0.097755514	3.711600E+01
390	  0.097955912	-8.596000E+00	  0.097955912	7.741900E+01	  0.097955912	4.414200E+01	  0.097955912	3.715700E+01
391	  0.098156318	-8.628000E+00	  0.098156318	7.700500E+01	  0.098156318	4.445000E+01	  0.098156318	3.717500E+01
392	  0.098356716	-8.660000E+00	  0.098356716	7.655200E+01	  0.098356716	4.478100E+01	  0.098356716	3.720500E+01
393	  0.098557115	-8.690000E+00	  0.098557115	7.614500E+01	  0.098557115	4.508300E+01	  0.098557115	3.722200E+01
394	  0.098757520	-8.718000E+00	  0.098757520	7.571800E+01	  0.098757520	4.539400E+01	  0.098757520	3.724800E+01
395	  0.098957919	-8.750000E+00	  0.098957919	7.527900E+01	  0.098957919	4.572100E+01	  0.098957919	3.726300E+01
396	  0.099158317	-8.775000E+00	  0.099158317	7.487800E+01	  0.099158317	4.601200E+01	  0.099158317	3.728800E+01
397	  0.099358723	-8.805000E+00	  0.099358723	7.446600E+01	  0.099358723	4.632000E+01	  0.099358723	3.729800E+01
398	  0.099559121	-8.830000E+00	  0.099559121	7.408600E+01	  0.099559121	4.660000E+01	  0.099559121	3.731100E+01
399	  0.099759519	-8.857000E+00	  0.099759519	7.369400E+01	  0.099759519	4.689200E+01	  0.099759519	3.732000E+01
400	  0.099959925	-8.880000E+00	  0.099959925	7.329900E+01	  0.099959925	4.717900E+01	  0.099959925	3.734200E+01
401	  0.100160323	-8.902000E+00	  0.100160323	7.298600E+01	  0.100160323	4.741300E+01	  0.100160323	3.734600E+01
402	  0.100360721	-8.927000E+00	  0.100360721	7.257800E+01	  0.100360721	4.771400E+01	  0.100360721	3.735700E+01
403	  0.100561127	-8.948000E+00	  0.100561127	7.220400E+01	  0.100561127	4.798500E+01	  0.100561127	3.737800E+01
404	  0.100761525	-8.967000E+00	  0.100761525	7.188200E+01	  0.100761525	4.822200E+01	  0.100761525	3.738900E+01
405	  0.100961931	-8.985000E+00	  0.100961931	7.154600E+01	  0.100961931	4.846600E+01	  0.100961931	3.740500E+01
406	  0.101162329	-9.003000E+00	  0.101162329	7.123000E+01	  0.101162329	4.870000E+01	  0.101162329	3.741300E+01
407	  0.101362728	-9.021000E+00	  0.101362728	7.082900E+01	  0.101362728	4.898600E+01	  0.101362728	3.744400E+01
408	  0.101563133	-9.047000E+00	  0.101563133	7.054200E+01	  0.101563133	4.921600E+01	  0.101563133	3.740600E+01
409	  0.101763532	-9.052000E+00	  0.101763532	7.018000E+01	  0.101763532	4.945700E+01	  0.101763532	3.748000E+01
410	  0.101963930	-9.067000E+00	  0.101963930	6.981000E+01	  0.101963930	4.972200E+01	  0.101963930	3.750800E+01
411	  0.102164328	-9.085000E+00	  0.102164328	6.949100E+01	  0.102164328	4.996000E+01	  0.102164328	3.751000E+01
412	  0.102364726	-9.099000E+00	  0.102364726	6.912700E+01	  0.102364726	5.022100E+01	  0.102364726	3.753900E+01
413	  0.102565125	-9.102000E+00	  0.102565125	6.877200E+01	  0.102565125	5.046100E+01	  0.102565125	3.761100E+01
414	  0.102765530	-9.115000E+00	  0.102765530	6.847600E+01	  0.102765530	5.067700E+01	  0.102765530	3.762400E+01
415	  0.102965929	-9.114000E+00	  0.102965929	6.808900E+01	  0.102965929	5.093400E+01	  0.102965929	3.772000E+01
416	  0.103166327	-9.123000E+00	  0.103166327	6.780100E+01	  0.103166327	5.114200E+01	  0.103166327	3.774400E+01
417	  0.103366733	-9.125000E+00	  0.103366733	6.747300E+01	  0.103366733	5.136600E+01	  0.103366733	3.781100E+01
418	  0.103567131	-9.123000E+00	  0.103567131	6.709500E+01	  0.103567131	5.162100E+01	  0.103567131	3.790500E+01
419	  0.103767529	-9.128000E+00	  0.103767529	6.675100E+01	  0.103767529	5.186400E+01	  0.103767529	3.795600E+01
420	  0.103967935	-9.131000E+00	  0.103967935	6.636700E+01	  0.103967935	5.213300E+01	  0.103967935	3.802500E+01
421	  0.104168333	-9.134000E+00	  0.104168333	6.606400E+01	  0.104168333	5.234600E+01	  0.104168333	3.808000E+01
422	  0.104368731	-9.134000E+00	  0.104368731	6.562500E+01	  0.104368731	5.265400E+01	  0.104368731	3.816800E+01
423	  0.104569137	-9.123000E+00	  0.104569137	6.530800E+01	  0.104569137	5.286200E+01	  0.104569137	3.828700E+01
424	  0.104769535	-9.120000E+00	  0.104769535	6.495900E+01	  0.104769535	5.310500E+01	  0.104769535	3.837100E+01
425	  0.104969934	-9.108000E+00	  0.104969934	6.455900E+01	  0.104969934	5.337600E+01	  0.104969934	3.850600E+01
426	  0.105170339	-9.101000E+00	  0.105170339	6.416600E+01	  0.105170339	5.364900E+01	  0.105170339	3.861900E+01
427	  0.105370738	-9.083000E+00	  0.105370738	6.374500E+01	  0.105370738	5.393300E+01	  0.105370738	3.878400E+01
428	  0.105571143	-9.072000E+00	  0.105571143	6.338900E+01	  0.105571143	5.417900E+01	  0.105571143	3.890700E+01
429	  0.105771542	-9.064000E+00	  0.105771542	6.290900E+01	  0.105771542	5.452500E+01	  0.105771542	3.903300E+01
430	  0.105971940	-9.046000E+00	  0.105971940	6.250300E+01	  0.105971940	5.480700E+01	  0.105971940	3.919500E+01
431	  0.106172346	-9.036000E+00	  0.106172346	6.210200E+01	  0.106172346	5.509700E+01	  0.106172346	3.931700E+01
432	  0.106372744	-9.025000E+00	  0.106372744	6.164000E+01	  0.106372744	5.543500E+01	  0.106372744	3.945000E+01
433	  0.106573142	-9.006000E+00	  0.106573142	6.115800E+01	  0.106573142	5.578300E+01	  0.106573142	3.963200E+01
434	  0.106773548	-8.987000E+00	  0.106773548	6.073000E+01	  0.106773548	5.609500E+01	  0.106773548	3.980100E+01
435	  0.106973946	-8.967000E+00	  0.106973946	6.023400E+01	  0.106973946	5.646300E+01	  0.106973946	3.998000E+01
436	  0.107174344	-8.946000E+00	  0.107174344	5.976600E+01	  0.107174344	5.681100E+01	  0.107174344	4.016600E+01
437	  0.107374750	-8.929000E+00	  0.107374750	5.927000E+01	  0.107374750	5.719100E+01	  0.107374750	4.033200E+01
438	  0.107575148	-8.900000E+00	  0.107575148	5.873800E+01	  0.107575148	5.759500E+01	  0.107575148	4.056300E+01
439	  0.107775547	-8.879000E+00	  0.107775547	5.822400E+01	  0.107775547	5.799600E+01	  0.107775547	4.074800E+01
440	  0.107975952	-8.854000E+00	  0.107975952	5.772200E+01	  0.107975952	5.839000E+01	  0.107975952	4.095800E+01
441	  0.108176351	-8.834000E+00	  0.108176351	5.720100E+01	  0.108176351	5.881100E+01	  0.108176351	4.113300E+01
442	  0.108376749	-8.814000E+00	  0.108376749	5.665700E+01	  0.108376749	5.925600E+01	  0.108376749	4.131300E+01
443	  0.108577155	-8.795000E+00	  0.108577155	5.610000E+01	  0.108577155	5.971900E+01	  0.108577155	4.149100E+01
444	  0.108777553	-8.777000E+00	  0.108777553	5.550200E+01	  0.108777553	6.022800E+01	  0.108777553	4.165600E+01
445	  0.108977959	-8.753000E+00	  0.108977959	5.493300E+01	  0.108977959	6.071300E+01	  0.108977959	4.185600E+01
446	  0.109178357	-8.732000E+00	  0.109178357	5.425100E+01	  0.109178357	6.130900E+01	  0.109178357	4.204400E+01
447	  0.109378755	-8.710000E+00	  0.109378755	5.365900E+01	  0.109378755	6.183300E+01	  0.109378755	4.222400E+01
448	  0.109579161	-8.694000E+00	  0.109579161	5.305000E+01	  0.109579161	6.238400E+01	  0.109579161	4.236500E+01
449	  0.109779559	-8.674000E+00	  0.109779559	5.239000E+01	  0.109779559	6.298800E+01	  0.109779559	4.253300E+01
450	  0.109979957	-8.656000E+00	  0.109979957	5.176100E+01	  0.109979957	6.357400E+01	  0.109979957	4.267600E+01
451	  0.110180363	-8.645000E+00	  0.110180363	5.107800E+01	  0.110180363	6.422100E+01	  0.110180363	4.277900E+01
452	  0.110380761	-8.628000E+00	  0.110380761	5.038100E+01	  0.110380761	6.489100E+01	  0.110380761	4.290300E+01
453	  0.110581160	-8.611000E+00	  0.110581160	4.967500E+01	  0.110581160	6.558000E+01	  0.110581160	4.302400E+01
454	  0.110781565	-8.596000E+00	  0.110781565	4.901200E+01	  0.110781565	6.623700E+01	  0.110781565	4.312300E+01
455	  0.110981964	-8.599000E+00	  0.110981964	4.827700E+01	  0.110981964	6.697400E+01	  0.110981964	4.309700E+01
456	  0.111182362	-8.584000E+00	  0.111182362	4.757400E+01	  0.111182362	6.768900E+01	  0.111182362	4.317300E+01
457	  0.111382768	-8.576000E+00	  0.111382768	4.686700E+01	  0.111382768	6.841700E+01	  0.111382768	4.319800E+01
458	  0.111583166	-8.567000E+00	  0.111583166	4.610000E+01	  0.111583166	6.921700E+01	  0.111583166	4.320900E+01
459	  0.111783572	-8.564000E+00	  0.111783572	4.537000E+01	  0.111783572	6.998400E+01	  0.111783572	4.316900E+01
460	  0.111983970	-8.564000E+00	  0.111983970	4.468900E+01	  0.111983970	7.070500E+01	  0.111983970	4.310000E+01
461	  0.112184368	-8.556000E+00	  0.112184368	4.385600E+01	  0.112184368	7.160300E+01	  0.112184368	4.304900E+01
462	  0.112384774	-8.552000E+00	  0.112384774	4.312400E+01	  0.112384774	7.239800E+01	  0.112384774	4.297100E+01
463	  0.112585172	-8.556000E+00	  0.112585172	4.233300E+01	  0.112585172	7.325600E+01	  0.112585172	4.281200E+01
464	  0.112785570	-8.560000E+00	  0.112785570	4.152000E+01	  0.112785570	7.414600E+01	  0.112785570	4.262700E+01
465	  0.112985976	-8.560000E+00	  0.112985976	4.075800E+01	  0.112985976	7.498800E+01	  0.112985976	4.245900E+01
466	  0.113186374	-8.560000E+00	  0.113186374	3.999100E+01	  0.113186374	7.584300E+01	  0.113186374	4.227200E+01
467	  0.113386773	-8.567000E+00	  0.113386773	3.915600E+01	  0.113386773	7.677000E+01	  0.113386773	4.199900E+01
468	  0.113587178	-8.572000E+00	  0.113587178	3.833500E+01	  0.113587178	7.768500E+01	  0.113587178	4.171200E+01
469	  0.113787577	-8.580000E+00	  0.113787577	3.753100E+01	  0.113787577	7.858000E+01	  0.113787577	4.139300E+01
470	  0.113987975	-8.588000E+00	  0.113987975	3.673400E+01	  0.113987975	7.946800E+01	  0.113987975	4.104800E+01
471	  0.114188381	-8.592000E+00	  0.114188381	3.587500E+01	  0.114188381	8.043700E+01	  0.114188381	4.068300E+01
472	  0.114388779	-8.603000E+00	  0.114388779	3.502500E+01	  0.114388779	8.137600E+01	  0.114388779	4.023900E+01
473	  0.114589177	-8.609000E+00	  0.114589177	3.421200E+01	  0.114589177	8.228900E+01	  0.114589177	3.982800E+01
474	  0.114789583	-8.623000E+00	  0.114789583	3.338600E+01	  0.114789583	8.319000E+01	  0.114789583	3.932500E+01
475	  0.114989981	-8.632000E+00	  0.114989981	3.254100E+01	  0.114989981	8.412300E+01	  0.114989981	3.881900E+01
476	  0.115190387	-8.643000E+00	  0.115190387	3.165300E+01	  0.115190387	8.509100E+01	  0.115190387	3.824000E+01
477	  0.115390785	-8.655000E+00	  0.115390785	3.072400E+01	  0.115390785	8.609700E+01	  0.115390785	3.760200E+01
478	  0.115591183	-8.666000E+00	  0.115591183	2.988900E+01	  0.115591183	8.699500E+01	  0.115591183	3.700000E+01
479	  0.115791589	-8.688000E+00	  0.115791589	2.894600E+01	  0.115791589	8.794900E+01	  0.115791589	3.620400E+01
480	  0.115991987	-8.694000E+00	  0.115991987	2.798900E+01	  0.115991987	8.898300E+01	  0.115991987	3.548900E+01
481	  0.116192386	-8.712000E+00	  0.116192386	2.709300E+01	  0.116192386	8.987400E+01	  0.116192386	3.469000E+01
482	  0.116392791	-8.730000E+00	  0.116392791	2.608100E+01	  0.116392791	9.087200E+01	  0.116392791	3.376600E+01
483	  0.116593190	-8.756000E+00	  0.116593190	2.514200E+01	  0.116593190	9.172900E+01	  0.116593190	3.280900E+01
484	  0.116793588	-8.779000E+00	  0.116793588	2.411600E+01	  0.116793588	9.266600E+01	  0.116793588	3.176800E+01
485	  0.116993994	-8.805000E+00	  0.116993994	2.314900E+01	  0.116993994	9.349300E+01	  0.116993994	3.071900E+01
486	  0.117194392	-8.835000E+00	  0.117194392	2.211300E+01	  0.117194392	9.432800E+01	  0.117194392	2.954200E+01
487	  0.117394790	-8.870000E+00	  0.117394790	2.105100E+01	  0.117394790	9.511700E+01	  0.117394790	2.827700E+01
488	  0.117595196	-8.906000E+00	  0.117595196	2.002000E+01	  0.117595196	9.582400E+01	  0.117595196	2.700600E+01
489	  0.117795594	-8.946000E+00	  0.117795594	1.891700E+01	  0.117795594	9.651900E+01	  0.117795594	2.560700E+01
490	  0.117995992	-8.980000E+00	  0.117995992	1.783000E+01	  0.117995992	9.718800E+01	  0.117995992	2.422800E+01
491	  0.118196398	-9.027000E+00	  0.118196398	1.670100E+01	  0.118196398	9.773900E+01	  0.118196398	2.270900E+01
492	  0.118396796	-9.079000E+00	  0.118396796	1.559800E+01	  0.118396796	9.817300E+01	  0.118396796	2.117900E+01
493	  0.118597202	-9.128000E+00	  0.118597202	1.442500E+01	  0.118597202	9.861700E+01	  0.118597202	1.957000E+01
494	  0.118797600	-9.177000E+00	  0.118797600	1.329100E+01	  0.118797600	9.895500E+01	  0.118797600	1.799000E+01
