! Anritsu VNA Master:             	Model: MS2036C/10/77
! SN:             	1601066
! /bd0/18may10/256.ew.m4.txt
! Existing Calibration Information:
! TYPE:             	Current Settings	Active Cal Settings
! TIME:             	05/10/2018 10:16:43 AM	05/10/2018 10:05:08 AM
! INTERNAL TEMP:    	46.8 C	45.0 C
! # POINTS:         	494	494
! START FREQ:       	20.000 MHz	20.000 MHz
! STOP FREQ:        	118.797 594 MHz	118.797 594 MHz
! SOURCE POWER:     	High	High
! IFBW:             	50 Hz	50 Hz
! AVG FACTOR:       	  1 	  1 
! REF PLANE 1:      	0 mm	0 mm
! REF PLANE 2:      	0 mm	0 mm
! CAL TYPE:         	Full S22	Full S22
! CAL METHOD:       	SOLT	SOLT
! CAL LINE TYPE:    	Coax	Coax
! DUT PORT 1:       	K-Conn(M)	K-Conn(M)
! DUT PORT 2:       	K-Conn(M)	K-Conn(M)
! CAL STATUS:       	OK: Accuracy High	--
! PROP-V:       	0.700
! CABLE LOSS:       	0.000 dB/m
! REF IMPEDANCE:       	50.0
! Trace Specific Parameters:	TR1	TR2	TR3	TR4
! TRACE.#.Y (GRAPH TYPE)	LOG MAG	PHASE	REAL IMPEDANCE	IMAGINARY IMPEDANCE
! TRACE.#.X 	FREQ.GHZ	FREQ.GHZ	FREQ.GHZ	FREQ.GHZ
! S-PARAMETER	S22	S22	S22	S22
! SMOOTH/APERTURE %	0	0	0	0
! WINDOW	NSL	NSL	NSL	NSL
! GATING	OFF	OFF	OFF	OFF
! FGTD	OFF	OFF	OFF	OFF
Marker Information per Trace:	TR1	TR2	TR3	TR4
!MK1	--	"MK1 TR2:  20.000 MHz,PH:-126.93°"	--	--
!MK2	--	--	"MK2 TR3:  70.100 200 MHz,Z:(16.399 ohm, -1.363 ohm)"	--
!MK3	--	--	--	--
!MK4	--	--	--	--
!MK5	--	--	--	--
!MK6	--	--	--	--
!MK7	--	--	--	--
!MK8	--	--	--	--
PNT	TR1.FREQ.GHZ	TR1.LOG MAG.dB	TR2.FREQ.GHZ	TR2.PHASE.deg	TR3.FREQ.GHZ	TR3.REAL IMPEDANCE.ohm	TR4.FREQ.GHZ	TR4.IMAGINARY IMPEDANCE.ohm
1	  0.020000000	-6.230000E-01	  0.020000000	-1.269320E+02	  0.020000000	2.241000E+00	  0.020000000	-2.492500E+01
2	  0.020200402	-6.270000E-01	  0.020200402	-1.283840E+02	  0.020200402	2.227000E+00	  0.020200402	-2.414000E+01
3	  0.020400802	-6.310000E-01	  0.020400802	-1.298550E+02	  0.020400802	2.214000E+00	  0.020400802	-2.335400E+01
4	  0.020601204	-6.350000E-01	  0.020601204	-1.313490E+02	  0.020601204	2.202000E+00	  0.020601204	-2.256600E+01
5	  0.020801604	-6.400000E-01	  0.020801604	-1.328720E+02	  0.020801604	2.192000E+00	  0.020801604	-2.177100E+01
6	  0.021002004	-6.420000E-01	  0.021002004	-1.344030E+02	  0.021002004	2.173000E+00	  0.021002004	-2.098200E+01
7	  0.021202406	-6.480000E-01	  0.021202406	-1.359410E+02	  0.021202406	2.170000E+00	  0.021202406	-2.019800E+01
8	  0.021402806	-6.510000E-01	  0.021402806	-1.374670E+02	  0.021402806	2.157000E+00	  0.021402806	-1.942800E+01
9	  0.021603208	-6.530000E-01	  0.021603208	-1.389840E+02	  0.021603208	2.143000E+00	  0.021603208	-1.867100E+01
10	  0.021803608	-6.580000E-01	  0.021803608	-1.405250E+02	  0.021803608	2.139000E+00	  0.021803608	-1.790900E+01
11	  0.022004008	-6.680000E-01	  0.022004008	-1.420580E+02	  0.022004008	2.149000E+00	  0.022004008	-1.715900E+01
12	  0.022204408	-6.740000E-01	  0.022204408	-1.436240E+02	  0.022204408	2.150000E+00	  0.022204408	-1.639900E+01
13	  0.022404809	-6.810000E-01	  0.022404809	-1.452280E+02	  0.022404809	2.152000E+00	  0.022404809	-1.562900E+01
14	  0.022605211	-6.870000E-01	  0.022605211	-1.468270E+02	  0.022605211	2.152000E+00	  0.022605211	-1.486700E+01
15	  0.022805611	-6.910000E-01	  0.022805611	-1.484290E+02	  0.022805611	2.148000E+00	  0.022805611	-1.411000E+01
16	  0.023006011	-6.980000E-01	  0.023006011	-1.500170E+02	  0.023006011	2.152000E+00	  0.023006011	-1.336500E+01
17	  0.023206413	-7.040000E-01	  0.023206413	-1.516260E+02	  0.023206413	2.156000E+00	  0.023206413	-1.261700E+01
18	  0.023406813	-7.100000E-01	  0.023406813	-1.532200E+02	  0.023406813	2.160000E+00	  0.023406813	-1.188100E+01
19	  0.023607215	-7.180000E-01	  0.023607215	-1.548320E+02	  0.023607215	2.170000E+00	  0.023607215	-1.114100E+01
20	  0.023807615	-7.290000E-01	  0.023807615	-1.564740E+02	  0.023807615	2.190000E+00	  0.023807615	-1.039200E+01
21	  0.024008015	-7.390000E-01	  0.024008015	-1.581150E+02	  0.024008015	2.206000E+00	  0.024008015	-9.648000E+00
22	  0.024208417	-7.470000E-01	  0.024208417	-1.597810E+02	  0.024208417	2.219000E+00	  0.024208417	-8.897000E+00
23	  0.024408817	-7.530000E-01	  0.024408817	-1.614540E+02	  0.024408817	2.225000E+00	  0.024408817	-8.147000E+00
24	  0.024609219	-7.630000E-01	  0.024609219	-1.631070E+02	  0.024609219	2.245000E+00	  0.024609219	-7.409000E+00
25	  0.024809619	-7.720000E-01	  0.024809619	-1.647800E+02	  0.024809619	2.262000E+00	  0.024809619	-6.666000E+00
26	  0.025010020	-7.830000E-01	  0.025010020	-1.664590E+02	  0.025010020	2.284000E+00	  0.025010020	-5.923000E+00
27	  0.025210422	-7.950000E-01	  0.025210422	-1.681510E+02	  0.025210422	2.313000E+00	  0.025210422	-5.177000E+00
28	  0.025410822	-8.070000E-01	  0.025410822	-1.698430E+02	  0.025410822	2.342000E+00	  0.025410822	-4.433000E+00
29	  0.025611224	-8.210000E-01	  0.025611224	-1.715580E+02	  0.025611224	2.374000E+00	  0.025611224	-3.681000E+00
30	  0.025811624	-8.330000E-01	  0.025811624	-1.732700E+02	  0.025811624	2.404000E+00	  0.025811624	-2.932000E+00
31	  0.026012026	-8.450000E-01	  0.026012026	-1.750110E+02	  0.026012026	2.436000E+00	  0.026012026	-2.173000E+00
32	  0.026212426	-8.590000E-01	  0.026212426	-1.767520E+02	  0.026212426	2.473000E+00	  0.026212426	-1.413000E+00
33	  0.026412826	-8.750000E-01	  0.026412826	-1.785110E+02	  0.026412826	2.517000E+00	  0.026412826	-6.480000E-01
34	  0.026613226	-8.910000E-01	  0.026613226	1.797390E+02	  0.026613226	2.563000E+00	  0.026613226	1.130000E-01
35	  0.026813626	-9.060000E-01	  0.026813626	1.779780E+02	  0.026813626	2.606000E+00	  0.026813626	8.790000E-01
36	  0.027014028	-9.240000E-01	  0.027014028	1.762000E+02	  0.027014028	2.660000E+00	  0.027014028	1.653000E+00
37	  0.027214428	-9.420000E-01	  0.027214428	1.744240E+02	  0.027214428	2.715000E+00	  0.027214428	2.427000E+00
38	  0.027414829	-9.600000E-01	  0.027414829	1.726460E+02	  0.027414829	2.771000E+00	  0.027414829	3.202000E+00
39	  0.027615231	-9.790000E-01	  0.027615231	1.708330E+02	  0.027615231	2.834000E+00	  0.027615231	3.995000E+00
40	  0.027815631	-1.000000E+00	  0.027815631	1.690270E+02	  0.027815631	2.902000E+00	  0.027815631	4.786000E+00
41	  0.028016033	-1.022000E+00	  0.028016033	1.672010E+02	  0.028016033	2.975000E+00	  0.028016033	5.587000E+00
42	  0.028216433	-1.043000E+00	  0.028216433	1.653650E+02	  0.028216433	3.050000E+00	  0.028216433	6.397000E+00
43	  0.028416833	-1.066000E+00	  0.028416833	1.635290E+02	  0.028416833	3.130000E+00	  0.028416833	7.208000E+00
44	  0.028617235	-1.090000E+00	  0.028617235	1.616930E+02	  0.028617235	3.215000E+00	  0.028617235	8.024000E+00
45	  0.028817635	-1.114000E+00	  0.028817635	1.598470E+02	  0.028817635	3.302000E+00	  0.028817635	8.847000E+00
46	  0.029018037	-1.139000E+00	  0.029018037	1.580070E+02	  0.029018037	3.397000E+00	  0.029018037	9.672000E+00
47	  0.029218437	-1.164000E+00	  0.029218437	1.561500E+02	  0.029218437	3.495000E+00	  0.029218437	1.050900E+01
48	  0.029418837	-1.193000E+00	  0.029418837	1.542790E+02	  0.029418837	3.608000E+00	  0.029418837	1.135800E+01
49	  0.029619239	-1.219000E+00	  0.029619239	1.523940E+02	  0.029619239	3.715000E+00	  0.029619239	1.221900E+01
50	  0.029819639	-1.248000E+00	  0.029819639	1.505070E+02	  0.029819639	3.834000E+00	  0.029819639	1.308700E+01
51	  0.030020041	-1.278000E+00	  0.030020041	1.486290E+02	  0.030020041	3.960000E+00	  0.030020041	1.395800E+01
52	  0.030220442	-1.306000E+00	  0.030220442	1.467410E+02	  0.030220442	4.085000E+00	  0.030220442	1.484100E+01
53	  0.030420844	-1.335000E+00	  0.030420844	1.448570E+02	  0.030420844	4.217000E+00	  0.030420844	1.573100E+01
54	  0.030621244	-1.368000E+00	  0.030621244	1.429700E+02	  0.030621244	4.367000E+00	  0.030621244	1.662900E+01
55	  0.030821642	-1.401000E+00	  0.030821642	1.410610E+02	  0.030821642	4.525000E+00	  0.030821642	1.754700E+01
56	  0.031022044	-1.434000E+00	  0.031022044	1.391450E+02	  0.031022044	4.687000E+00	  0.031022044	1.847700E+01
57	  0.031222444	-1.465000E+00	  0.031222444	1.372190E+02	  0.031222444	4.846000E+00	  0.031222444	1.942500E+01
58	  0.031422846	-1.499000E+00	  0.031422846	1.352550E+02	  0.031422846	5.029000E+00	  0.031422846	2.040200E+01
59	  0.031623244	-1.535000E+00	  0.031623244	1.332850E+02	  0.031623244	5.222000E+00	  0.031623244	2.139300E+01
60	  0.031823646	-1.569000E+00	  0.031823646	1.313190E+02	  0.031823646	5.416000E+00	  0.031823646	2.239700E+01
61	  0.032024048	-1.606000E+00	  0.032024048	1.293570E+02	  0.032024048	5.633000E+00	  0.032024048	2.341100E+01
62	  0.032224450	-1.644000E+00	  0.032224450	1.273620E+02	  0.032224450	5.861000E+00	  0.032224450	2.445800E+01
63	  0.032424849	-1.683000E+00	  0.032424849	1.253840E+02	  0.032424849	6.102000E+00	  0.032424849	2.551000E+01
64	  0.032625251	-1.721000E+00	  0.032625251	1.233740E+02	  0.032625251	6.355000E+00	  0.032625251	2.659800E+01
65	  0.032825653	-1.765000E+00	  0.032825653	1.213390E+02	  0.032825653	6.640000E+00	  0.032825653	2.771500E+01
66	  0.033026051	-1.804000E+00	  0.033026051	1.192930E+02	  0.033026051	6.923000E+00	  0.033026051	2.886000E+01
67	  0.033226453	-1.845000E+00	  0.033226453	1.172470E+02	  0.033226453	7.228000E+00	  0.033226453	3.002500E+01
68	  0.033426855	-1.886000E+00	  0.033426855	1.152060E+02	  0.033426855	7.552000E+00	  0.033426855	3.120800E+01
69	  0.033627257	-1.931000E+00	  0.033627257	1.131640E+02	  0.033627257	7.906000E+00	  0.033627257	3.241300E+01
70	  0.033827655	-1.977000E+00	  0.033827655	1.111240E+02	  0.033827655	8.281000E+00	  0.033827655	3.364000E+01
71	  0.034028057	-2.020000E+00	  0.034028057	1.090660E+02	  0.034028057	8.668000E+00	  0.034028057	3.490600E+01
72	  0.034228459	-2.066000E+00	  0.034228459	1.069790E+02	  0.034228459	9.094000E+00	  0.034228459	3.621500E+01
73	  0.034428857	-2.113000E+00	  0.034428857	1.048970E+02	  0.034428857	9.547000E+00	  0.034428857	3.754900E+01
74	  0.034629259	-2.159000E+00	  0.034629259	1.028100E+02	  0.034629259	1.002600E+01	  0.034629259	3.891600E+01
75	  0.034829661	-2.207000E+00	  0.034829661	1.007270E+02	  0.034829661	1.054100E+01	  0.034829661	4.031300E+01
76	  0.035030060	-2.256000E+00	  0.035030060	9.864600E+01	  0.035030060	1.109200E+01	  0.035030060	4.173900E+01
77	  0.035230462	-2.306000E+00	  0.035230462	9.654700E+01	  0.035230462	1.168500E+01	  0.035230462	4.321400E+01
78	  0.035430863	-2.356000E+00	  0.035430863	9.448700E+01	  0.035430863	1.231400E+01	  0.035430863	4.469300E+01
79	  0.035631265	-2.406000E+00	  0.035631265	9.239300E+01	  0.035631265	1.298700E+01	  0.035631265	4.623800E+01
80	  0.035831664	-2.456000E+00	  0.035831664	9.031100E+01	  0.035831664	1.370400E+01	  0.035831664	4.781400E+01
81	  0.036032066	-2.506000E+00	  0.036032066	8.822200E+01	  0.036032066	1.447200E+01	  0.036032066	4.943600E+01
82	  0.036232468	-2.556000E+00	  0.036232468	8.614700E+01	  0.036232468	1.529100E+01	  0.036232468	5.109000E+01
83	  0.036432866	-2.608000E+00	  0.036432866	8.404700E+01	  0.036432866	1.618600E+01	  0.036432866	5.280700E+01
84	  0.036633268	-2.662000E+00	  0.036633268	8.196500E+01	  0.036633268	1.715200E+01	  0.036633268	5.455000E+01
85	  0.036833670	-2.715000E+00	  0.036833670	7.988300E+01	  0.036833670	1.818600E+01	  0.036833670	5.634300E+01
86	  0.037034072	-2.771000E+00	  0.037034072	7.777500E+01	  0.037034072	1.932400E+01	  0.037034072	5.820200E+01
87	  0.037234470	-2.825000E+00	  0.037234470	7.569200E+01	  0.037234470	2.053000E+01	  0.037234470	6.009200E+01
88	  0.037434869	-2.879000E+00	  0.037434869	7.357900E+01	  0.037434869	2.184700E+01	  0.037434869	6.206200E+01
89	  0.037635271	-2.933000E+00	  0.037635271	7.148800E+01	  0.037635271	2.325400E+01	  0.037635271	6.406300E+01
90	  0.037835669	-2.988000E+00	  0.037835669	6.936100E+01	  0.037835669	2.480600E+01	  0.037835669	6.615300E+01
91	  0.038036071	-3.049000E+00	  0.038036071	6.724600E+01	  0.038036071	2.652400E+01	  0.038036071	6.825800E+01
92	  0.038236473	-3.107000E+00	  0.038236473	6.511800E+01	  0.038236473	2.837400E+01	  0.038236473	7.044000E+01
93	  0.038436871	-3.166000E+00	  0.038436871	6.300700E+01	  0.038436871	3.038300E+01	  0.038436871	7.264300E+01
94	  0.038637273	-3.225000E+00	  0.038637273	6.087600E+01	  0.038637273	3.257800E+01	  0.038637273	7.491600E+01
95	  0.038837675	-3.283000E+00	  0.038837675	5.876200E+01	  0.038837675	3.495100E+01	  0.038837675	7.720800E+01
96	  0.039038073	-3.337000E+00	  0.039038073	5.667600E+01	  0.039038073	3.747400E+01	  0.039038073	7.952500E+01
97	  0.039238475	-3.397000E+00	  0.039238475	5.456700E+01	  0.039238475	4.030100E+01	  0.039238475	8.185100E+01
98	  0.039438877	-3.453000E+00	  0.039438877	5.246600E+01	  0.039438877	4.333800E+01	  0.039438877	8.420800E+01
99	  0.039639279	-3.513000E+00	  0.039639279	5.033200E+01	  0.039639279	4.674500E+01	  0.039639279	8.656300E+01
100	  0.039839678	-3.570000E+00	  0.039839678	4.821600E+01	  0.039839678	5.040500E+01	  0.039839678	8.890000E+01
101	  0.040040080	-3.629000E+00	  0.040040080	4.607700E+01	  0.040040080	5.445700E+01	  0.040040080	9.120000E+01
102	  0.040240481	-3.681000E+00	  0.040240481	4.396600E+01	  0.040240481	5.877900E+01	  0.040240481	9.345300E+01
103	  0.040440880	-3.739000E+00	  0.040440880	4.183800E+01	  0.040440880	6.358300E+01	  0.040440880	9.554300E+01
104	  0.040641282	-3.794000E+00	  0.040641282	3.974100E+01	  0.040641282	6.872900E+01	  0.040641282	9.745300E+01
105	  0.040841684	-3.850000E+00	  0.040841684	3.765600E+01	  0.040841684	7.430200E+01	  0.040841684	9.910800E+01
106	  0.041042086	-3.906000E+00	  0.041042086	3.556800E+01	  0.041042086	8.034200E+01	  0.041042086	1.004830E+02
107	  0.041242484	-3.963000E+00	  0.041242484	3.348900E+01	  0.041242484	8.683600E+01	  0.041242484	1.014600E+02
108	  0.041442886	-4.017000E+00	  0.041442886	3.139100E+01	  0.041442886	9.386600E+01	  0.041442886	1.020290E+02
109	  0.041643288	-4.071000E+00	  0.041643288	2.931600E+01	  0.041643288	1.012860E+02	  0.041643288	1.020280E+02
110	  0.041843686	-4.125000E+00	  0.041843686	2.724500E+01	  0.041843686	1.091340E+02	  0.041843686	1.013470E+02
111	  0.042044088	-4.175000E+00	  0.042044088	2.519900E+01	  0.042044088	1.172640E+02	  0.042044088	9.996100E+01
112	  0.042244490	-4.222000E+00	  0.042244490	2.313600E+01	  0.042244490	1.257850E+02	  0.042244490	9.777200E+01
113	  0.042444889	-4.276000E+00	  0.042444889	2.112700E+01	  0.042444889	1.342370E+02	  0.042444889	9.442300E+01
114	  0.042645290	-4.327000E+00	  0.042645290	1.910100E+01	  0.042645290	1.427950E+02	  0.042645290	9.001500E+01
115	  0.042845692	-4.377000E+00	  0.042845692	1.708200E+01	  0.042845692	1.511860E+02	  0.042845692	8.450600E+01
116	  0.043046094	-4.426000E+00	  0.043046094	1.509300E+01	  0.043046094	1.590940E+02	  0.043046094	7.788100E+01
117	  0.043246493	-4.474000E+00	  0.043246493	1.307800E+01	  0.043246493	1.665450E+02	  0.043246493	7.002000E+01
118	  0.043446895	-4.520000E+00	  0.043446895	1.109700E+01	  0.043446895	1.731000E+02	  0.043446895	6.121700E+01
119	  0.043647297	-4.564000E+00	  0.043647297	9.113000E+00	  0.043647297	1.786830E+02	  0.043647297	5.145600E+01
120	  0.043847695	-4.611000E+00	  0.043847695	7.144000E+00	  0.043847695	1.828990E+02	  0.043847695	4.089100E+01
121	  0.044048097	-4.655000E+00	  0.044048097	5.169000E+00	  0.044048097	1.858750E+02	  0.044048097	2.979600E+01
122	  0.044248499	-4.702000E+00	  0.044248499	3.208000E+00	  0.044248499	1.872510E+02	  0.044248499	1.844500E+01
123	  0.044448901	-4.744000E+00	  0.044448901	1.256000E+00	  0.044448901	1.873190E+02	  0.044448901	7.160000E+00
124	  0.044649299	-4.788000E+00	  0.044649299	-6.890000E-01	  0.044649299	1.858670E+02	  0.044649299	-3.859000E+00
125	  0.044849701	-4.829000E+00	  0.044849701	-2.640000E+00	  0.044849701	1.832180E+02	  0.044849701	-1.442200E+01
126	  0.045050103	-4.871000E+00	  0.045050103	-4.598000E+00	  0.045050103	1.793830E+02	  0.045050103	-2.434600E+01
127	  0.045250501	-4.912000E+00	  0.045250501	-6.544000E+00	  0.045250501	1.745680E+02	  0.045250501	-3.337000E+01
128	  0.045450903	-4.954000E+00	  0.045450903	-8.478000E+00	  0.045450903	1.690000E+02	  0.045450903	-4.140400E+01
129	  0.045651305	-4.994000E+00	  0.045651305	-1.042100E+01	  0.045651305	1.628670E+02	  0.045651305	-4.851500E+01
130	  0.045851704	-5.031000E+00	  0.045851704	-1.233400E+01	  0.045851704	1.564940E+02	  0.045851704	-5.460500E+01
131	  0.046052102	-5.071000E+00	  0.046052102	-1.423500E+01	  0.046052102	1.498560E+02	  0.046052102	-5.966200E+01
132	  0.046252504	-5.112000E+00	  0.046252504	-1.611300E+01	  0.046252504	1.432190E+02	  0.046252504	-6.379000E+01
133	  0.046452906	-5.151000E+00	  0.046452906	-1.797200E+01	  0.046452906	1.366980E+02	  0.046452906	-6.711900E+01
134	  0.046653304	-5.189000E+00	  0.046653304	-1.981600E+01	  0.046653304	1.303370E+02	  0.046653304	-6.972600E+01
135	  0.046853706	-5.220000E+00	  0.046853706	-2.166700E+01	  0.046853706	1.242080E+02	  0.046853706	-7.189900E+01
136	  0.047054108	-5.245000E+00	  0.047054108	-2.351000E+01	  0.047054108	1.183300E+02	  0.047054108	-7.360400E+01
137	  0.047254506	-5.270000E+00	  0.047254506	-2.536200E+01	  0.047254506	1.126340E+02	  0.047254506	-7.483600E+01
138	  0.047454908	-5.293000E+00	  0.047454908	-2.721600E+01	  0.047454908	1.071780E+02	  0.047454908	-7.566300E+01
139	  0.047655310	-5.313000E+00	  0.047655310	-2.905800E+01	  0.047655310	1.020080E+02	  0.047655310	-7.614600E+01
140	  0.047855709	-5.335000E+00	  0.047855709	-3.089700E+01	  0.047855709	9.709700E+01	  0.047855709	-7.627800E+01
141	  0.048056111	-5.362000E+00	  0.048056111	-3.273600E+01	  0.048056111	9.244200E+01	  0.048056111	-7.605000E+01
142	  0.048256513	-5.381000E+00	  0.048256513	-3.454900E+01	  0.048256513	8.811100E+01	  0.048256513	-7.570600E+01
143	  0.048456915	-5.407000E+00	  0.048456915	-3.637600E+01	  0.048456915	8.399500E+01	  0.048456915	-7.507800E+01
144	  0.048657313	-5.424000E+00	  0.048657313	-3.818000E+01	  0.048657313	8.016000E+01	  0.048657313	-7.440300E+01
145	  0.048857715	-5.445000E+00	  0.048857715	-3.999400E+01	  0.048857715	7.653500E+01	  0.048857715	-7.354500E+01
146	  0.049058117	-5.466000E+00	  0.049058117	-4.177500E+01	  0.049058117	7.318800E+01	  0.049058117	-7.258400E+01
147	  0.049258515	-5.486000E+00	  0.049258515	-4.353800E+01	  0.049258515	7.006900E+01	  0.049258515	-7.156500E+01
148	  0.049458917	-5.506000E+00	  0.049458917	-4.527800E+01	  0.049458917	6.717700E+01	  0.049458917	-7.047100E+01
149	  0.049659319	-5.529000E+00	  0.049659319	-4.700300E+01	  0.049659319	6.448800E+01	  0.049659319	-6.930800E+01
150	  0.049859721	-5.548000E+00	  0.049859721	-4.871500E+01	  0.049859721	6.196100E+01	  0.049859721	-6.815100E+01
151	  0.050060119	-5.569000E+00	  0.050060119	-5.041600E+01	  0.050060119	5.960300E+01	  0.050060119	-6.695800E+01
152	  0.050260521	-5.586000E+00	  0.050260521	-5.211100E+01	  0.050260521	5.737500E+01	  0.050260521	-6.577500E+01
153	  0.050460923	-5.604000E+00	  0.050460923	-5.380000E+01	  0.050460923	5.528700E+01	  0.050460923	-6.456600E+01
154	  0.050661322	-5.623000E+00	  0.050661322	-5.548100E+01	  0.050661322	5.332600E+01	  0.050661322	-6.335100E+01
155	  0.050861724	-5.640000E+00	  0.050861724	-5.713000E+01	  0.050861724	5.150900E+01	  0.050861724	-6.215300E+01
156	  0.051062126	-5.659000E+00	  0.051062126	-5.877200E+01	  0.051062126	4.979900E+01	  0.051062126	-6.095600E+01
157	  0.051262524	-5.677000E+00	  0.051262524	-6.041000E+01	  0.051262524	4.819000E+01	  0.051262524	-5.975700E+01
158	  0.051462926	-5.694000E+00	  0.051462926	-6.203900E+01	  0.051462926	4.666800E+01	  0.051462926	-5.858000E+01
159	  0.051663328	-5.711000E+00	  0.051663328	-6.364900E+01	  0.051663328	4.524300E+01	  0.051663328	-5.742300E+01
160	  0.051863730	-5.731000E+00	  0.051863730	-6.525300E+01	  0.051863730	4.390700E+01	  0.051863730	-5.626200E+01
161	  0.052064128	-5.743000E+00	  0.052064128	-6.685400E+01	  0.052064128	4.261500E+01	  0.052064128	-5.514800E+01
162	  0.052264530	-5.754000E+00	  0.052264530	-6.845500E+01	  0.052264530	4.137900E+01	  0.052264530	-5.405300E+01
163	  0.052464932	-5.770000E+00	  0.052464932	-7.002400E+01	  0.052464932	4.025300E+01	  0.052464932	-5.295800E+01
164	  0.052665330	-5.786000E+00	  0.052665330	-7.158900E+01	  0.052665330	3.918100E+01	  0.052665330	-5.188100E+01
165	  0.052865732	-5.799000E+00	  0.052865732	-7.314600E+01	  0.052865732	3.815700E+01	  0.052865732	-5.083100E+01
166	  0.053066134	-5.814000E+00	  0.053066134	-7.467600E+01	  0.053066134	3.720800E+01	  0.053066134	-4.980000E+01
167	  0.053266536	-5.830000E+00	  0.053266536	-7.620700E+01	  0.053266536	3.630300E+01	  0.053266536	-4.878000E+01
168	  0.053466935	-5.843000E+00	  0.053466935	-7.775900E+01	  0.053466935	3.542000E+01	  0.053466935	-4.776700E+01
169	  0.053667337	-5.857000E+00	  0.053667337	-7.928400E+01	  0.053667337	3.459400E+01	  0.053667337	-4.678000E+01
170	  0.053867739	-5.866000E+00	  0.053867739	-8.078700E+01	  0.053867739	3.379900E+01	  0.053867739	-4.583600E+01
171	  0.054068137	-5.875000E+00	  0.054068137	-8.230000E+01	  0.054068137	3.303700E+01	  0.054068137	-4.489300E+01
172	  0.054268539	-5.887000E+00	  0.054268539	-8.379300E+01	  0.054268539	3.232700E+01	  0.054268539	-4.396700E+01
173	  0.054468941	-5.899000E+00	  0.054468941	-8.526900E+01	  0.054468941	3.165700E+01	  0.054468941	-4.305900E+01
174	  0.054669335	-5.908000E+00	  0.054669335	-8.675000E+01	  0.054669335	3.099800E+01	  0.054669335	-4.217200E+01
175	  0.054869737	-5.917000E+00	  0.054869737	-8.820200E+01	  0.054869737	3.038500E+01	  0.054869737	-4.130800E+01
176	  0.055070139	-5.928000E+00	  0.055070139	-8.964900E+01	  0.055070139	2.980600E+01	  0.055070139	-4.045100E+01
177	  0.055270538	-5.933000E+00	  0.055270538	-9.109800E+01	  0.055270538	2.922700E+01	  0.055270538	-3.962000E+01
178	  0.055470940	-5.942000E+00	  0.055470940	-9.252800E+01	  0.055470940	2.869000E+01	  0.055470940	-3.880000E+01
179	  0.055671342	-5.945000E+00	  0.055671342	-9.395000E+01	  0.055671342	2.816000E+01	  0.055671342	-3.800700E+01
180	  0.055871744	-5.951000E+00	  0.055871744	-9.536000E+01	  0.055871744	2.766500E+01	  0.055871744	-3.722000E+01
181	  0.056072142	-5.957000E+00	  0.056072142	-9.675700E+01	  0.056072142	2.719300E+01	  0.056072142	-3.644900E+01
182	  0.056272544	-5.963000E+00	  0.056272544	-9.814200E+01	  0.056272544	2.674500E+01	  0.056272544	-3.569200E+01
183	  0.056472946	-5.966000E+00	  0.056472946	-9.950300E+01	  0.056472946	2.631000E+01	  0.056472946	-3.496300E+01
184	  0.056673344	-5.971000E+00	  0.056673344	-1.008490E+02	  0.056673344	2.590500E+01	  0.056673344	-3.424200E+01
185	  0.056873746	-5.976000E+00	  0.056873746	-1.022030E+02	  0.056873746	2.550900E+01	  0.056873746	-3.352800E+01
186	  0.057074148	-5.978000E+00	  0.057074148	-1.035660E+02	  0.057074148	2.511600E+01	  0.057074148	-3.282000E+01
187	  0.057274550	-5.981000E+00	  0.057274550	-1.049080E+02	  0.057274550	2.474900E+01	  0.057274550	-3.212700E+01
188	  0.057474948	-5.986000E+00	  0.057474948	-1.062430E+02	  0.057474948	2.440000E+01	  0.057474948	-3.144100E+01
189	  0.057675350	-5.990000E+00	  0.057675350	-1.075470E+02	  0.057675350	2.407000E+01	  0.057675350	-3.077900E+01
190	  0.057875752	-5.998000E+00	  0.057875752	-1.088500E+02	  0.057875752	2.376500E+01	  0.057875752	-3.011600E+01
191	  0.058076151	-6.001000E+00	  0.058076151	-1.101430E+02	  0.058076151	2.345800E+01	  0.058076151	-2.947200E+01
192	  0.058276553	-6.003000E+00	  0.058276553	-1.114150E+02	  0.058276553	2.316300E+01	  0.058276553	-2.884500E+01
193	  0.058476955	-6.008000E+00	  0.058476955	-1.126720E+02	  0.058476955	2.289000E+01	  0.058476955	-2.822800E+01
194	  0.058677353	-6.012000E+00	  0.058677353	-1.139610E+02	  0.058677353	2.261700E+01	  0.058677353	-2.760000E+01
195	  0.058877755	-6.018000E+00	  0.058877755	-1.152260E+02	  0.058877755	2.236600E+01	  0.058877755	-2.698700E+01
196	  0.059078157	-6.019000E+00	  0.059078157	-1.164640E+02	  0.059078157	2.211300E+01	  0.059078157	-2.639800E+01
197	  0.059278559	-6.026000E+00	  0.059278559	-1.177170E+02	  0.059278559	2.188100E+01	  0.059278559	-2.580000E+01
198	  0.059478957	-6.031000E+00	  0.059478957	-1.189490E+02	  0.059478957	2.165800E+01	  0.059478957	-2.521800E+01
199	  0.059679359	-6.038000E+00	  0.059679359	-1.201870E+02	  0.059679359	2.144700E+01	  0.059679359	-2.463500E+01
200	  0.059879761	-6.042000E+00	  0.059879761	-1.214060E+02	  0.059879761	2.124000E+01	  0.059879761	-2.406800E+01
201	  0.060080159	-6.047000E+00	  0.060080159	-1.226030E+02	  0.060080159	2.104500E+01	  0.060080159	-2.351500E+01
202	  0.060280561	-6.055000E+00	  0.060280561	-1.238140E+02	  0.060280561	2.086300E+01	  0.060280561	-2.295600E+01
203	  0.060480963	-6.063000E+00	  0.060480963	-1.250080E+02	  0.060480963	2.068900E+01	  0.060480963	-2.241000E+01
204	  0.060681365	-6.067000E+00	  0.060681365	-1.261830E+02	  0.060681365	2.051500E+01	  0.060681365	-2.187900E+01
205	  0.060881764	-6.070000E+00	  0.060881764	-1.273850E+02	  0.060881764	2.033800E+01	  0.060881764	-2.134100E+01
206	  0.061082166	-6.081000E+00	  0.061082166	-1.285820E+02	  0.061082166	2.019100E+01	  0.061082166	-2.080100E+01
207	  0.061282568	-6.085000E+00	  0.061282568	-1.297580E+02	  0.061282568	2.003300E+01	  0.061282568	-2.028100E+01
208	  0.061482966	-6.087000E+00	  0.061482966	-1.309260E+02	  0.061482966	1.987500E+01	  0.061482966	-1.976900E+01
209	  0.061683368	-6.090000E+00	  0.061683368	-1.321030E+02	  0.061683368	1.972600E+01	  0.061683368	-1.925500E+01
210	  0.061883770	-6.096000E+00	  0.061883770	-1.332240E+02	  0.061883770	1.959600E+01	  0.061883770	-1.876600E+01
211	  0.062084168	-6.096000E+00	  0.062084168	-1.343650E+02	  0.062084168	1.945300E+01	  0.062084168	-1.827600E+01
212	  0.062284570	-6.097000E+00	  0.062284570	-1.355230E+02	  0.062284570	1.931600E+01	  0.062284570	-1.777900E+01
213	  0.062484972	-6.096000E+00	  0.062484972	-1.366040E+02	  0.062484972	1.918400E+01	  0.062484972	-1.732000E+01
214	  0.062685370	-6.096000E+00	  0.062685370	-1.377320E+02	  0.062685370	1.905600E+01	  0.062685370	-1.684300E+01
215	  0.062885776	-6.094000E+00	  0.062885776	-1.388420E+02	  0.062885776	1.892700E+01	  0.062885776	-1.637700E+01
216	  0.063086174	-6.094000E+00	  0.063086174	-1.399700E+02	  0.063086174	1.880700E+01	  0.063086174	-1.590300E+01
217	  0.063286573	-6.090000E+00	  0.063286573	-1.410490E+02	  0.063286573	1.868600E+01	  0.063286573	-1.545500E+01
218	  0.063486971	-6.089000E+00	  0.063486971	-1.421220E+02	  0.063486971	1.857600E+01	  0.063486971	-1.500900E+01
219	  0.063687377	-6.083000E+00	  0.063687377	-1.431840E+02	  0.063687377	1.845900E+01	  0.063687377	-1.457200E+01
220	  0.063887775	-6.077000E+00	  0.063887775	-1.442350E+02	  0.063887775	1.834600E+01	  0.063887775	-1.414200E+01
221	  0.064088173	-6.074000E+00	  0.064088173	-1.453270E+02	  0.064088173	1.824000E+01	  0.064088173	-1.369400E+01
222	  0.064288579	-6.068000E+00	  0.064288579	-1.464200E+02	  0.064288579	1.813100E+01	  0.064288579	-1.324800E+01
223	  0.064488977	-6.060000E+00	  0.064488977	-1.474820E+02	  0.064488977	1.802300E+01	  0.064488977	-1.281900E+01
224	  0.064689375	-6.053000E+00	  0.064689375	-1.485410E+02	  0.064689375	1.792000E+01	  0.064689375	-1.239000E+01
225	  0.064889781	-6.044000E+00	  0.064889781	-1.495820E+02	  0.064889781	1.781500E+01	  0.064889781	-1.197200E+01
226	  0.065090179	-6.034000E+00	  0.065090179	-1.506220E+02	  0.065090179	1.771400E+01	  0.065090179	-1.155500E+01
227	  0.065290578	-6.027000E+00	  0.065290578	-1.516750E+02	  0.065290578	1.762200E+01	  0.065290578	-1.113300E+01
228	  0.065490983	-6.019000E+00	  0.065490983	-1.527000E+02	  0.065490983	1.753000E+01	  0.065490983	-1.072300E+01
229	  0.065691382	-6.009000E+00	  0.065691382	-1.537680E+02	  0.065691382	1.743500E+01	  0.065691382	-1.029700E+01
230	  0.065891780	-6.001000E+00	  0.065891780	-1.547850E+02	  0.065891780	1.735200E+01	  0.065891780	-9.893000E+00
231	  0.066092186	-5.995000E+00	  0.066092186	-1.558390E+02	  0.066092186	1.727400E+01	  0.066092186	-9.473000E+00
232	  0.066292584	-5.986000E+00	  0.066292584	-1.568820E+02	  0.066292584	1.719400E+01	  0.066292584	-9.059000E+00
233	  0.066492982	-5.979000E+00	  0.066492982	-1.579250E+02	  0.066492982	1.712000E+01	  0.066492982	-8.646000E+00
234	  0.066693388	-5.971000E+00	  0.066693388	-1.589900E+02	  0.066693388	1.704600E+01	  0.066693388	-8.225000E+00
235	  0.066893786	-5.965000E+00	  0.066893786	-1.600020E+02	  0.066893786	1.698000E+01	  0.066893786	-7.825000E+00
236	  0.067094192	-5.956000E+00	  0.067094192	-1.610450E+02	  0.067094192	1.691100E+01	  0.067094192	-7.415000E+00
237	  0.067294590	-5.951000E+00	  0.067294590	-1.620780E+02	  0.067294590	1.685300E+01	  0.067294590	-7.007000E+00
238	  0.067494988	-5.948000E+00	  0.067494988	-1.631060E+02	  0.067494988	1.680400E+01	  0.067494988	-6.602000E+00
239	  0.067695394	-5.941000E+00	  0.067695394	-1.641590E+02	  0.067695394	1.674700E+01	  0.067695394	-6.188000E+00
240	  0.067895792	-5.937000E+00	  0.067895792	-1.651800E+02	  0.067895792	1.670200E+01	  0.067895792	-5.787000E+00
241	  0.068096191	-5.933000E+00	  0.068096191	-1.662350E+02	  0.068096191	1.665700E+01	  0.068096191	-5.373000E+00
242	  0.068296596	-5.932000E+00	  0.068296596	-1.672620E+02	  0.068296596	1.662200E+01	  0.068296596	-4.970000E+00
243	  0.068496995	-5.929000E+00	  0.068496995	-1.682790E+02	  0.068496995	1.658600E+01	  0.068496995	-4.572000E+00
244	  0.068697393	-5.925000E+00	  0.068697393	-1.693150E+02	  0.068697393	1.655000E+01	  0.068697393	-4.167000E+00
245	  0.068897791	-5.920000E+00	  0.068897791	-1.703660E+02	  0.068897791	1.651300E+01	  0.068897791	-3.756000E+00
246	  0.069098189	-5.916000E+00	  0.069098189	-1.713700E+02	  0.069098189	1.648400E+01	  0.069098189	-3.364000E+00
247	  0.069298595	-5.916000E+00	  0.069298595	-1.724010E+02	  0.069298595	1.646400E+01	  0.069298595	-2.961000E+00
248	  0.069498993	-5.910000E+00	  0.069498993	-1.734400E+02	  0.069498993	1.643200E+01	  0.069498993	-2.556000E+00
249	  0.069699399	-5.912000E+00	  0.069699399	-1.744860E+02	  0.069699399	1.642200E+01	  0.069699399	-2.148000E+00
250	  0.069899797	-5.912000E+00	  0.069899797	-1.755120E+02	  0.069899797	1.641000E+01	  0.069899797	-1.748000E+00
251	  0.070100196	-5.910000E+00	  0.070100196	-1.765010E+02	  0.070100196	1.639800E+01	  0.070100196	-1.363000E+00
252	  0.070300601	-5.905000E+00	  0.070300601	-1.775230E+02	  0.070300601	1.637800E+01	  0.070300601	-9.640000E-01
253	  0.070501000	-5.905000E+00	  0.070501000	-1.785260E+02	  0.070501000	1.637200E+01	  0.070501000	-5.740000E-01
254	  0.070701398	-5.900000E+00	  0.070701398	-1.795340E+02	  0.070701398	1.635800E+01	  0.070701398	-1.810000E-01
255	  0.070901804	-5.900000E+00	  0.070901804	1.794630E+02	  0.070901804	1.635900E+01	  0.070901804	2.080000E-01
256	  0.071102202	-5.900000E+00	  0.071102202	1.784690E+02	  0.071102202	1.636000E+01	  0.071102202	5.960000E-01
257	  0.071302600	-5.900000E+00	  0.071302600	1.774690E+02	  0.071302600	1.636400E+01	  0.071302600	9.860000E-01
258	  0.071503006	-5.902000E+00	  0.071503006	1.764640E+02	  0.071503006	1.637600E+01	  0.071503006	1.377000E+00
259	  0.071703404	-5.904000E+00	  0.071703404	1.755000E+02	  0.071703404	1.639000E+01	  0.071703404	1.753000E+00
260	  0.071903802	-5.899000E+00	  0.071903802	1.745180E+02	  0.071903802	1.638900E+01	  0.071903802	2.137000E+00
261	  0.072104208	-5.904000E+00	  0.072104208	1.735540E+02	  0.072104208	1.641500E+01	  0.072104208	2.512000E+00
262	  0.072304606	-5.901000E+00	  0.072304606	1.725870E+02	  0.072304606	1.642300E+01	  0.072304606	2.890000E+00
263	  0.072505005	-5.902000E+00	  0.072505005	1.716100E+02	  0.072505005	1.644300E+01	  0.072505005	3.272000E+00
264	  0.072705410	-5.907000E+00	  0.072705410	1.706720E+02	  0.072705410	1.647300E+01	  0.072705410	3.638000E+00
265	  0.072905809	-5.907000E+00	  0.072905809	1.697030E+02	  0.072905809	1.649400E+01	  0.072905809	4.017000E+00
266	  0.073106214	-5.909000E+00	  0.073106214	1.687640E+02	  0.073106214	1.652400E+01	  0.073106214	4.385000E+00
267	  0.073306613	-5.915000E+00	  0.073306613	1.678210E+02	  0.073306613	1.656200E+01	  0.073306613	4.754000E+00
268	  0.073507011	-5.916000E+00	  0.073507011	1.668720E+02	  0.073507011	1.659300E+01	  0.073507011	5.127000E+00
269	  0.073707417	-5.924000E+00	  0.073707417	1.659370E+02	  0.073707417	1.664200E+01	  0.073707417	5.492000E+00
270	  0.073907815	-5.927000E+00	  0.073907815	1.650060E+02	  0.073907815	1.668100E+01	  0.073907815	5.858000E+00
271	  0.074108213	-5.928000E+00	  0.074108213	1.640960E+02	  0.074108213	1.671400E+01	  0.074108213	6.216000E+00
272	  0.074308619	-5.933000E+00	  0.074308619	1.631680E+02	  0.074308619	1.676200E+01	  0.074308619	6.581000E+00
273	  0.074509017	-5.939000E+00	  0.074509017	1.622360E+02	  0.074509017	1.681500E+01	  0.074509017	6.948000E+00
274	  0.074709415	-5.946000E+00	  0.074709415	1.613210E+02	  0.074709415	1.687100E+01	  0.074709415	7.308000E+00
275	  0.074909821	-5.953000E+00	  0.074909821	1.604040E+02	  0.074909821	1.693000E+01	  0.074909821	7.669000E+00
276	  0.075110219	-5.960000E+00	  0.075110219	1.594880E+02	  0.075110219	1.699300E+01	  0.075110219	8.031000E+00
277	  0.075310618	-5.964000E+00	  0.075310618	1.585640E+02	  0.075310618	1.704800E+01	  0.075310618	8.397000E+00
278	  0.075511023	-5.973000E+00	  0.075511023	1.576630E+02	  0.075511023	1.711800E+01	  0.075511023	8.752000E+00
279	  0.075711422	-5.982000E+00	  0.075711422	1.567580E+02	  0.075711422	1.719100E+01	  0.075711422	9.110000E+00
280	  0.075911827	-5.994000E+00	  0.075911827	1.558610E+02	  0.075911827	1.727000E+01	  0.075911827	9.465000E+00
281	  0.076112226	-6.004000E+00	  0.076112226	1.549520E+02	  0.076112226	1.735100E+01	  0.076112226	9.825000E+00
282	  0.076312624	-6.016000E+00	  0.076312624	1.540360E+02	  0.076312624	1.743900E+01	  0.076312624	1.018700E+01
283	  0.076513030	-6.023000E+00	  0.076513030	1.531380E+02	  0.076513030	1.751300E+01	  0.076513030	1.054500E+01
284	  0.076713428	-6.036000E+00	  0.076713428	1.522130E+02	  0.076713428	1.760800E+01	  0.076713428	1.091200E+01
285	  0.076913826	-6.048000E+00	  0.076913826	1.513360E+02	  0.076913826	1.770000E+01	  0.076913826	1.126000E+01
286	  0.077114232	-6.061000E+00	  0.077114232	1.504490E+02	  0.077114232	1.779700E+01	  0.077114232	1.161200E+01
287	  0.077314630	-6.072000E+00	  0.077314630	1.495630E+02	  0.077314630	1.789200E+01	  0.077314630	1.196600E+01
288	  0.077515028	-6.087000E+00	  0.077515028	1.486710E+02	  0.077515028	1.800100E+01	  0.077515028	1.232000E+01
289	  0.077715434	-6.101000E+00	  0.077715434	1.477650E+02	  0.077715434	1.810800E+01	  0.077715434	1.268200E+01
290	  0.077915832	-6.116000E+00	  0.077915832	1.468910E+02	  0.077915832	1.822100E+01	  0.077915832	1.303000E+01
291	  0.078116231	-6.128000E+00	  0.078116231	1.459840E+02	  0.078116231	1.832900E+01	  0.078116231	1.339400E+01
292	  0.078316636	-6.140000E+00	  0.078316636	1.450740E+02	  0.078316636	1.844300E+01	  0.078316636	1.375900E+01
293	  0.078517035	-6.153000E+00	  0.078517035	1.441850E+02	  0.078517035	1.855600E+01	  0.078517035	1.411700E+01
294	  0.078717433	-6.169000E+00	  0.078717433	1.433010E+02	  0.078717433	1.868200E+01	  0.078717433	1.447100E+01
295	  0.078917839	-6.187000E+00	  0.078917839	1.424250E+02	  0.078917839	1.881500E+01	  0.078917839	1.482000E+01
296	  0.079118237	-6.197000E+00	  0.079118237	1.415350E+02	  0.079118237	1.893200E+01	  0.079118237	1.518200E+01
297	  0.079318643	-6.212000E+00	  0.079318643	1.406770E+02	  0.079318643	1.905800E+01	  0.079318643	1.552800E+01
298	  0.079519041	-6.230000E+00	  0.079519041	1.398260E+02	  0.079519041	1.919800E+01	  0.079519041	1.586900E+01
299	  0.079719439	-6.245000E+00	  0.079719439	1.389390E+02	  0.079719439	1.933400E+01	  0.079719439	1.622700E+01
300	  0.079919845	-6.257000E+00	  0.079919845	1.380610E+02	  0.079919845	1.946500E+01	  0.079919845	1.658500E+01
301	  0.080120243	-6.273000E+00	  0.080120243	1.371800E+02	  0.080120243	1.961000E+01	  0.080120243	1.694200E+01
302	  0.080320641	-6.288000E+00	  0.080320641	1.363310E+02	  0.080320641	1.975200E+01	  0.080320641	1.728700E+01
303	  0.080521047	-6.308000E+00	  0.080521047	1.354880E+02	  0.080521047	1.991000E+01	  0.080521047	1.762600E+01
304	  0.080721445	-6.322000E+00	  0.080721445	1.346380E+02	  0.080721445	2.005300E+01	  0.080721445	1.797300E+01
305	  0.080921844	-6.338000E+00	  0.080921844	1.338200E+02	  0.080921844	2.020100E+01	  0.080921844	1.830600E+01
306	  0.081122249	-6.357000E+00	  0.081122249	1.329850E+02	  0.081122249	2.036400E+01	  0.081122249	1.864400E+01
307	  0.081322648	-6.374000E+00	  0.081322648	1.321360E+02	  0.081322648	2.052700E+01	  0.081322648	1.898900E+01
308	  0.081523046	-6.388000E+00	  0.081523046	1.313170E+02	  0.081523046	2.067900E+01	  0.081523046	1.932500E+01
309	  0.081723452	-6.405000E+00	  0.081723452	1.304840E+02	  0.081723452	2.084300E+01	  0.081723452	1.966600E+01
310	  0.081923850	-6.423000E+00	  0.081923850	1.297110E+02	  0.081923850	2.100600E+01	  0.081923850	1.998000E+01
311	  0.082124248	-6.441000E+00	  0.082124248	1.288830E+02	  0.082124248	2.118200E+01	  0.082124248	2.031800E+01
312	  0.082324654	-6.460000E+00	  0.082324654	1.280930E+02	  0.082324654	2.135600E+01	  0.082324654	2.063900E+01
313	  0.082525052	-6.479000E+00	  0.082525052	1.273120E+02	  0.082525052	2.153100E+01	  0.082525052	2.095600E+01
314	  0.082725458	-6.501000E+00	  0.082725458	1.265350E+02	  0.082725458	2.171700E+01	  0.082725458	2.127000E+01
315	  0.082925856	-6.525000E+00	  0.082925856	1.257560E+02	  0.082925856	2.191200E+01	  0.082925856	2.158200E+01
316	  0.083126254	-6.548000E+00	  0.083126254	1.249550E+02	  0.083126254	2.211300E+01	  0.083126254	2.190400E+01
317	  0.083326660	-6.571000E+00	  0.083326660	1.241880E+02	  0.083326660	2.231000E+01	  0.083326660	2.221200E+01
318	  0.083527058	-6.600000E+00	  0.083527058	1.234180E+02	  0.083527058	2.252700E+01	  0.083527058	2.251400E+01
319	  0.083727457	-6.625000E+00	  0.083727457	1.226500E+02	  0.083727457	2.273800E+01	  0.083727457	2.282000E+01
320	  0.083927862	-6.651000E+00	  0.083927862	1.218790E+02	  0.083927862	2.295400E+01	  0.083927862	2.312500E+01
321	  0.084128261	-6.677000E+00	  0.084128261	1.211300E+02	  0.084128261	2.316800E+01	  0.084128261	2.342200E+01
322	  0.084328659	-6.705000E+00	  0.084328659	1.203930E+02	  0.084328659	2.339100E+01	  0.084328659	2.370900E+01
323	  0.084529065	-6.732000E+00	  0.084529065	1.196730E+02	  0.084529065	2.361200E+01	  0.084529065	2.399000E+01
324	  0.084729463	-6.759000E+00	  0.084729463	1.188730E+02	  0.084729463	2.384900E+01	  0.084729463	2.430600E+01
325	  0.084929854	-6.789000E+00	  0.084929854	1.181200E+02	  0.084929854	2.408900E+01	  0.084929854	2.459800E+01
326	  0.085130259	-6.818000E+00	  0.085130259	1.173770E+02	  0.085130259	2.432900E+01	  0.085130259	2.488600E+01
327	  0.085330658	-6.848000E+00	  0.085330658	1.166370E+02	  0.085330658	2.457400E+01	  0.085330658	2.517000E+01
328	  0.085531056	-6.876000E+00	  0.085531056	1.159100E+02	  0.085531056	2.481400E+01	  0.085531056	2.545100E+01
329	  0.085731462	-6.907000E+00	  0.085731462	1.151920E+02	  0.085731462	2.506500E+01	  0.085731462	2.572300E+01
330	  0.085931860	-6.938000E+00	  0.085931860	1.145130E+02	  0.085931860	2.530900E+01	  0.085931860	2.597700E+01
331	  0.086132258	-6.970000E+00	  0.086132258	1.138400E+02	  0.086132258	2.556000E+01	  0.086132258	2.622500E+01
332	  0.086332664	-6.998000E+00	  0.086332664	1.131410E+02	  0.086332664	2.580700E+01	  0.086332664	2.649000E+01
333	  0.086533062	-7.028000E+00	  0.086533062	1.124430E+02	  0.086533062	2.606200E+01	  0.086533062	2.675300E+01
334	  0.086733460	-7.053000E+00	  0.086733460	1.118070E+02	  0.086733460	2.629100E+01	  0.086733460	2.699300E+01
335	  0.086933866	-7.082000E+00	  0.086933866	1.111450E+02	  0.086933866	2.654000E+01	  0.086933866	2.723900E+01
336	  0.087134264	-7.105000E+00	  0.087134264	1.104720E+02	  0.087134264	2.677900E+01	  0.087134264	2.749900E+01
337	  0.087334670	-7.125000E+00	  0.087334670	1.098730E+02	  0.087334670	2.699400E+01	  0.087334670	2.773000E+01
338	  0.087535068	-7.148000E+00	  0.087535068	1.092170E+02	  0.087535068	2.723300E+01	  0.087535068	2.798100E+01
339	  0.087735467	-7.166000E+00	  0.087735467	1.086220E+02	  0.087735467	2.744500E+01	  0.087735467	2.821300E+01
340	  0.087935872	-7.181000E+00	  0.087935872	1.079810E+02	  0.087935872	2.766500E+01	  0.087935872	2.847000E+01
341	  0.088136271	-7.189000E+00	  0.088136271	1.073290E+02	  0.088136271	2.787100E+01	  0.088136271	2.874400E+01
342	  0.088336669	-7.197000E+00	  0.088336669	1.066530E+02	  0.088336669	2.808500E+01	  0.088336669	2.903100E+01
343	  0.088537075	-7.209000E+00	  0.088537075	1.059610E+02	  0.088537075	2.831900E+01	  0.088537075	2.931600E+01
344	  0.088737473	-7.220000E+00	  0.088737473	1.052880E+02	  0.088737473	2.854600E+01	  0.088737473	2.959700E+01
345	  0.088937871	-7.225000E+00	  0.088937871	1.045710E+02	  0.088937871	2.877500E+01	  0.088937871	2.990700E+01
346	  0.089138277	-7.243000E+00	  0.089138277	1.038910E+02	  0.089138277	2.903500E+01	  0.089138277	3.017600E+01
347	  0.089338675	-7.256000E+00	  0.089338675	1.031570E+02	  0.089338675	2.930000E+01	  0.089338675	3.047800E+01
348	  0.089539073	-7.278000E+00	  0.089539073	1.024770E+02	  0.089539073	2.957900E+01	  0.089539073	3.073800E+01
349	  0.089739479	-7.289000E+00	  0.089739479	1.017450E+02	  0.089739479	2.984400E+01	  0.089739479	3.104400E+01
350	  0.089939877	-7.317000E+00	  0.089939877	1.010510E+02	  0.089939877	3.015400E+01	  0.089939877	3.129600E+01
351	  0.090140276	-7.335000E+00	  0.090140276	1.003580E+02	  0.090140276	3.044000E+01	  0.090140276	3.156500E+01
352	  0.090340681	-7.362000E+00	  0.090340681	9.964700E+01	  0.090340681	3.075900E+01	  0.090340681	3.182400E+01
353	  0.090541080	-7.382000E+00	  0.090541080	9.893600E+01	  0.090541080	3.106500E+01	  0.090541080	3.209700E+01
354	  0.090741485	-7.414000E+00	  0.090741485	9.825900E+01	  0.090741485	3.139700E+01	  0.090741485	3.232600E+01
355	  0.090941884	-7.441000E+00	  0.090941884	9.758500E+01	  0.090941884	3.171600E+01	  0.090941884	3.256300E+01
356	  0.091142282	-7.470000E+00	  0.091142282	9.688800E+01	  0.091142282	3.205500E+01	  0.091142282	3.280400E+01
357	  0.091342688	-7.504000E+00	  0.091342688	9.626100E+01	  0.091342688	3.238600E+01	  0.091342688	3.300000E+01
358	  0.091543086	-7.532000E+00	  0.091543086	9.557700E+01	  0.091543086	3.272600E+01	  0.091543086	3.323200E+01
359	  0.091743484	-7.562000E+00	  0.091743484	9.491600E+01	  0.091743484	3.306500E+01	  0.091743484	3.345000E+01
360	  0.091943890	-7.598000E+00	  0.091943890	9.425900E+01	  0.091943890	3.342800E+01	  0.091943890	3.364400E+01
361	  0.092144288	-7.631000E+00	  0.092144288	9.360000E+01	  0.092144288	3.378100E+01	  0.092144288	3.384900E+01
362	  0.092344686	-7.659000E+00	  0.092344686	9.296200E+01	  0.092344686	3.412000E+01	  0.092344686	3.405200E+01
363	  0.092545092	-7.692000E+00	  0.092545092	9.234600E+01	  0.092545092	3.446600E+01	  0.092545092	3.423100E+01
364	  0.092745490	-7.727000E+00	  0.092745490	9.173200E+01	  0.092745490	3.482000E+01	  0.092745490	3.440100E+01
365	  0.092945889	-7.761000E+00	  0.092945889	9.110200E+01	  0.092945889	3.518200E+01	  0.092945889	3.457800E+01
366	  0.093146294	-7.796000E+00	  0.093146294	9.045900E+01	  0.093146294	3.555700E+01	  0.093146294	3.475300E+01
367	  0.093346693	-7.828000E+00	  0.093346693	8.986700E+01	  0.093346693	3.590400E+01	  0.093346693	3.491300E+01
368	  0.093547091	-7.861000E+00	  0.093547091	8.928300E+01	  0.093547091	3.625200E+01	  0.093547091	3.506400E+01
369	  0.093747497	-7.895000E+00	  0.093747497	8.865800E+01	  0.093747497	3.662600E+01	  0.093747497	3.522700E+01
370	  0.093947895	-7.927000E+00	  0.093947895	8.807500E+01	  0.093947895	3.698000E+01	  0.093947895	3.537300E+01
371	  0.094148301	-7.964000E+00	  0.094148301	8.749400E+01	  0.094148301	3.734800E+01	  0.094148301	3.550200E+01
372	  0.094348699	-7.998000E+00	  0.094348699	8.694200E+01	  0.094348699	3.769800E+01	  0.094348699	3.562400E+01
373	  0.094549097	-8.037000E+00	  0.094549097	8.633800E+01	  0.094549097	3.808800E+01	  0.094549097	3.574900E+01
374	  0.094749503	-8.069000E+00	  0.094749503	8.580000E+01	  0.094749503	3.843100E+01	  0.094749503	3.586600E+01
375	  0.094949901	-8.101000E+00	  0.094949901	8.526700E+01	  0.094949901	3.877300E+01	  0.094949901	3.597900E+01
376	  0.095150299	-8.136000E+00	  0.095150299	8.470900E+01	  0.095150299	3.913700E+01	  0.095150299	3.608900E+01
377	  0.095350705	-8.170000E+00	  0.095350705	8.415500E+01	  0.095350705	3.950100E+01	  0.095350705	3.619500E+01
378	  0.095551103	-8.206000E+00	  0.095551103	8.362500E+01	  0.095551103	3.985900E+01	  0.095551103	3.628500E+01
379	  0.095751502	-8.238000E+00	  0.095751502	8.310200E+01	  0.095751502	4.020600E+01	  0.095751502	3.637900E+01
380	  0.095951907	-8.274000E+00	  0.095951907	8.259600E+01	  0.095951907	4.055700E+01	  0.095951907	3.645100E+01
381	  0.096152306	-8.307000E+00	  0.096152306	8.209100E+01	  0.096152306	4.090400E+01	  0.096152306	3.652800E+01
382	  0.096352704	-8.341000E+00	  0.096352704	8.160100E+01	  0.096352704	4.124400E+01	  0.096352704	3.659400E+01
383	  0.096553110	-8.372000E+00	  0.096553110	8.110900E+01	  0.096553110	4.158100E+01	  0.096553110	3.666800E+01
384	  0.096753508	-8.409000E+00	  0.096753508	8.060900E+01	  0.096753508	4.193800E+01	  0.096753508	3.672100E+01
385	  0.096953906	-8.440000E+00	  0.096953906	8.014100E+01	  0.096953906	4.226400E+01	  0.096953906	3.678100E+01
386	  0.097154312	-8.474000E+00	  0.097154312	7.966000E+01	  0.097154312	4.260700E+01	  0.097154312	3.683000E+01
387	  0.097354710	-8.511000E+00	  0.097354710	7.919900E+01	  0.097354710	4.294700E+01	  0.097354710	3.686100E+01
388	  0.097555116	-8.545000E+00	  0.097555116	7.875600E+01	  0.097555116	4.327000E+01	  0.097555116	3.689200E+01
389	  0.097755514	-8.580000E+00	  0.097755514	7.832300E+01	  0.097755514	4.359300E+01	  0.097755514	3.691000E+01
390	  0.097955912	-8.616000E+00	  0.097955912	7.789600E+01	  0.097955912	4.391300E+01	  0.097955912	3.692400E+01
391	  0.098156318	-8.645000E+00	  0.098156318	7.745400E+01	  0.098156318	4.422800E+01	  0.098156318	3.696400E+01
392	  0.098356716	-8.676000E+00	  0.098356716	7.703900E+01	  0.098356716	4.453500E+01	  0.098356716	3.698200E+01
393	  0.098557115	-8.711000E+00	  0.098557115	7.662500E+01	  0.098557115	4.484900E+01	  0.098557115	3.698500E+01
394	  0.098757520	-8.742000E+00	  0.098757520	7.617000E+01	  0.098757520	4.518000E+01	  0.098757520	3.701000E+01
395	  0.098957919	-8.768000E+00	  0.098957919	7.576600E+01	  0.098957919	4.547100E+01	  0.098957919	3.703800E+01
396	  0.099158317	-8.801000E+00	  0.099158317	7.535600E+01	  0.099158317	4.577900E+01	  0.099158317	3.704100E+01
397	  0.099358723	-8.826000E+00	  0.099358723	7.495900E+01	  0.099358723	4.606700E+01	  0.099358723	3.706300E+01
398	  0.099559121	-8.855000E+00	  0.099559121	7.457700E+01	  0.099559121	4.635300E+01	  0.099559121	3.706600E+01
399	  0.099759519	-8.882000E+00	  0.099759519	7.419300E+01	  0.099759519	4.663700E+01	  0.099759519	3.707300E+01
400	  0.099959925	-8.918000E+00	  0.099959925	7.377800E+01	  0.099959925	4.695800E+01	  0.099959925	3.705200E+01
401	  0.100160323	-8.942000E+00	  0.100160323	7.344200E+01	  0.100160323	4.720900E+01	  0.100160323	3.705100E+01
402	  0.100360721	-8.962000E+00	  0.100360721	7.306400E+01	  0.100360721	4.747800E+01	  0.100360721	3.707800E+01
403	  0.100561127	-8.987000E+00	  0.100561127	7.269100E+01	  0.100561127	4.775400E+01	  0.100561127	3.708100E+01
404	  0.100761525	-9.011000E+00	  0.100761525	7.232900E+01	  0.100761525	4.802100E+01	  0.100761525	3.708500E+01
405	  0.100961931	-9.027000E+00	  0.100961931	7.197800E+01	  0.100961931	4.826900E+01	  0.100961931	3.711500E+01
406	  0.101162329	-9.043000E+00	  0.101162329	7.160700E+01	  0.101162329	4.853000E+01	  0.101162329	3.714800E+01
407	  0.101362728	-9.062000E+00	  0.101362728	7.127900E+01	  0.101362728	4.877100E+01	  0.101362728	3.715300E+01
408	  0.101563133	-9.081000E+00	  0.101563133	7.091300E+01	  0.101563133	4.903600E+01	  0.101563133	3.716900E+01
409	  0.101763532	-9.098000E+00	  0.101763532	7.059400E+01	  0.101763532	4.926800E+01	  0.101763532	3.717800E+01
410	  0.101963930	-9.111000E+00	  0.101963930	7.023300E+01	  0.101963930	4.952000E+01	  0.101963930	3.721600E+01
411	  0.102164328	-9.124000E+00	  0.102164328	6.988900E+01	  0.102164328	4.976300E+01	  0.102164328	3.724700E+01
412	  0.102364726	-9.141000E+00	  0.102364726	6.956600E+01	  0.102364726	5.000200E+01	  0.102364726	3.725000E+01
413	  0.102565125	-9.150000E+00	  0.102565125	6.921700E+01	  0.102565125	5.024300E+01	  0.102565125	3.729700E+01
414	  0.102765530	-9.154000E+00	  0.102765530	6.889700E+01	  0.102765530	5.045900E+01	  0.102765530	3.735600E+01
415	  0.102965929	-9.164000E+00	  0.102965929	6.849000E+01	  0.102965929	5.074300E+01	  0.102965929	3.740800E+01
416	  0.103166327	-9.159000E+00	  0.103166327	6.822500E+01	  0.103166327	5.091200E+01	  0.103166327	3.748800E+01
417	  0.103366733	-9.162000E+00	  0.103366733	6.787200E+01	  0.103366733	5.115300E+01	  0.103366733	3.755600E+01
418	  0.103567131	-9.173000E+00	  0.103567131	6.753700E+01	  0.103567131	5.139300E+01	  0.103567131	3.758500E+01
419	  0.103767529	-9.167000E+00	  0.103767529	6.714300E+01	  0.103767529	5.165200E+01	  0.103767529	3.769600E+01
420	  0.103967935	-9.169000E+00	  0.103967935	6.682000E+01	  0.103967935	5.187500E+01	  0.103967935	3.775600E+01
421	  0.104168333	-9.168000E+00	  0.104168333	6.644700E+01	  0.104168333	5.212900E+01	  0.104168333	3.784300E+01
422	  0.104368731	-9.170000E+00	  0.104368731	6.608500E+01	  0.104368731	5.238100E+01	  0.104368731	3.791100E+01
423	  0.104569137	-9.159000E+00	  0.104569137	6.573200E+01	  0.104569137	5.261300E+01	  0.104569137	3.803200E+01
424	  0.104769535	-9.155000E+00	  0.104769535	6.534500E+01	  0.104769535	5.287800E+01	  0.104769535	3.813100E+01
425	  0.104969934	-9.146000E+00	  0.104969934	6.495700E+01	  0.104969934	5.314200E+01	  0.104969934	3.824900E+01
426	  0.105170339	-9.136000E+00	  0.105170339	6.461000E+01	  0.105170339	5.337400E+01	  0.105170339	3.836700E+01
427	  0.105370738	-9.118000E+00	  0.105370738	6.421400E+01	  0.105370738	5.363600E+01	  0.105370738	3.852600E+01
428	  0.105571143	-9.118000E+00	  0.105571143	6.375700E+01	  0.105571143	5.396700E+01	  0.105571143	3.861600E+01
429	  0.105771542	-9.109000E+00	  0.105771542	6.337200E+01	  0.105771542	5.423800E+01	  0.105771542	3.872900E+01
430	  0.105971940	-9.089000E+00	  0.105971940	6.290100E+01	  0.105971940	5.456100E+01	  0.105971940	3.891300E+01
431	  0.106172346	-9.069000E+00	  0.106172346	6.245500E+01	  0.106172346	5.486900E+01	  0.106172346	3.909300E+01
432	  0.106372744	-9.058000E+00	  0.106372744	6.206900E+01	  0.106372744	5.514700E+01	  0.106372744	3.921400E+01
433	  0.106573142	-9.035000E+00	  0.106573142	6.159400E+01	  0.106573142	5.548100E+01	  0.106573142	3.941100E+01
434	  0.106773548	-9.017000E+00	  0.106773548	6.116300E+01	  0.106773548	5.579100E+01	  0.106773548	3.957400E+01
435	  0.106973946	-8.994000E+00	  0.106973946	6.064900E+01	  0.106973946	5.616500E+01	  0.106973946	3.977400E+01
436	  0.107174344	-8.974000E+00	  0.107174344	6.015800E+01	  0.107174344	5.653000E+01	  0.107174344	3.995500E+01
437	  0.107374750	-8.953000E+00	  0.107374750	5.965800E+01	  0.107374750	5.690500E+01	  0.107374750	4.014300E+01
438	  0.107575148	-8.941000E+00	  0.107575148	5.913700E+01	  0.107575148	5.731000E+01	  0.107575148	4.028800E+01
439	  0.107775547	-8.911000E+00	  0.107775547	5.866300E+01	  0.107775547	5.766600E+01	  0.107775547	4.051600E+01
440	  0.107975952	-8.889000E+00	  0.107975952	5.812600E+01	  0.107975952	5.808600E+01	  0.107975952	4.071200E+01
441	  0.108176351	-8.870000E+00	  0.108176351	5.761000E+01	  0.108176351	5.849800E+01	  0.108176351	4.088200E+01
442	  0.108376749	-8.847000E+00	  0.108376749	5.703000E+01	  0.108376749	5.896500E+01	  0.108376749	4.108600E+01
443	  0.108577155	-8.826000E+00	  0.108577155	5.649900E+01	  0.108577155	5.940000E+01	  0.108577155	4.126800E+01
444	  0.108777553	-8.806000E+00	  0.108777553	5.584200E+01	  0.108777553	5.995200E+01	  0.108777553	4.145400E+01
445	  0.108977959	-8.785000E+00	  0.108977959	5.529200E+01	  0.108977959	6.041700E+01	  0.108977959	4.163100E+01
446	  0.109178357	-8.771000E+00	  0.109178357	5.464900E+01	  0.109178357	6.097600E+01	  0.109178357	4.177800E+01
447	  0.109378755	-8.754000E+00	  0.109378755	5.401600E+01	  0.109378755	6.153300E+01	  0.109378755	4.193300E+01
448	  0.109579161	-8.732000E+00	  0.109579161	5.340400E+01	  0.109579161	6.207700E+01	  0.109579161	4.211000E+01
449	  0.109779559	-8.717000E+00	  0.109779559	5.271200E+01	  0.109779559	6.270600E+01	  0.109779559	4.224900E+01
450	  0.109979957	-8.709000E+00	  0.109979957	5.208400E+01	  0.109979957	6.328700E+01	  0.109979957	4.233100E+01
451	  0.110180363	-8.691000E+00	  0.110180363	5.142600E+01	  0.110180363	6.390100E+01	  0.110180363	4.247400E+01
452	  0.110380761	-8.677000E+00	  0.110380761	5.074900E+01	  0.110380761	6.454300E+01	  0.110380761	4.258500E+01
453	  0.110581160	-8.671000E+00	  0.110581160	4.999500E+01	  0.110581160	6.527100E+01	  0.110581160	4.263800E+01
454	  0.110781565	-8.663000E+00	  0.110781565	4.933500E+01	  0.110781565	6.591500E+01	  0.110781565	4.268900E+01
455	  0.110981964	-8.654000E+00	  0.110981964	4.860500E+01	  0.110981964	6.663800E+01	  0.110981964	4.274000E+01
456	  0.111182362	-8.647000E+00	  0.111182362	4.790400E+01	  0.111182362	6.734000E+01	  0.111182362	4.276800E+01
457	  0.111382768	-8.642000E+00	  0.111382768	4.720000E+01	  0.111382768	6.805200E+01	  0.111382768	4.276600E+01
458	  0.111583166	-8.635000E+00	  0.111583166	4.643400E+01	  0.111583166	6.883800E+01	  0.111583166	4.277000E+01
459	  0.111783572	-8.630000E+00	  0.111783572	4.568300E+01	  0.111783572	6.961700E+01	  0.111783572	4.274200E+01
460	  0.111983970	-8.627000E+00	  0.111983970	4.492900E+01	  0.111983970	7.040600E+01	  0.111983970	4.268800E+01
461	  0.112184368	-8.628000E+00	  0.112184368	4.414300E+01	  0.112184368	7.123300E+01	  0.112184368	4.258400E+01
462	  0.112384774	-8.621000E+00	  0.112384774	4.334700E+01	  0.112384774	7.208800E+01	  0.112384774	4.252000E+01
463	  0.112585172	-8.625000E+00	  0.112585172	4.259600E+01	  0.112585172	7.289000E+01	  0.112585172	4.236700E+01
464	  0.112785570	-8.622000E+00	  0.112785570	4.178700E+01	  0.112785570	7.377000E+01	  0.112785570	4.223400E+01
465	  0.112985976	-8.627000E+00	  0.112985976	4.098500E+01	  0.112985976	7.463800E+01	  0.112985976	4.202400E+01
466	  0.113186374	-8.629000E+00	  0.113186374	4.020100E+01	  0.113186374	7.549600E+01	  0.113186374	4.182300E+01
467	  0.113386773	-8.625000E+00	  0.113386773	3.938900E+01	  0.113386773	7.640000E+01	  0.113386773	4.163100E+01
468	  0.113587178	-8.630000E+00	  0.113587178	3.856700E+01	  0.113587178	7.730500E+01	  0.113587178	4.135300E+01
469	  0.113787577	-8.633000E+00	  0.113787577	3.774900E+01	  0.113787577	7.821500E+01	  0.113787577	4.107200E+01
470	  0.113987975	-8.637000E+00	  0.113987975	3.693200E+01	  0.113987975	7.912200E+01	  0.113987975	4.075100E+01
471	  0.114188381	-8.645000E+00	  0.114188381	3.611100E+01	  0.114188381	8.002800E+01	  0.114188381	4.037700E+01
472	  0.114388779	-8.649000E+00	  0.114388779	3.528100E+01	  0.114388779	8.095400E+01	  0.114388779	4.000800E+01
473	  0.114589177	-8.651000E+00	  0.114589177	3.445100E+01	  0.114589177	8.188900E+01	  0.114589177	3.962600E+01
474	  0.114789583	-8.662000E+00	  0.114789583	3.361900E+01	  0.114789583	8.279400E+01	  0.114789583	3.914300E+01
475	  0.114989981	-8.667000E+00	  0.114989981	3.275200E+01	  0.114989981	8.376000E+01	  0.114989981	3.866600E+01
476	  0.115190387	-8.673000E+00	  0.115190387	3.188100E+01	  0.115190387	8.472100E+01	  0.115190387	3.814500E+01
477	  0.115390785	-8.684000E+00	  0.115390785	3.098500E+01	  0.115390785	8.568800E+01	  0.115390785	3.754400E+01
478	  0.115591183	-8.696000E+00	  0.115591183	3.013300E+01	  0.115591183	8.659400E+01	  0.115591183	3.693200E+01
479	  0.115791589	-8.707000E+00	  0.115791589	2.922800E+01	  0.115791589	8.755300E+01	  0.115791589	3.626000E+01
480	  0.115991987	-8.725000E+00	  0.115991987	2.826600E+01	  0.115991987	8.852900E+01	  0.115991987	3.546100E+01
481	  0.116192386	-8.744000E+00	  0.116192386	2.734600E+01	  0.116192386	8.943900E+01	  0.116192386	3.465100E+01
482	  0.116392791	-8.762000E+00	  0.116392791	2.640000E+01	  0.116392791	9.036700E+01	  0.116392791	3.380000E+01
483	  0.116593190	-8.781000E+00	  0.116593190	2.542300E+01	  0.116593190	9.129700E+01	  0.116593190	3.287400E+01
484	  0.116793588	-8.809000E+00	  0.116793588	2.442700E+01	  0.116793588	9.217100E+01	  0.116793588	3.183400E+01
485	  0.116993994	-8.838000E+00	  0.116993994	2.339000E+01	  0.116993994	9.304800E+01	  0.116993994	3.071800E+01
486	  0.117194392	-8.869000E+00	  0.117194392	2.237700E+01	  0.117194392	9.385600E+01	  0.117194392	2.957700E+01
487	  0.117394790	-8.904000E+00	  0.117394790	2.136500E+01	  0.117394790	9.459600E+01	  0.117394790	2.837600E+01
488	  0.117595196	-8.941000E+00	  0.117595196	2.029800E+01	  0.117595196	9.533600E+01	  0.117595196	2.708500E+01
489	  0.117795594	-8.982000E+00	  0.117795594	1.919400E+01	  0.117795594	9.603000E+01	  0.117795594	2.569900E+01
490	  0.117995992	-9.025000E+00	  0.117995992	1.811200E+01	  0.117995992	9.663400E+01	  0.117995992	2.429800E+01
491	  0.118196398	-9.069000E+00	  0.118196398	1.695100E+01	  0.118196398	9.723800E+01	  0.118196398	2.278100E+01
492	  0.118396796	-9.119000E+00	  0.118396796	1.582900E+01	  0.118396796	9.770300E+01	  0.118396796	2.125700E+01
493	  0.118597202	-9.169000E+00	  0.118597202	1.468700E+01	  0.118597202	9.811200E+01	  0.118597202	1.969400E+01
494	  0.118797600	-9.228000E+00	  0.118797600	1.351500E+01	  0.118797600	9.841200E+01	  0.118797600	1.805300E+01
