! Anritsu VNA Master:             	Model: MS2036C/10/77
! SN:             	1601066
! /bd0/18may10/256.ew.m6.txt
! Existing Calibration Information:
! TYPE:             	Current Settings	Active Cal Settings
! TIME:             	05/10/2018 10:26:21 AM	05/10/2018 10:22:12 AM
! INTERNAL TEMP:    	47.3 C	47.0 C
! # POINTS:         	494	494
! START FREQ:       	20.000 MHz	20.000 MHz
! STOP FREQ:        	118.797 594 MHz	118.797 594 MHz
! SOURCE POWER:     	High	High
! IFBW:             	50 Hz	50 Hz
! AVG FACTOR:       	  1 	  1 
! REF PLANE 1:      	0 mm	0 mm
! REF PLANE 2:      	0 mm	0 mm
! CAL TYPE:         	Full S22	Full S22
! CAL METHOD:       	SOLT	SOLT
! CAL LINE TYPE:    	Coax	Coax
! DUT PORT 1:       	K-Conn(M)	K-Conn(M)
! DUT PORT 2:       	K-Conn(M)	K-Conn(M)
! CAL STATUS:       	OK: Accuracy High	--
! PROP-V:       	0.700
! CABLE LOSS:       	0.000 dB/m
! REF IMPEDANCE:       	50.0
! Trace Specific Parameters:	TR1	TR2	TR3	TR4
! TRACE.#.Y (GRAPH TYPE)	LOG MAG	PHASE	REAL IMPEDANCE	IMAGINARY IMPEDANCE
! TRACE.#.X 	FREQ.GHZ	FREQ.GHZ	FREQ.GHZ	FREQ.GHZ
! S-PARAMETER	S22	S22	S22	S22
! SMOOTH/APERTURE %	0	0	0	0
! WINDOW	NSL	NSL	NSL	NSL
! GATING	OFF	OFF	OFF	OFF
! FGTD	OFF	OFF	OFF	OFF
Marker Information per Trace:	TR1	TR2	TR3	TR4
!MK1	--	"MK1 TR2:  20.000 MHz,PH:-127.02°"	--	--
!MK2	--	--	"MK2 TR3:  70.100 200 MHz,Z:(16.343 ohm, -1.203 ohm)"	--
!MK3	--	--	--	--
!MK4	--	--	--	--
!MK5	--	--	--	--
!MK6	--	--	--	--
!MK7	--	--	--	--
!MK8	--	--	--	--
PNT	TR1.FREQ.GHZ	TR1.LOG MAG.dB	TR2.FREQ.GHZ	TR2.PHASE.deg	TR3.FREQ.GHZ	TR3.REAL IMPEDANCE.ohm	TR4.FREQ.GHZ	TR4.IMAGINARY IMPEDANCE.ohm
1	  0.020000000	-6.170000E-01	  0.020000000	-1.270180E+02	  0.020000000	2.218000E+00	  0.020000000	-2.487900E+01
2	  0.020200402	-6.210000E-01	  0.020200402	-1.284930E+02	  0.020200402	2.203000E+00	  0.020200402	-2.408200E+01
3	  0.020400802	-6.240000E-01	  0.020400802	-1.299720E+02	  0.020400802	2.186000E+00	  0.020400802	-2.329300E+01
4	  0.020601204	-6.270000E-01	  0.020601204	-1.314660E+02	  0.020601204	2.170000E+00	  0.020601204	-2.250500E+01
5	  0.020801604	-6.320000E-01	  0.020801604	-1.330040E+02	  0.020801604	2.161000E+00	  0.020801604	-2.170400E+01
6	  0.021002004	-6.360000E-01	  0.021002004	-1.345380E+02	  0.021002004	2.150000E+00	  0.021002004	-2.091400E+01
7	  0.021202406	-6.400000E-01	  0.021202406	-1.360780E+02	  0.021202406	2.142000E+00	  0.021202406	-2.012900E+01
8	  0.021402806	-6.420000E-01	  0.021402806	-1.376150E+02	  0.021402806	2.125000E+00	  0.021402806	-1.935500E+01
9	  0.021603208	-6.460000E-01	  0.021603208	-1.391420E+02	  0.021603208	2.117000E+00	  0.021603208	-1.859400E+01
10	  0.021803608	-6.500000E-01	  0.021803608	-1.406810E+02	  0.021803608	2.111000E+00	  0.021803608	-1.783400E+01
11	  0.022004008	-6.570000E-01	  0.022004008	-1.422240E+02	  0.022004008	2.111000E+00	  0.022004008	-1.707900E+01
12	  0.022204408	-6.610000E-01	  0.022204408	-1.437970E+02	  0.022204408	2.106000E+00	  0.022204408	-1.631700E+01
13	  0.022404809	-6.680000E-01	  0.022404809	-1.453900E+02	  0.022404809	2.110000E+00	  0.022404809	-1.555200E+01
14	  0.022605211	-6.750000E-01	  0.022605211	-1.469700E+02	  0.022605211	2.113000E+00	  0.022605211	-1.480000E+01
15	  0.022805611	-6.840000E-01	  0.022805611	-1.485710E+02	  0.022805611	2.123000E+00	  0.022805611	-1.404400E+01
16	  0.023006011	-6.870000E-01	  0.023006011	-1.501570E+02	  0.023006011	2.119000E+00	  0.023006011	-1.330100E+01
17	  0.023206413	-6.920000E-01	  0.023206413	-1.517620E+02	  0.023206413	2.116000E+00	  0.023206413	-1.255500E+01
18	  0.023406813	-6.970000E-01	  0.023406813	-1.533550E+02	  0.023406813	2.120000E+00	  0.023406813	-1.181900E+01
19	  0.023607215	-7.060000E-01	  0.023607215	-1.549640E+02	  0.023607215	2.133000E+00	  0.023607215	-1.108100E+01
20	  0.023807615	-7.190000E-01	  0.023807615	-1.565920E+02	  0.023807615	2.158000E+00	  0.023807615	-1.033900E+01
21	  0.024008015	-7.290000E-01	  0.024008015	-1.582330E+02	  0.024008015	2.174000E+00	  0.024008015	-9.595000E+00
22	  0.024208417	-7.360000E-01	  0.024208417	-1.598990E+02	  0.024208417	2.185000E+00	  0.024208417	-8.845000E+00
23	  0.024408817	-7.440000E-01	  0.024408817	-1.615570E+02	  0.024408817	2.198000E+00	  0.024408817	-8.101000E+00
24	  0.024609219	-7.530000E-01	  0.024609219	-1.632280E+02	  0.024609219	2.214000E+00	  0.024609219	-7.356000E+00
25	  0.024809619	-7.640000E-01	  0.024809619	-1.648870E+02	  0.024809619	2.236000E+00	  0.024809619	-6.619000E+00
26	  0.025010020	-7.740000E-01	  0.025010020	-1.665640E+02	  0.025010020	2.257000E+00	  0.025010020	-5.877000E+00
27	  0.025210422	-7.870000E-01	  0.025210422	-1.682460E+02	  0.025210422	2.289000E+00	  0.025210422	-5.135000E+00
28	  0.025410822	-7.980000E-01	  0.025410822	-1.699420E+02	  0.025410822	2.315000E+00	  0.025410822	-4.390000E+00
29	  0.025611224	-8.130000E-01	  0.025611224	-1.716550E+02	  0.025611224	2.352000E+00	  0.025611224	-3.639000E+00
30	  0.025811624	-8.270000E-01	  0.025811624	-1.733750E+02	  0.025811624	2.387000E+00	  0.025811624	-2.886000E+00
31	  0.026012026	-8.380000E-01	  0.026012026	-1.751070E+02	  0.026012026	2.417000E+00	  0.026012026	-2.131000E+00
32	  0.026212426	-8.520000E-01	  0.026212426	-1.768540E+02	  0.026212426	2.454000E+00	  0.026212426	-1.369000E+00
33	  0.026412826	-8.690000E-01	  0.026412826	-1.785980E+02	  0.026412826	2.501000E+00	  0.026412826	-6.100000E-01
34	  0.026613226	-8.840000E-01	  0.026613226	1.796430E+02	  0.026613226	2.543000E+00	  0.026613226	1.550000E-01
35	  0.026813626	-9.000000E-01	  0.026813626	1.778720E+02	  0.026813626	2.591000E+00	  0.026813626	9.250000E-01
36	  0.027014028	-9.180000E-01	  0.027014028	1.760990E+02	  0.027014028	2.644000E+00	  0.027014028	1.697000E+00
37	  0.027214428	-9.350000E-01	  0.027214428	1.743290E+02	  0.027214428	2.696000E+00	  0.027214428	2.469000E+00
38	  0.027414829	-9.540000E-01	  0.027414829	1.725370E+02	  0.027414829	2.757000E+00	  0.027414829	3.250000E+00
39	  0.027615231	-9.720000E-01	  0.027615231	1.707260E+02	  0.027615231	2.815000E+00	  0.027615231	4.042000E+00
40	  0.027815631	-9.930000E-01	  0.027815631	1.689180E+02	  0.027815631	2.884000E+00	  0.027815631	4.834000E+00
41	  0.028016033	-1.016000E+00	  0.028016033	1.670890E+02	  0.028016033	2.959000E+00	  0.028016033	5.637000E+00
42	  0.028216433	-1.038000E+00	  0.028216433	1.652550E+02	  0.028216433	3.035000E+00	  0.028216433	6.445000E+00
43	  0.028416833	-1.061000E+00	  0.028416833	1.634120E+02	  0.028416833	3.114000E+00	  0.028416833	7.260000E+00
44	  0.028617235	-1.083000E+00	  0.028617235	1.615800E+02	  0.028617235	3.197000E+00	  0.028617235	8.074000E+00
45	  0.028817635	-1.108000E+00	  0.028817635	1.597310E+02	  0.028817635	3.287000E+00	  0.028817635	8.899000E+00
46	  0.029018037	-1.134000E+00	  0.029018037	1.578890E+02	  0.029018037	3.385000E+00	  0.029018037	9.725000E+00
47	  0.029218437	-1.162000E+00	  0.029218437	1.560330E+02	  0.029218437	3.489000E+00	  0.029218437	1.056300E+01
48	  0.029418837	-1.189000E+00	  0.029418837	1.541520E+02	  0.029418837	3.597000E+00	  0.029418837	1.141700E+01
49	  0.029619239	-1.218000E+00	  0.029619239	1.522600E+02	  0.029619239	3.714000E+00	  0.029619239	1.228100E+01
50	  0.029819639	-1.247000E+00	  0.029819639	1.503820E+02	  0.029819639	3.834000E+00	  0.029819639	1.314500E+01
51	  0.030020041	-1.275000E+00	  0.030020041	1.484800E+02	  0.030020041	3.956000E+00	  0.030020041	1.402800E+01
52	  0.030220442	-1.305000E+00	  0.030220442	1.465810E+02	  0.030220442	4.085000E+00	  0.030220442	1.491700E+01
53	  0.030420844	-1.335000E+00	  0.030420844	1.446970E+02	  0.030420844	4.222000E+00	  0.030420844	1.580600E+01
54	  0.030621244	-1.366000E+00	  0.030621244	1.428040E+02	  0.030621244	4.364000E+00	  0.030621244	1.670900E+01
55	  0.030821642	-1.401000E+00	  0.030821642	1.408940E+02	  0.030821642	4.530000E+00	  0.030821642	1.762800E+01
56	  0.031022044	-1.432000E+00	  0.031022044	1.389610E+02	  0.031022044	4.686000E+00	  0.031022044	1.856800E+01
57	  0.031222444	-1.462000E+00	  0.031222444	1.370450E+02	  0.031222444	4.845000E+00	  0.031222444	1.951200E+01
58	  0.031422846	-1.496000E+00	  0.031422846	1.350690E+02	  0.031422846	5.024000E+00	  0.031422846	2.049600E+01
59	  0.031623244	-1.531000E+00	  0.031623244	1.330950E+02	  0.031623244	5.215000E+00	  0.031623244	2.149200E+01
60	  0.031823646	-1.565000E+00	  0.031823646	1.311250E+02	  0.031823646	5.412000E+00	  0.031823646	2.249900E+01
61	  0.032024048	-1.602000E+00	  0.032024048	1.291480E+02	  0.032024048	5.627000E+00	  0.032024048	2.352300E+01
62	  0.032224450	-1.640000E+00	  0.032224450	1.271720E+02	  0.032224450	5.857000E+00	  0.032224450	2.456000E+01
63	  0.032424849	-1.678000E+00	  0.032424849	1.251620E+02	  0.032424849	6.096000E+00	  0.032424849	2.563300E+01
64	  0.032625251	-1.717000E+00	  0.032625251	1.231450E+02	  0.032625251	6.352000E+00	  0.032625251	2.672600E+01
65	  0.032825653	-1.756000E+00	  0.032825653	1.211100E+02	  0.032825653	6.624000E+00	  0.032825653	2.784800E+01
66	  0.033026051	-1.796000E+00	  0.033026051	1.190590E+02	  0.033026051	6.911000E+00	  0.033026051	2.899800E+01
67	  0.033226453	-1.837000E+00	  0.033226453	1.170470E+02	  0.033226453	7.212000E+00	  0.033226453	3.014600E+01
68	  0.033426855	-1.877000E+00	  0.033426855	1.149990E+02	  0.033426855	7.533000E+00	  0.033426855	3.133600E+01
69	  0.033627257	-1.917000E+00	  0.033627257	1.129370E+02	  0.033627257	7.868000E+00	  0.033627257	3.256000E+01
70	  0.033827655	-1.961000E+00	  0.033827655	1.109060E+02	  0.033827655	8.237000E+00	  0.033827655	3.378600E+01
71	  0.034028057	-2.007000E+00	  0.034028057	1.088470E+02	  0.034028057	8.637000E+00	  0.034028057	3.505400E+01
72	  0.034228459	-2.051000E+00	  0.034228459	1.067810E+02	  0.034228459	9.051000E+00	  0.034228459	3.635500E+01
73	  0.034428857	-2.097000E+00	  0.034428857	1.047180E+02	  0.034428857	9.501000E+00	  0.034428857	3.768100E+01
74	  0.034629259	-2.146000E+00	  0.034629259	1.026360E+02	  0.034629259	9.988000E+00	  0.034629259	3.904800E+01
75	  0.034829661	-2.191000E+00	  0.034829661	1.005600E+02	  0.034829661	1.048900E+01	  0.034829661	4.044600E+01
76	  0.035030060	-2.241000E+00	  0.035030060	9.848400E+01	  0.035030060	1.104700E+01	  0.035030060	4.187200E+01
77	  0.035230462	-2.290000E+00	  0.035230462	9.639500E+01	  0.035230462	1.163700E+01	  0.035230462	4.334400E+01
78	  0.035430863	-2.339000E+00	  0.035430863	9.432100E+01	  0.035430863	1.226100E+01	  0.035430863	4.484200E+01
79	  0.035631265	-2.393000E+00	  0.035631265	9.224100E+01	  0.035631265	1.294900E+01	  0.035631265	4.637600E+01
80	  0.035831664	-2.443000E+00	  0.035831664	9.014900E+01	  0.035831664	1.367100E+01	  0.035831664	4.796300E+01
81	  0.036032066	-2.493000E+00	  0.036032066	8.806700E+01	  0.036032066	1.444100E+01	  0.036032066	4.958500E+01
82	  0.036232468	-2.543000E+00	  0.036232468	8.599100E+01	  0.036232468	1.525800E+01	  0.036232468	5.124700E+01
83	  0.036432866	-2.596000E+00	  0.036432866	8.387400E+01	  0.036432866	1.616500E+01	  0.036432866	5.298400E+01
84	  0.036633268	-2.649000E+00	  0.036633268	8.176700E+01	  0.036633268	1.714000E+01	  0.036633268	5.475800E+01
85	  0.036833670	-2.703000E+00	  0.036833670	7.968000E+01	  0.036833670	1.818500E+01	  0.036833670	5.656100E+01
86	  0.037034072	-2.757000E+00	  0.037034072	7.758000E+01	  0.037034072	1.931500E+01	  0.037034072	5.842500E+01
87	  0.037234470	-2.812000E+00	  0.037234470	7.546400E+01	  0.037234470	2.054100E+01	  0.037234470	6.035700E+01
88	  0.037434869	-2.864000E+00	  0.037434869	7.338100E+01	  0.037434869	2.183900E+01	  0.037434869	6.231200E+01
89	  0.037635271	-2.918000E+00	  0.037635271	7.125100E+01	  0.037635271	2.327500E+01	  0.037635271	6.436500E+01
90	  0.037835669	-2.974000E+00	  0.037835669	6.912600E+01	  0.037835669	2.483600E+01	  0.037835669	6.646500E+01
91	  0.038036071	-3.031000E+00	  0.038036071	6.698100E+01	  0.038036071	2.655400E+01	  0.038036071	6.863500E+01
92	  0.038236473	-3.090000E+00	  0.038236473	6.484900E+01	  0.038236473	2.843300E+01	  0.038236473	7.083200E+01
93	  0.038436871	-3.150000E+00	  0.038436871	6.271700E+01	  0.038436871	3.047700E+01	  0.038436871	7.307500E+01
94	  0.038637273	-3.206000E+00	  0.038637273	6.058200E+01	  0.038637273	3.267700E+01	  0.038637273	7.538500E+01
95	  0.038837675	-3.262000E+00	  0.038837675	5.847700E+01	  0.038837675	3.504500E+01	  0.038837675	7.770100E+01
96	  0.039038073	-3.316000E+00	  0.039038073	5.635200E+01	  0.039038073	3.763000E+01	  0.039038073	8.009300E+01
97	  0.039238475	-3.373000E+00	  0.039238475	5.423500E+01	  0.039238475	4.047300E+01	  0.039238475	8.247800E+01
98	  0.039438877	-3.431000E+00	  0.039438877	5.213100E+01	  0.039438877	4.357700E+01	  0.039438877	8.484400E+01
99	  0.039639279	-3.489000E+00	  0.039639279	5.001200E+01	  0.039639279	4.698300E+01	  0.039639279	8.722800E+01
100	  0.039839678	-3.544000E+00	  0.039839678	4.789200E+01	  0.039839678	5.067800E+01	  0.039839678	8.961700E+01
101	  0.040040080	-3.602000E+00	  0.040040080	4.576300E+01	  0.040040080	5.476500E+01	  0.040040080	9.194000E+01
102	  0.040240481	-3.658000E+00	  0.040240481	4.363600E+01	  0.040240481	5.921300E+01	  0.040240481	9.419500E+01
103	  0.040440880	-3.711000E+00	  0.040440880	4.153400E+01	  0.040440880	6.398800E+01	  0.040440880	9.633900E+01
104	  0.040641282	-3.770000E+00	  0.040641282	3.944800E+01	  0.040641282	6.921600E+01	  0.040641282	9.820600E+01
105	  0.040841684	-3.823000E+00	  0.040841684	3.737100E+01	  0.040841684	7.482300E+01	  0.040841684	9.991500E+01
106	  0.041042086	-3.881000E+00	  0.041042086	3.531900E+01	  0.041042086	8.087200E+01	  0.041042086	1.012190E+02
107	  0.041242484	-3.938000E+00	  0.041242484	3.321800E+01	  0.041242484	8.752900E+01	  0.041242484	1.022080E+02
108	  0.041442886	-3.994000E+00	  0.041442886	3.113700E+01	  0.041442886	9.461100E+01	  0.041442886	1.027260E+02
109	  0.041643288	-4.046000E+00	  0.041643288	2.905700E+01	  0.041643288	1.021510E+02	  0.041643288	1.027450E+02
110	  0.041843686	-4.101000E+00	  0.041843686	2.699400E+01	  0.041843686	1.100880E+02	  0.041843686	1.019780E+02
111	  0.042044088	-4.155000E+00	  0.042044088	2.494500E+01	  0.042044088	1.183430E+02	  0.042044088	1.004580E+02
112	  0.042244490	-4.206000E+00	  0.042244490	2.290800E+01	  0.042244490	1.268420E+02	  0.042244490	9.807000E+01
113	  0.042444889	-4.260000E+00	  0.042444889	2.087200E+01	  0.042444889	1.354870E+02	  0.042444889	9.456600E+01
114	  0.042645290	-4.312000E+00	  0.042645290	1.885200E+01	  0.042645290	1.440870E+02	  0.042645290	9.002200E+01
115	  0.042845692	-4.366000E+00	  0.042845692	1.684100E+01	  0.042845692	1.524280E+02	  0.042845692	8.425200E+01
116	  0.043046094	-4.417000E+00	  0.043046094	1.483300E+01	  0.043046094	1.604020E+02	  0.043046094	7.737200E+01
117	  0.043246493	-4.465000E+00	  0.043246493	1.281200E+01	  0.043246493	1.678390E+02	  0.043246493	6.930200E+01
118	  0.043446895	-4.511000E+00	  0.043446895	1.082700E+01	  0.043446895	1.743330E+02	  0.043446895	6.030000E+01
119	  0.043647297	-4.555000E+00	  0.043647297	8.828000E+00	  0.043647297	1.798730E+02	  0.043647297	5.029700E+01
120	  0.043847695	-4.603000E+00	  0.043847695	6.844000E+00	  0.043847695	1.839620E+02	  0.043847695	3.949100E+01
121	  0.044048097	-4.650000E+00	  0.044048097	4.866000E+00	  0.044048097	1.866410E+02	  0.044048097	2.820500E+01
122	  0.044248499	-4.692000E+00	  0.044248499	2.894000E+00	  0.044248499	1.879950E+02	  0.044248499	1.674600E+01
123	  0.044448901	-4.734000E+00	  0.044448901	9.200000E-01	  0.044448901	1.878030E+02	  0.044448901	5.267000E+00
124	  0.044649299	-4.775000E+00	  0.044649299	-1.032000E+00	  0.044649299	1.862630E+02	  0.044649299	-5.805000E+00
125	  0.044849701	-4.816000E+00	  0.044849701	-2.992000E+00	  0.044849701	1.833450E+02	  0.044849701	-1.640800E+01
126	  0.045050103	-4.857000E+00	  0.045050103	-4.950000E+00	  0.045050103	1.792720E+02	  0.045050103	-2.626700E+01
127	  0.045250501	-4.898000E+00	  0.045250501	-6.901000E+00	  0.045250501	1.742490E+02	  0.045250501	-3.522400E+01
128	  0.045450903	-4.940000E+00	  0.045450903	-8.822000E+00	  0.045450903	1.685350E+02	  0.045450903	-4.309000E+01
129	  0.045651305	-4.978000E+00	  0.045651305	-1.075900E+01	  0.045651305	1.623070E+02	  0.045651305	-5.007600E+01
130	  0.045851704	-5.016000E+00	  0.045851704	-1.266400E+01	  0.045851704	1.558260E+02	  0.045851704	-5.599000E+01
131	  0.046052102	-5.056000E+00	  0.046052102	-1.456500E+01	  0.046052102	1.491070E+02	  0.046052102	-6.091800E+01
132	  0.046252504	-5.094000E+00	  0.046252504	-1.641800E+01	  0.046252504	1.425230E+02	  0.046252504	-6.490200E+01
133	  0.046452906	-5.132000E+00	  0.046452906	-1.828800E+01	  0.046452906	1.359310E+02	  0.046452906	-6.815700E+01
134	  0.046653304	-5.166000E+00	  0.046653304	-2.012600E+01	  0.046653304	1.295990E+02	  0.046653304	-7.072200E+01
135	  0.046853706	-5.199000E+00	  0.046853706	-2.193000E+01	  0.046853706	1.235660E+02	  0.046853706	-7.267300E+01
136	  0.047054108	-5.223000E+00	  0.047054108	-2.377700E+01	  0.047054108	1.176660E+02	  0.047054108	-7.432600E+01
137	  0.047254506	-5.249000E+00	  0.047254506	-2.561600E+01	  0.047254506	1.119970E+02	  0.047254506	-7.544700E+01
138	  0.047454908	-5.269000E+00	  0.047454908	-2.743700E+01	  0.047454908	1.066360E+02	  0.047454908	-7.622800E+01
139	  0.047655310	-5.294000E+00	  0.047655310	-2.927900E+01	  0.047655310	1.014560E+02	  0.047655310	-7.657600E+01
140	  0.047855709	-5.318000E+00	  0.047855709	-3.109900E+01	  0.047855709	9.659800E+01	  0.047855709	-7.661500E+01
141	  0.048056111	-5.342000E+00	  0.048056111	-3.290500E+01	  0.048056111	9.203300E+01	  0.048056111	-7.638000E+01
142	  0.048256513	-5.366000E+00	  0.048256513	-3.472200E+01	  0.048256513	8.769700E+01	  0.048256513	-7.593100E+01
143	  0.048456915	-5.388000E+00	  0.048456915	-3.654300E+01	  0.048456915	8.360400E+01	  0.048456915	-7.531100E+01
144	  0.048657313	-5.410000E+00	  0.048657313	-3.836100E+01	  0.048657313	7.975800E+01	  0.048657313	-7.454200E+01
145	  0.048857715	-5.434000E+00	  0.048857715	-4.015100E+01	  0.048857715	7.619900E+01	  0.048857715	-7.363300E+01
146	  0.049058117	-5.455000E+00	  0.049058117	-4.194200E+01	  0.049058117	7.284700E+01	  0.049058117	-7.265300E+01
147	  0.049258515	-5.480000E+00	  0.049258515	-4.369400E+01	  0.049258515	6.977900E+01	  0.049258515	-7.154900E+01
148	  0.049458917	-5.499000E+00	  0.049458917	-4.544600E+01	  0.049458917	6.687600E+01	  0.049458917	-7.045800E+01
149	  0.049659319	-5.523000E+00	  0.049659319	-4.718200E+01	  0.049659319	6.418800E+01	  0.049659319	-6.926900E+01
150	  0.049859721	-5.545000E+00	  0.049859721	-4.890100E+01	  0.049859721	6.167600E+01	  0.049859721	-6.807600E+01
151	  0.050060119	-5.568000E+00	  0.050060119	-5.061300E+01	  0.050060119	5.932700E+01	  0.050060119	-6.684800E+01
152	  0.050260521	-5.586000E+00	  0.050260521	-5.233200E+01	  0.050260521	5.708700E+01	  0.050260521	-6.563500E+01
153	  0.050460923	-5.606000E+00	  0.050460923	-5.404200E+01	  0.050460923	5.499400E+01	  0.050460923	-6.439800E+01
154	  0.050661322	-5.621000E+00	  0.050661322	-5.572200E+01	  0.050661322	5.303400E+01	  0.050661322	-6.321200E+01
155	  0.050861724	-5.641000E+00	  0.050861724	-5.740100E+01	  0.050861724	5.120800E+01	  0.050861724	-6.197500E+01
156	  0.051062126	-5.657000E+00	  0.051062126	-5.904200E+01	  0.051062126	4.950700E+01	  0.051062126	-6.079200E+01
157	  0.051262524	-5.679000E+00	  0.051262524	-6.067700E+01	  0.051262524	4.792900E+01	  0.051262524	-5.957200E+01
158	  0.051462926	-5.693000E+00	  0.051462926	-6.233700E+01	  0.051462926	4.638000E+01	  0.051462926	-5.839100E+01
159	  0.051663328	-5.711000E+00	  0.051663328	-6.395600E+01	  0.051663328	4.496500E+01	  0.051663328	-5.722200E+01
160	  0.051863730	-5.727000E+00	  0.051863730	-6.555000E+01	  0.051863730	4.363900E+01	  0.051863730	-5.608600E+01
161	  0.052064128	-5.740000E+00	  0.052064128	-6.717800E+01	  0.052064128	4.233800E+01	  0.052064128	-5.495300E+01
162	  0.052264530	-5.752000E+00	  0.052264530	-6.877000E+01	  0.052264530	4.112400E+01	  0.052264530	-5.386200E+01
163	  0.052464932	-5.766000E+00	  0.052464932	-7.035000E+01	  0.052464932	3.999300E+01	  0.052464932	-5.277000E+01
164	  0.052665330	-5.779000E+00	  0.052665330	-7.190900E+01	  0.052665330	3.892700E+01	  0.052665330	-5.170900E+01
165	  0.052865732	-5.793000E+00	  0.052865732	-7.343800E+01	  0.052865732	3.793700E+01	  0.052865732	-5.067100E+01
166	  0.053066134	-5.804000E+00	  0.053066134	-7.498700E+01	  0.053066134	3.696400E+01	  0.053066134	-4.965000E+01
167	  0.053266536	-5.821000E+00	  0.053266536	-7.653600E+01	  0.053266536	3.606500E+01	  0.053266536	-4.861000E+01
168	  0.053466935	-5.834000E+00	  0.053466935	-7.804600E+01	  0.053466935	3.521400E+01	  0.053466935	-4.762500E+01
169	  0.053667337	-5.844000E+00	  0.053667337	-7.957100E+01	  0.053667337	3.438000E+01	  0.053667337	-4.665300E+01
170	  0.053867739	-5.853000E+00	  0.053867739	-8.106200E+01	  0.053867739	3.359900E+01	  0.053867739	-4.571700E+01
171	  0.054068137	-5.866000E+00	  0.054068137	-8.256300E+01	  0.054068137	3.286400E+01	  0.054068137	-4.476900E+01
172	  0.054268539	-5.874000E+00	  0.054268539	-8.406300E+01	  0.054268539	3.214200E+01	  0.054268539	-4.384900E+01
173	  0.054468941	-5.884000E+00	  0.054468941	-8.551700E+01	  0.054468941	3.148100E+01	  0.054468941	-4.296100E+01
174	  0.054669335	-5.898000E+00	  0.054669335	-8.699000E+01	  0.054669335	3.085200E+01	  0.054669335	-4.206200E+01
175	  0.054869737	-5.907000E+00	  0.054869737	-8.844800E+01	  0.054869737	3.024000E+01	  0.054869737	-4.119500E+01
176	  0.055070139	-5.919000E+00	  0.055070139	-8.987700E+01	  0.055070139	2.967500E+01	  0.055070139	-4.034800E+01
177	  0.055270538	-5.925000E+00	  0.055270538	-9.132200E+01	  0.055270538	2.910600E+01	  0.055270538	-3.951600E+01
178	  0.055470940	-5.933000E+00	  0.055470940	-9.276000E+01	  0.055470940	2.856800E+01	  0.055470940	-3.869400E+01
179	  0.055671342	-5.942000E+00	  0.055671342	-9.417400E+01	  0.055671342	2.806600E+01	  0.055671342	-3.789000E+01
180	  0.055871744	-5.947000E+00	  0.055871744	-9.560500E+01	  0.055871744	2.756600E+01	  0.055871744	-3.709500E+01
181	  0.056072142	-5.954000E+00	  0.056072142	-9.700400E+01	  0.056072142	2.710100E+01	  0.056072142	-3.632100E+01
182	  0.056272544	-5.963000E+00	  0.056272544	-9.838800E+01	  0.056272544	2.666500E+01	  0.056272544	-3.556000E+01
183	  0.056472946	-5.967000E+00	  0.056472946	-9.976000E+01	  0.056472946	2.623400E+01	  0.056472946	-3.482400E+01
184	  0.056673344	-5.975000E+00	  0.056673344	-1.011290E+02	  0.056673344	2.583200E+01	  0.056673344	-3.408900E+01
185	  0.056873746	-5.978000E+00	  0.056873746	-1.024860E+02	  0.056873746	2.543200E+01	  0.056873746	-3.337700E+01
186	  0.057074148	-5.983000E+00	  0.057074148	-1.038430E+02	  0.057074148	2.505400E+01	  0.057074148	-3.266800E+01
187	  0.057274550	-5.989000E+00	  0.057274550	-1.051980E+02	  0.057274550	2.469300E+01	  0.057274550	-3.196600E+01
188	  0.057474948	-5.991000E+00	  0.057474948	-1.065350E+02	  0.057474948	2.433800E+01	  0.057474948	-3.128500E+01
189	  0.057675350	-5.996000E+00	  0.057675350	-1.078630E+02	  0.057675350	2.400800E+01	  0.057675350	-3.061100E+01
190	  0.057875752	-6.000000E+00	  0.057875752	-1.091790E+02	  0.057875752	2.369000E+01	  0.057875752	-2.994900E+01
191	  0.058076151	-6.007000E+00	  0.058076151	-1.104990E+02	  0.058076151	2.339200E+01	  0.058076151	-2.928700E+01
192	  0.058276553	-6.010000E+00	  0.058276553	-1.117780E+02	  0.058276553	2.310000E+01	  0.058276553	-2.865800E+01
193	  0.058476955	-6.012000E+00	  0.058476955	-1.130810E+02	  0.058476955	2.281100E+01	  0.058476955	-2.802400E+01
194	  0.058677353	-6.016000E+00	  0.058677353	-1.143560E+02	  0.058677353	2.254300E+01	  0.058677353	-2.740500E+01
195	  0.058877755	-6.018000E+00	  0.058877755	-1.156350E+02	  0.058877755	2.228100E+01	  0.058877755	-2.679200E+01
196	  0.059078157	-6.022000E+00	  0.059078157	-1.169000E+02	  0.059078157	2.203400E+01	  0.059078157	-2.618800E+01
197	  0.059278559	-6.023000E+00	  0.059278559	-1.181300E+02	  0.059278559	2.179300E+01	  0.059278559	-2.560900E+01
198	  0.059478957	-6.028000E+00	  0.059478957	-1.193910E+02	  0.059478957	2.156700E+01	  0.059478957	-2.501500E+01
199	  0.059679359	-6.033000E+00	  0.059679359	-1.206370E+02	  0.059679359	2.135200E+01	  0.059679359	-2.443200E+01
200	  0.059879761	-6.036000E+00	  0.059879761	-1.218480E+02	  0.059879761	2.114400E+01	  0.059879761	-2.387200E+01
201	  0.060080159	-6.044000E+00	  0.060080159	-1.230630E+02	  0.060080159	2.095500E+01	  0.060080159	-2.331000E+01
202	  0.060280561	-6.049000E+00	  0.060280561	-1.242660E+02	  0.060280561	2.076800E+01	  0.060280561	-2.275900E+01
203	  0.060480963	-6.053000E+00	  0.060480963	-1.254570E+02	  0.060480963	2.058700E+01	  0.060480963	-2.221900E+01
204	  0.060681365	-6.056000E+00	  0.060681365	-1.266330E+02	  0.060681365	2.041300E+01	  0.060681365	-2.169000E+01
205	  0.060881764	-6.060000E+00	  0.060881764	-1.278290E+02	  0.060881764	2.024300E+01	  0.060881764	-2.115400E+01
206	  0.061082166	-6.065000E+00	  0.061082166	-1.290120E+02	  0.061082166	2.008200E+01	  0.061082166	-2.062700E+01
207	  0.061282568	-6.073000E+00	  0.061282568	-1.301780E+02	  0.061282568	1.993900E+01	  0.061282568	-2.010800E+01
208	  0.061482966	-6.075000E+00	  0.061482966	-1.313330E+02	  0.061482966	1.978700E+01	  0.061482966	-1.960200E+01
209	  0.061683368	-6.080000E+00	  0.061683368	-1.324870E+02	  0.061683368	1.964700E+01	  0.061683368	-1.909800E+01
210	  0.061883770	-6.085000E+00	  0.061883770	-1.336210E+02	  0.061883770	1.951400E+01	  0.061883770	-1.860400E+01
211	  0.062084168	-6.086000E+00	  0.062084168	-1.347460E+02	  0.062084168	1.937900E+01	  0.062084168	-1.812000E+01
212	  0.062284570	-6.088000E+00	  0.062284570	-1.358830E+02	  0.062284570	1.924700E+01	  0.062284570	-1.763300E+01
213	  0.062484972	-6.083000E+00	  0.062484972	-1.369810E+02	  0.062484972	1.910300E+01	  0.062484972	-1.717100E+01
214	  0.062685370	-6.082000E+00	  0.062685370	-1.380930E+02	  0.062685370	1.897700E+01	  0.062685370	-1.670100E+01
215	  0.062885776	-6.080000E+00	  0.062885776	-1.392090E+02	  0.062885776	1.884800E+01	  0.062885776	-1.623200E+01
216	  0.063086174	-6.081000E+00	  0.063086174	-1.403040E+02	  0.063086174	1.873800E+01	  0.063086174	-1.577200E+01
217	  0.063286573	-6.080000E+00	  0.063286573	-1.413740E+02	  0.063286573	1.862500E+01	  0.063286573	-1.532600E+01
218	  0.063486971	-6.075000E+00	  0.063486971	-1.424550E+02	  0.063486971	1.850800E+01	  0.063486971	-1.487900E+01
219	  0.063687377	-6.072000E+00	  0.063687377	-1.435250E+02	  0.063687377	1.839800E+01	  0.063687377	-1.443800E+01
220	  0.063887775	-6.066000E+00	  0.063887775	-1.446080E+02	  0.063887775	1.828100E+01	  0.063887775	-1.399500E+01
221	  0.064088173	-6.063000E+00	  0.064088173	-1.457010E+02	  0.064088173	1.817700E+01	  0.064088173	-1.354700E+01
222	  0.064288579	-6.053000E+00	  0.064288579	-1.467660E+02	  0.064288579	1.806100E+01	  0.064288579	-1.311500E+01
223	  0.064488977	-6.049000E+00	  0.064488977	-1.478220E+02	  0.064488977	1.796600E+01	  0.064488977	-1.268500E+01
224	  0.064689375	-6.043000E+00	  0.064689375	-1.488880E+02	  0.064689375	1.786500E+01	  0.064689375	-1.225500E+01
225	  0.064889781	-6.036000E+00	  0.064889781	-1.499570E+02	  0.064889781	1.776700E+01	  0.064889781	-1.182400E+01
226	  0.065090179	-6.025000E+00	  0.065090179	-1.510160E+02	  0.065090179	1.766200E+01	  0.065090179	-1.140000E+01
227	  0.065290578	-6.021000E+00	  0.065290578	-1.520720E+02	  0.065290578	1.757900E+01	  0.065290578	-1.097500E+01
228	  0.065490983	-6.008000E+00	  0.065490983	-1.531200E+02	  0.065490983	1.747400E+01	  0.065490983	-1.055800E+01
229	  0.065691382	-5.999000E+00	  0.065691382	-1.541820E+02	  0.065691382	1.738400E+01	  0.065691382	-1.013500E+01
230	  0.065891780	-5.991000E+00	  0.065891780	-1.552290E+02	  0.065891780	1.730100E+01	  0.065891780	-9.718000E+00
231	  0.066092186	-5.983000E+00	  0.066092186	-1.562790E+02	  0.066092186	1.721800E+01	  0.066092186	-9.301000E+00
232	  0.066292584	-5.972000E+00	  0.066292584	-1.573260E+02	  0.066292584	1.713300E+01	  0.066292584	-8.887000E+00
233	  0.066492982	-5.965000E+00	  0.066492982	-1.583810E+02	  0.066492982	1.706100E+01	  0.066492982	-8.469000E+00
234	  0.066693388	-5.960000E+00	  0.066693388	-1.594080E+02	  0.066693388	1.699700E+01	  0.066693388	-8.062000E+00
235	  0.066893786	-5.951000E+00	  0.066893786	-1.604630E+02	  0.066893786	1.692400E+01	  0.066893786	-7.646000E+00
236	  0.067094192	-5.943000E+00	  0.067094192	-1.614980E+02	  0.067094192	1.685700E+01	  0.067094192	-7.239000E+00
237	  0.067294590	-5.937000E+00	  0.067294590	-1.625400E+02	  0.067294590	1.679900E+01	  0.067294590	-6.828000E+00
238	  0.067494988	-5.930000E+00	  0.067494988	-1.635770E+02	  0.067494988	1.674000E+01	  0.067494988	-6.421000E+00
239	  0.067695394	-5.925000E+00	  0.067695394	-1.646020E+02	  0.067695394	1.668900E+01	  0.067695394	-6.018000E+00
240	  0.067895792	-5.922000E+00	  0.067895792	-1.656480E+02	  0.067895792	1.664600E+01	  0.067895792	-5.607000E+00
241	  0.068096191	-5.915000E+00	  0.068096191	-1.666950E+02	  0.068096191	1.659500E+01	  0.068096191	-5.196000E+00
242	  0.068296596	-5.914000E+00	  0.068296596	-1.677200E+02	  0.068296596	1.656300E+01	  0.068296596	-4.794000E+00
243	  0.068496995	-5.912000E+00	  0.068496995	-1.687280E+02	  0.068496995	1.653200E+01	  0.068496995	-4.399000E+00
244	  0.068697393	-5.905000E+00	  0.068697393	-1.697770E+02	  0.068697393	1.648700E+01	  0.068697393	-3.989000E+00
245	  0.068897791	-5.902000E+00	  0.068897791	-1.708020E+02	  0.068897791	1.645800E+01	  0.068897791	-3.588000E+00
246	  0.069098189	-5.898000E+00	  0.069098189	-1.718200E+02	  0.069098189	1.642700E+01	  0.069098189	-3.190000E+00
247	  0.069298595	-5.894000E+00	  0.069298595	-1.728600E+02	  0.069298595	1.640100E+01	  0.069298595	-2.784000E+00
248	  0.069498993	-5.892000E+00	  0.069498993	-1.739130E+02	  0.069498993	1.637800E+01	  0.069498993	-2.373000E+00
249	  0.069699399	-5.893000E+00	  0.069699399	-1.749120E+02	  0.069699399	1.637000E+01	  0.069699399	-1.983000E+00
250	  0.069899797	-5.889000E+00	  0.069899797	-1.759270E+02	  0.069899797	1.634800E+01	  0.069899797	-1.587000E+00
251	  0.070100196	-5.890000E+00	  0.070100196	-1.769150E+02	  0.070100196	1.634300E+01	  0.070100196	-1.202000E+00
252	  0.070300601	-5.888000E+00	  0.070300601	-1.779260E+02	  0.070300601	1.633300E+01	  0.070300601	-8.080000E-01
253	  0.070501000	-5.886000E+00	  0.070501000	-1.789360E+02	  0.070501000	1.632200E+01	  0.070501000	-4.140000E-01
254	  0.070701398	-5.883000E+00	  0.070701398	-1.799430E+02	  0.070701398	1.631400E+01	  0.070701398	-2.200000E-02
255	  0.070901804	-5.880000E+00	  0.070901804	1.790670E+02	  0.070901804	1.630900E+01	  0.070901804	3.630000E-01
256	  0.071102202	-5.882000E+00	  0.071102202	1.780520E+02	  0.071102202	1.631600E+01	  0.071102202	7.590000E-01
257	  0.071302600	-5.881000E+00	  0.071302600	1.770400E+02	  0.071302600	1.631900E+01	  0.071302600	1.153000E+00
258	  0.071503006	-5.880000E+00	  0.071503006	1.760830E+02	  0.071503006	1.632300E+01	  0.071503006	1.527000E+00
259	  0.071703404	-5.880000E+00	  0.071703404	1.751050E+02	  0.071703404	1.633400E+01	  0.071703404	1.909000E+00
260	  0.071903802	-5.883000E+00	  0.071903802	1.741200E+02	  0.071903802	1.635400E+01	  0.071903802	2.293000E+00
261	  0.072104208	-5.883000E+00	  0.072104208	1.731430E+02	  0.072104208	1.636700E+01	  0.072104208	2.675000E+00
262	  0.072304606	-5.887000E+00	  0.072304606	1.721710E+02	  0.072304606	1.639400E+01	  0.072304606	3.055000E+00
263	  0.072505005	-5.885000E+00	  0.072505005	1.712250E+02	  0.072505005	1.640600E+01	  0.072505005	3.425000E+00
264	  0.072705410	-5.887000E+00	  0.072705410	1.702470E+02	  0.072705410	1.643100E+01	  0.072705410	3.807000E+00
265	  0.072905809	-5.892000E+00	  0.072905809	1.693000E+02	  0.072905809	1.646600E+01	  0.072905809	4.178000E+00
266	  0.073106214	-5.893000E+00	  0.073106214	1.683400E+02	  0.073106214	1.649100E+01	  0.073106214	4.554000E+00
267	  0.073306613	-5.896000E+00	  0.073306613	1.673750E+02	  0.073306613	1.652700E+01	  0.073306613	4.932000E+00
268	  0.073507011	-5.902000E+00	  0.073507011	1.664290E+02	  0.073507011	1.656900E+01	  0.073507011	5.304000E+00
269	  0.073707417	-5.905000E+00	  0.073707417	1.654800E+02	  0.073707417	1.660700E+01	  0.073707417	5.676000E+00
270	  0.073907815	-5.908000E+00	  0.073907815	1.645380E+02	  0.073907815	1.664800E+01	  0.073907815	6.047000E+00
271	  0.074108213	-5.911000E+00	  0.074108213	1.636270E+02	  0.074108213	1.668800E+01	  0.074108213	6.406000E+00
272	  0.074308619	-5.920000E+00	  0.074308619	1.626790E+02	  0.074308619	1.674800E+01	  0.074308619	6.778000E+00
273	  0.074509017	-5.925000E+00	  0.074509017	1.617450E+02	  0.074509017	1.679900E+01	  0.074509017	7.146000E+00
274	  0.074709415	-5.932000E+00	  0.074709415	1.608060E+02	  0.074709415	1.685700E+01	  0.074709415	7.516000E+00
275	  0.074909821	-5.940000E+00	  0.074909821	1.598850E+02	  0.074909821	1.692000E+01	  0.074909821	7.880000E+00
276	  0.075110219	-5.946000E+00	  0.075110219	1.589430E+02	  0.075110219	1.698200E+01	  0.075110219	8.252000E+00
277	  0.075310618	-5.950000E+00	  0.075310618	1.580300E+02	  0.075310618	1.703700E+01	  0.075310618	8.615000E+00
278	  0.075511023	-5.959000E+00	  0.075511023	1.571450E+02	  0.075511023	1.710900E+01	  0.075511023	8.964000E+00
279	  0.075711422	-5.963000E+00	  0.075711422	1.562220E+02	  0.075711422	1.717000E+01	  0.075711422	9.331000E+00
280	  0.075911827	-5.972000E+00	  0.075911827	1.553090E+02	  0.075911827	1.724600E+01	  0.075911827	9.694000E+00
281	  0.076112226	-5.981000E+00	  0.076112226	1.543920E+02	  0.076112226	1.732300E+01	  0.076112226	1.005800E+01
282	  0.076312624	-5.992000E+00	  0.076312624	1.534450E+02	  0.076312624	1.741100E+01	  0.076312624	1.043400E+01
283	  0.076513030	-6.000000E+00	  0.076513030	1.525680E+02	  0.076513030	1.748900E+01	  0.076513030	1.078400E+01
284	  0.076713428	-6.011000E+00	  0.076713428	1.516590E+02	  0.076713428	1.758000E+01	  0.076713428	1.114600E+01
285	  0.076913826	-6.020000E+00	  0.076913826	1.507540E+02	  0.076913826	1.766700E+01	  0.076913826	1.150800E+01
286	  0.077114232	-6.029000E+00	  0.077114232	1.498630E+02	  0.077114232	1.775700E+01	  0.077114232	1.186500E+01
287	  0.077314630	-6.040000E+00	  0.077314630	1.489790E+02	  0.077314630	1.785000E+01	  0.077314630	1.221900E+01
288	  0.077515028	-6.052000E+00	  0.077515028	1.480750E+02	  0.077515028	1.795300E+01	  0.077515028	1.258100E+01
289	  0.077715434	-6.066000E+00	  0.077715434	1.471850E+02	  0.077715434	1.806200E+01	  0.077715434	1.293700E+01
290	  0.077915832	-6.073000E+00	  0.077915832	1.463030E+02	  0.077915832	1.815400E+01	  0.077915832	1.329400E+01
291	  0.078116231	-6.088000E+00	  0.078116231	1.454190E+02	  0.078116231	1.827000E+01	  0.078116231	1.364800E+01
292	  0.078316636	-6.100000E+00	  0.078316636	1.445240E+02	  0.078316636	1.838300E+01	  0.078316636	1.400900E+01
293	  0.078517035	-6.111000E+00	  0.078517035	1.436340E+02	  0.078517035	1.849400E+01	  0.078517035	1.436900E+01
294	  0.078717433	-6.127000E+00	  0.078717433	1.427620E+02	  0.078717433	1.862000E+01	  0.078717433	1.471900E+01
295	  0.078917839	-6.142000E+00	  0.078917839	1.418950E+02	  0.078917839	1.874400E+01	  0.078917839	1.506900E+01
296	  0.079118237	-6.154000E+00	  0.079118237	1.410430E+02	  0.079118237	1.886200E+01	  0.079118237	1.541500E+01
297	  0.079318643	-6.170000E+00	  0.079318643	1.401950E+02	  0.079318643	1.899500E+01	  0.079318643	1.575600E+01
298	  0.079519041	-6.182000E+00	  0.079519041	1.393190E+02	  0.079519041	1.911900E+01	  0.079519041	1.611400E+01
299	  0.079719439	-6.201000E+00	  0.079719439	1.384740E+02	  0.079719439	1.926400E+01	  0.079719439	1.645400E+01
300	  0.079919845	-6.218000E+00	  0.079919845	1.376050E+02	  0.079919845	1.940900E+01	  0.079919845	1.680500E+01
301	  0.080120243	-6.230000E+00	  0.080120243	1.367420E+02	  0.080120243	1.954100E+01	  0.080120243	1.715900E+01
302	  0.080320641	-6.249000E+00	  0.080320641	1.358910E+02	  0.080320641	1.969600E+01	  0.080320641	1.750300E+01
303	  0.080521047	-6.266000E+00	  0.080521047	1.350550E+02	  0.080521047	1.984500E+01	  0.080521047	1.784300E+01
304	  0.080721445	-6.284000E+00	  0.080721445	1.342180E+02	  0.080721445	1.999900E+01	  0.080721445	1.818300E+01
305	  0.080921844	-6.301000E+00	  0.080921844	1.333630E+02	  0.080921844	2.015800E+01	  0.080921844	1.853100E+01
306	  0.081122249	-6.320000E+00	  0.081122249	1.325460E+02	  0.081122249	2.031800E+01	  0.081122249	1.886300E+01
307	  0.081322648	-6.342000E+00	  0.081322648	1.317420E+02	  0.081322648	2.048900E+01	  0.081322648	1.918600E+01
308	  0.081523046	-6.360000E+00	  0.081523046	1.308850E+02	  0.081523046	2.066100E+01	  0.081523046	1.953600E+01
309	  0.081723452	-6.376000E+00	  0.081723452	1.300510E+02	  0.081723452	2.082400E+01	  0.081723452	1.987900E+01
310	  0.081923850	-6.394000E+00	  0.081923850	1.292540E+02	  0.081923850	2.099200E+01	  0.081923850	2.020500E+01
311	  0.082124248	-6.414000E+00	  0.082124248	1.284370E+02	  0.082124248	2.117300E+01	  0.082124248	2.053600E+01
312	  0.082324654	-6.433000E+00	  0.082324654	1.276330E+02	  0.082324654	2.134900E+01	  0.082324654	2.086500E+01
313	  0.082525052	-6.455000E+00	  0.082525052	1.268540E+02	  0.082525052	2.153400E+01	  0.082525052	2.118000E+01
314	  0.082725458	-6.476000E+00	  0.082725458	1.260720E+02	  0.082725458	2.172000E+01	  0.082725458	2.149700E+01
315	  0.082925856	-6.502000E+00	  0.082925856	1.253060E+02	  0.082925856	2.192100E+01	  0.082925856	2.180200E+01
316	  0.083126254	-6.524000E+00	  0.083126254	1.244560E+02	  0.083126254	2.213000E+01	  0.083126254	2.214800E+01
317	  0.083326660	-6.547000E+00	  0.083326660	1.236960E+02	  0.083326660	2.232600E+01	  0.083326660	2.245400E+01
318	  0.083527058	-6.570000E+00	  0.083527058	1.229100E+02	  0.083527058	2.253200E+01	  0.083527058	2.277100E+01
319	  0.083727457	-6.598000E+00	  0.083727457	1.221240E+02	  0.083727457	2.275500E+01	  0.083727457	2.308300E+01
320	  0.083927862	-6.625000E+00	  0.083927862	1.213610E+02	  0.083927862	2.297400E+01	  0.083927862	2.338500E+01
321	  0.084128261	-6.649000E+00	  0.084128261	1.206130E+02	  0.084128261	2.318500E+01	  0.084128261	2.368400E+01
322	  0.084328659	-6.676000E+00	  0.084328659	1.198610E+02	  0.084328659	2.341000E+01	  0.084328659	2.398100E+01
323	  0.084529065	-6.699000E+00	  0.084529065	1.191130E+02	  0.084529065	2.362700E+01	  0.084529065	2.428000E+01
324	  0.084729463	-6.730000E+00	  0.084729463	1.183470E+02	  0.084729463	2.387200E+01	  0.084729463	2.457800E+01
325	  0.084929854	-6.757000E+00	  0.084929854	1.175970E+02	  0.084929854	2.410500E+01	  0.084929854	2.487300E+01
326	  0.085130259	-6.783000E+00	  0.085130259	1.168500E+02	  0.085130259	2.433900E+01	  0.085130259	2.516800E+01
327	  0.085330658	-6.812000E+00	  0.085330658	1.161220E+02	  0.085330658	2.458100E+01	  0.085330658	2.545000E+01
328	  0.085531056	-6.844000E+00	  0.085531056	1.154030E+02	  0.085531056	2.483500E+01	  0.085531056	2.572200E+01
329	  0.085731462	-6.875000E+00	  0.085731462	1.146950E+02	  0.085731462	2.508400E+01	  0.085731462	2.599100E+01
330	  0.085931860	-6.902000E+00	  0.085931860	1.139910E+02	  0.085931860	2.532600E+01	  0.085931860	2.626200E+01
331	  0.086132258	-6.932000E+00	  0.086132258	1.133330E+02	  0.086132258	2.556700E+01	  0.086132258	2.650900E+01
332	  0.086332664	-6.959000E+00	  0.086332664	1.126480E+02	  0.086332664	2.581100E+01	  0.086332664	2.677100E+01
333	  0.086533062	-6.990000E+00	  0.086533062	1.119470E+02	  0.086533062	2.607100E+01	  0.086533062	2.703400E+01
334	  0.086733460	-7.013000E+00	  0.086733460	1.113130E+02	  0.086733460	2.629700E+01	  0.086733460	2.727800E+01
335	  0.086933866	-7.040000E+00	  0.086933866	1.106800E+02	  0.086933866	2.653600E+01	  0.086933866	2.751600E+01
336	  0.087134264	-7.068000E+00	  0.087134264	1.100220E+02	  0.087134264	2.679000E+01	  0.087134264	2.776000E+01
337	  0.087334670	-7.091000E+00	  0.087334670	1.094000E+02	  0.087334670	2.701700E+01	  0.087334670	2.799900E+01
338	  0.087535068	-7.110000E+00	  0.087535068	1.087750E+02	  0.087535068	2.724000E+01	  0.087535068	2.824400E+01
339	  0.087735467	-7.125000E+00	  0.087735467	1.081640E+02	  0.087735467	2.745000E+01	  0.087735467	2.849000E+01
340	  0.087935872	-7.144000E+00	  0.087935872	1.075200E+02	  0.087935872	2.768400E+01	  0.087935872	2.874300E+01
341	  0.088136271	-7.157000E+00	  0.088136271	1.068740E+02	  0.088136271	2.790200E+01	  0.088136271	2.900800E+01
342	  0.088336669	-7.167000E+00	  0.088336669	1.062200E+02	  0.088336669	2.811800E+01	  0.088336669	2.928200E+01
343	  0.088537075	-7.177000E+00	  0.088537075	1.055470E+02	  0.088537075	2.834400E+01	  0.088537075	2.956400E+01
344	  0.088737473	-7.187000E+00	  0.088737473	1.048610E+02	  0.088737473	2.857700E+01	  0.088737473	2.985200E+01
345	  0.088937871	-7.199000E+00	  0.088937871	1.041570E+02	  0.088937871	2.882200E+01	  0.088937871	3.014600E+01
346	  0.089138277	-7.210000E+00	  0.089138277	1.034420E+02	  0.089138277	2.907600E+01	  0.089138277	3.044400E+01
347	  0.089338675	-7.228000E+00	  0.089338675	1.027570E+02	  0.089338675	2.934300E+01	  0.089338675	3.071600E+01
348	  0.089539073	-7.247000E+00	  0.089539073	1.020250E+02	  0.089539073	2.963100E+01	  0.089539073	3.100700E+01
349	  0.089739479	-7.270000E+00	  0.089739479	1.013150E+02	  0.089739479	2.992800E+01	  0.089739479	3.127900E+01
350	  0.089939877	-7.287000E+00	  0.089939877	1.006140E+02	  0.089939877	3.021000E+01	  0.089939877	3.155700E+01
351	  0.090140276	-7.313000E+00	  0.090140276	9.989400E+01	  0.090140276	3.052900E+01	  0.090140276	3.182400E+01
352	  0.090340681	-7.335000E+00	  0.090340681	9.919200E+01	  0.090340681	3.083700E+01	  0.090340681	3.208900E+01
353	  0.090541080	-7.361000E+00	  0.090541080	9.849500E+01	  0.090541080	3.115500E+01	  0.090541080	3.234500E+01
354	  0.090741485	-7.388000E+00	  0.090741485	9.781000E+01	  0.090741485	3.147800E+01	  0.090741485	3.259000E+01
355	  0.090941884	-7.414000E+00	  0.090941884	9.713600E+01	  0.090941884	3.180000E+01	  0.090941884	3.282800E+01
356	  0.091142282	-7.448000E+00	  0.091142282	9.647300E+01	  0.091142282	3.214500E+01	  0.091142282	3.304100E+01
357	  0.091342688	-7.476000E+00	  0.091342688	9.578900E+01	  0.091342688	3.248200E+01	  0.091342688	3.327900E+01
358	  0.091543086	-7.507000E+00	  0.091543086	9.512900E+01	  0.091543086	3.282200E+01	  0.091543086	3.349600E+01
359	  0.091743484	-7.538000E+00	  0.091743484	9.446000E+01	  0.091743484	3.317300E+01	  0.091743484	3.371200E+01
360	  0.091943890	-7.567000E+00	  0.091943890	9.380800E+01	  0.091943890	3.351500E+01	  0.091943890	3.392400E+01
361	  0.092144288	-7.599000E+00	  0.092144288	9.316000E+01	  0.092144288	3.386600E+01	  0.092144288	3.412500E+01
362	  0.092344686	-7.628000E+00	  0.092344686	9.250900E+01	  0.092344686	3.421600E+01	  0.092344686	3.433300E+01
363	  0.092545092	-7.663000E+00	  0.092545092	9.190200E+01	  0.092545092	3.456800E+01	  0.092545092	3.450200E+01
364	  0.092745490	-7.699000E+00	  0.092745490	9.124600E+01	  0.092745490	3.494700E+01	  0.092745490	3.468700E+01
365	  0.092945889	-7.735000E+00	  0.092945889	9.068500E+01	  0.092945889	3.528800E+01	  0.092945889	3.482800E+01
366	  0.093146294	-7.765000E+00	  0.093146294	9.003000E+01	  0.093146294	3.565600E+01	  0.093146294	3.502500E+01
367	  0.093346693	-7.802000E+00	  0.093346693	8.946700E+01	  0.093346693	3.600700E+01	  0.093346693	3.515800E+01
368	  0.093547091	-7.834000E+00	  0.093547091	8.886400E+01	  0.093547091	3.636500E+01	  0.093547091	3.532000E+01
369	  0.093747497	-7.870000E+00	  0.093747497	8.826800E+01	  0.093747497	3.673200E+01	  0.093747497	3.546600E+01
370	  0.093947895	-7.902000E+00	  0.093947895	8.766600E+01	  0.093947895	3.709800E+01	  0.093947895	3.562100E+01
371	  0.094148301	-7.943000E+00	  0.094148301	8.707600E+01	  0.094148301	3.748400E+01	  0.094148301	3.574100E+01
372	  0.094348699	-7.974000E+00	  0.094348699	8.653100E+01	  0.094348699	3.782500E+01	  0.094348699	3.586900E+01
373	  0.094549097	-8.014000E+00	  0.094549097	8.595800E+01	  0.094549097	3.820600E+01	  0.094549097	3.597900E+01
374	  0.094749503	-8.042000E+00	  0.094749503	8.541300E+01	  0.094749503	3.854600E+01	  0.094749503	3.610900E+01
375	  0.094949901	-8.080000E+00	  0.094949901	8.485300E+01	  0.094949901	3.891800E+01	  0.094949901	3.621400E+01
376	  0.095150299	-8.115000E+00	  0.095150299	8.427300E+01	  0.095150299	3.929900E+01	  0.095150299	3.633000E+01
377	  0.095350705	-8.153000E+00	  0.095350705	8.374200E+01	  0.095350705	3.966500E+01	  0.095350705	3.641300E+01
378	  0.095551103	-8.189000E+00	  0.095551103	8.317600E+01	  0.095551103	4.004500E+01	  0.095551103	3.651400E+01
379	  0.095751502	-8.223000E+00	  0.095751502	8.265600E+01	  0.095751502	4.039800E+01	  0.095751502	3.660100E+01
380	  0.095951907	-8.258000E+00	  0.095951907	8.217000E+01	  0.095951907	4.073800E+01	  0.095951907	3.666800E+01
381	  0.096152306	-8.293000E+00	  0.096152306	8.162900E+01	  0.096152306	4.110800E+01	  0.096152306	3.675300E+01
382	  0.096352704	-8.330000E+00	  0.096352704	8.110900E+01	  0.096352704	4.147800E+01	  0.096352704	3.681600E+01
383	  0.096553110	-8.355000E+00	  0.096553110	8.062800E+01	  0.096553110	4.179600E+01	  0.096553110	3.690700E+01
384	  0.096753508	-8.393000E+00	  0.096753508	8.015000E+01	  0.096753508	4.214700E+01	  0.096753508	3.694600E+01
385	  0.096953906	-8.429000E+00	  0.096953906	7.964300E+01	  0.096953906	4.250900E+01	  0.096953906	3.700100E+01
386	  0.097154312	-8.464000E+00	  0.097154312	7.916300E+01	  0.097154312	4.285600E+01	  0.097154312	3.704600E+01
387	  0.097354710	-8.496000E+00	  0.097354710	7.867100E+01	  0.097354710	4.320500E+01	  0.097354710	3.710100E+01
388	  0.097555116	-8.531000E+00	  0.097555116	7.821600E+01	  0.097555116	4.354200E+01	  0.097555116	3.712900E+01
389	  0.097755514	-8.567000E+00	  0.097755514	7.776300E+01	  0.097755514	4.387900E+01	  0.097755514	3.715200E+01
390	  0.097955912	-8.596000E+00	  0.097955912	7.734000E+01	  0.097955912	4.418500E+01	  0.097955912	3.718600E+01
391	  0.098156318	-8.627000E+00	  0.098156318	7.691300E+01	  0.098156318	4.450000E+01	  0.098156318	3.721200E+01
392	  0.098356716	-8.658000E+00	  0.098356716	7.646600E+01	  0.098356716	4.482800E+01	  0.098356716	3.723900E+01
393	  0.098557115	-8.688000E+00	  0.098557115	7.607600E+01	  0.098557115	4.512000E+01	  0.098557115	3.725200E+01
394	  0.098757520	-8.723000E+00	  0.098757520	7.563700E+01	  0.098757520	4.545200E+01	  0.098757520	3.725600E+01
395	  0.098957919	-8.752000E+00	  0.098957919	7.521500E+01	  0.098957919	4.576300E+01	  0.098957919	3.727600E+01
396	  0.099158317	-8.779000E+00	  0.099158317	7.480700E+01	  0.099158317	4.606300E+01	  0.099158317	3.729500E+01
397	  0.099358723	-8.806000E+00	  0.099358723	7.440200E+01	  0.099358723	4.636100E+01	  0.099358723	3.731200E+01
398	  0.099559121	-8.832000E+00	  0.099559121	7.400500E+01	  0.099559121	4.665400E+01	  0.099559121	3.732700E+01
399	  0.099759519	-8.862000E+00	  0.099759519	7.363400E+01	  0.099759519	4.693800E+01	  0.099759519	3.731900E+01
400	  0.099959925	-8.884000E+00	  0.099959925	7.323200E+01	  0.099959925	4.722800E+01	  0.099959925	3.734500E+01
401	  0.100160323	-8.899000E+00	  0.100160323	7.292700E+01	  0.100160323	4.744400E+01	  0.100160323	3.737300E+01
402	  0.100360721	-8.926000E+00	  0.100360721	7.251600E+01	  0.100360721	4.774900E+01	  0.100360721	3.738100E+01
403	  0.100561127	-8.952000E+00	  0.100561127	7.214600E+01	  0.100561127	4.802900E+01	  0.100561127	3.737600E+01
404	  0.100761525	-8.972000E+00	  0.100761525	7.179400E+01	  0.100761525	4.828700E+01	  0.100761525	3.739100E+01
405	  0.100961931	-8.991000E+00	  0.100961931	7.145700E+01	  0.100961931	4.853400E+01	  0.100961931	3.740100E+01
406	  0.101162329	-9.007000E+00	  0.101162329	7.114200E+01	  0.101162329	4.876100E+01	  0.101162329	3.742100E+01
407	  0.101362728	-9.033000E+00	  0.101362728	7.074700E+01	  0.101362728	4.906000E+01	  0.101362728	3.741300E+01
408	  0.101563133	-9.050000E+00	  0.101563133	7.040700E+01	  0.101563133	4.930700E+01	  0.101563133	3.743200E+01
409	  0.101763532	-9.057000E+00	  0.101763532	7.003600E+01	  0.101763532	4.955800E+01	  0.101763532	3.749500E+01
410	  0.101963930	-9.072000E+00	  0.101963930	6.974300E+01	  0.101963930	4.977400E+01	  0.101963930	3.750500E+01
411	  0.102164328	-9.087000E+00	  0.102164328	6.937400E+01	  0.102164328	5.004000E+01	  0.102164328	3.753000E+01
412	  0.102364726	-9.104000E+00	  0.102364726	6.901800E+01	  0.102364726	5.030000E+01	  0.102364726	3.754600E+01
413	  0.102565125	-9.109000E+00	  0.102565125	6.865300E+01	  0.102565125	5.055000E+01	  0.102565125	3.760900E+01
414	  0.102765530	-9.117000E+00	  0.102765530	6.835600E+01	  0.102765530	5.076000E+01	  0.102765530	3.764400E+01
415	  0.102965929	-9.122000E+00	  0.102965929	6.798200E+01	  0.102965929	5.101900E+01	  0.102965929	3.770700E+01
416	  0.103166327	-9.125000E+00	  0.103166327	6.767400E+01	  0.103166327	5.123000E+01	  0.103166327	3.776600E+01
417	  0.103366733	-9.126000E+00	  0.103366733	6.732100E+01	  0.103366733	5.147100E+01	  0.103366733	3.784000E+01
418	  0.103567131	-9.125000E+00	  0.103567131	6.698700E+01	  0.103567131	5.169800E+01	  0.103567131	3.791900E+01
419	  0.103767529	-9.127000E+00	  0.103767529	6.660400E+01	  0.103767529	5.196300E+01	  0.103767529	3.799400E+01
420	  0.103967935	-9.130000E+00	  0.103967935	6.622200E+01	  0.103967935	5.223200E+01	  0.103967935	3.806100E+01
421	  0.104168333	-9.131000E+00	  0.104168333	6.591400E+01	  0.104168333	5.244700E+01	  0.104168333	3.812500E+01
422	  0.104368731	-9.130000E+00	  0.104368731	6.553700E+01	  0.104368731	5.271000E+01	  0.104368731	3.820800E+01
423	  0.104569137	-9.124000E+00	  0.104569137	6.514300E+01	  0.104569137	5.298000E+01	  0.104569137	3.831600E+01
424	  0.104769535	-9.122000E+00	  0.104769535	6.483600E+01	  0.104769535	5.319500E+01	  0.104769535	3.838800E+01
425	  0.104969934	-9.107000E+00	  0.104969934	6.444700E+01	  0.104969934	5.345500E+01	  0.104969934	3.853300E+01
426	  0.105170339	-9.100000E+00	  0.105170339	6.407000E+01	  0.105170339	5.371700E+01	  0.105170339	3.864100E+01
427	  0.105370738	-9.078000E+00	  0.105370738	6.366500E+01	  0.105370738	5.398400E+01	  0.105370738	3.882500E+01
428	  0.105571143	-9.074000E+00	  0.105571143	6.326600E+01	  0.105571143	5.427200E+01	  0.105571143	3.891900E+01
429	  0.105771542	-9.061000E+00	  0.105771542	6.280800E+01	  0.105771542	5.459600E+01	  0.105771542	3.906900E+01
430	  0.105971940	-9.043000E+00	  0.105971940	6.243600E+01	  0.105971940	5.485300E+01	  0.105971940	3.922100E+01
431	  0.106172346	-9.032000E+00	  0.106172346	6.202300E+01	  0.106172346	5.515200E+01	  0.106172346	3.935000E+01
432	  0.106372744	-9.021000E+00	  0.106372744	6.160500E+01	  0.106372744	5.545800E+01	  0.106372744	3.947700E+01
433	  0.106573142	-9.004000E+00	  0.106573142	6.111900E+01	  0.106573142	5.581200E+01	  0.106573142	3.964600E+01
434	  0.106773548	-8.989000E+00	  0.106773548	6.065300E+01	  0.106773548	5.615700E+01	  0.106773548	3.979900E+01
435	  0.106973946	-8.967000E+00	  0.106973946	6.014200E+01	  0.106973946	5.653500E+01	  0.106973946	3.999500E+01
436	  0.107174344	-8.948000E+00	  0.107174344	5.975100E+01	  0.107174344	5.682500E+01	  0.107174344	4.015900E+01
437	  0.107374750	-8.927000E+00	  0.107374750	5.920600E+01	  0.107374750	5.724100E+01	  0.107374750	4.035200E+01
438	  0.107575148	-8.900000E+00	  0.107575148	5.867600E+01	  0.107575148	5.764500E+01	  0.107575148	4.057000E+01
439	  0.107775547	-8.871000E+00	  0.107775547	5.816900E+01	  0.107775547	5.803500E+01	  0.107775547	4.080000E+01
440	  0.107975952	-8.861000E+00	  0.107975952	5.767500E+01	  0.107975952	5.843600E+01	  0.107975952	4.092100E+01
441	  0.108176351	-8.834000E+00	  0.108176351	5.715200E+01	  0.108176351	5.885200E+01	  0.108176351	4.113900E+01
442	  0.108376749	-8.815000E+00	  0.108376749	5.660100E+01	  0.108376749	5.930400E+01	  0.108376749	4.131700E+01
443	  0.108577155	-8.796000E+00	  0.108577155	5.602400E+01	  0.108577155	5.978700E+01	  0.108577155	4.149100E+01
444	  0.108777553	-8.774000E+00	  0.108777553	5.544700E+01	  0.108777553	6.027400E+01	  0.108777553	4.168000E+01
445	  0.108977959	-8.752000E+00	  0.108977959	5.484500E+01	  0.108977959	6.079000E+01	  0.108977959	4.187300E+01
446	  0.109178357	-8.731000E+00	  0.109178357	5.420600E+01	  0.109178357	6.134900E+01	  0.109178357	4.205100E+01
447	  0.109378755	-8.710000E+00	  0.109378755	5.359500E+01	  0.109378755	6.189100E+01	  0.109378755	4.222700E+01
448	  0.109579161	-8.697000E+00	  0.109579161	5.295800E+01	  0.109579161	6.247000E+01	  0.109579161	4.235700E+01
449	  0.109779559	-8.676000E+00	  0.109779559	5.230400E+01	  0.109779559	6.307000E+01	  0.109779559	4.252600E+01
450	  0.109979957	-8.656000E+00	  0.109979957	5.166500E+01	  0.109979957	6.366500E+01	  0.109979957	4.268100E+01
451	  0.110180363	-8.641000E+00	  0.110180363	5.097300E+01	  0.110180363	6.432100E+01	  0.110180363	4.280600E+01
452	  0.110380761	-8.628000E+00	  0.110380761	5.027500E+01	  0.110380761	6.499400E+01	  0.110380761	4.290400E+01
453	  0.110581160	-8.610000E+00	  0.110581160	4.956800E+01	  0.110581160	6.568500E+01	  0.110581160	4.303000E+01
454	  0.110781565	-8.598000E+00	  0.110781565	4.891800E+01	  0.110781565	6.633000E+01	  0.110781565	4.311200E+01
455	  0.110981964	-8.598000E+00	  0.110981964	4.816200E+01	  0.110981964	6.709000E+01	  0.110981964	4.309600E+01
456	  0.111182362	-8.586000E+00	  0.111182362	4.746700E+01	  0.111182362	6.779700E+01	  0.111182362	4.315400E+01
457	  0.111382768	-8.572000E+00	  0.111382768	4.674800E+01	  0.111382768	6.854100E+01	  0.111382768	4.321600E+01
458	  0.111583166	-8.568000E+00	  0.111583166	4.599800E+01	  0.111583166	6.932200E+01	  0.111583166	4.319500E+01
459	  0.111783572	-8.565000E+00	  0.111783572	4.527000E+01	  0.111783572	7.008900E+01	  0.111783572	4.315000E+01
460	  0.111983970	-8.562000E+00	  0.111983970	4.455000E+01	  0.111983970	7.085500E+01	  0.111983970	4.309700E+01
461	  0.112184368	-8.554000E+00	  0.112184368	4.373700E+01	  0.112184368	7.173300E+01	  0.112184368	4.304600E+01
462	  0.112384774	-8.551000E+00	  0.112384774	4.298700E+01	  0.112384774	7.254800E+01	  0.112384774	4.295600E+01
463	  0.112585172	-8.556000E+00	  0.112585172	4.220000E+01	  0.112585172	7.340200E+01	  0.112585172	4.278800E+01
464	  0.112785570	-8.555000E+00	  0.112785570	4.141000E+01	  0.112785570	7.427300E+01	  0.112785570	4.264200E+01
465	  0.112985976	-8.558000E+00	  0.112985976	4.063300E+01	  0.112985976	7.513100E+01	  0.112985976	4.244600E+01
466	  0.113186374	-8.563000E+00	  0.113186374	3.984600E+01	  0.113186374	7.600100E+01	  0.113186374	4.221200E+01
467	  0.113386773	-8.570000E+00	  0.113386773	3.903300E+01	  0.113386773	7.690200E+01	  0.113386773	4.194000E+01
468	  0.113587178	-8.573000E+00	  0.113587178	3.820300E+01	  0.113587178	7.783200E+01	  0.113587178	4.166100E+01
469	  0.113787577	-8.581000E+00	  0.113787577	3.741100E+01	  0.113787577	7.871400E+01	  0.113787577	4.134300E+01
470	  0.113987975	-8.589000E+00	  0.113987975	3.658400E+01	  0.113987975	7.963600E+01	  0.113987975	4.098500E+01
471	  0.114188381	-8.591000E+00	  0.114188381	3.574900E+01	  0.114188381	8.058300E+01	  0.114188381	4.063700E+01
472	  0.114388779	-8.599000E+00	  0.114388779	3.491200E+01	  0.114388779	8.151700E+01	  0.114388779	4.022100E+01
473	  0.114589177	-8.610000E+00	  0.114589177	3.409600E+01	  0.114589177	8.241700E+01	  0.114589177	3.976400E+01
474	  0.114789583	-8.621000E+00	  0.114789583	3.325600E+01	  0.114789583	8.334300E+01	  0.114789583	3.927000E+01
475	  0.114989981	-8.630000E+00	  0.114989981	3.239700E+01	  0.114989981	8.429200E+01	  0.114989981	3.875200E+01
476	  0.115190387	-8.644000E+00	  0.115190387	3.148200E+01	  0.115190387	8.528100E+01	  0.115190387	3.813300E+01
477	  0.115390785	-8.657000E+00	  0.115390785	3.057800E+01	  0.115390785	8.625500E+01	  0.115390785	3.749900E+01
478	  0.115591183	-8.666000E+00	  0.115591183	2.968900E+01	  0.115591183	8.721900E+01	  0.115591183	3.686800E+01
479	  0.115791589	-8.688000E+00	  0.115791589	2.879000E+01	  0.115791589	8.812300E+01	  0.115791589	3.609900E+01
480	  0.115991987	-8.697000E+00	  0.115991987	2.784200E+01	  0.115991987	8.913200E+01	  0.115991987	3.536300E+01
481	  0.116192386	-8.713000E+00	  0.116192386	2.691500E+01	  0.116192386	9.006100E+01	  0.116192386	3.454400E+01
482	  0.116392791	-8.733000E+00	  0.116392791	2.591000E+01	  0.116392791	9.104400E+01	  0.116392791	3.361200E+01
483	  0.116593190	-8.758000E+00	  0.116593190	2.496100E+01	  0.116593190	9.190700E+01	  0.116593190	3.264200E+01
484	  0.116793588	-8.779000E+00	  0.116793588	2.392300E+01	  0.116793588	9.286300E+01	  0.116793588	3.159400E+01
485	  0.116993994	-8.803000E+00	  0.116993994	2.293900E+01	  0.116993994	9.371400E+01	  0.116993994	3.053400E+01
486	  0.117194392	-8.839000E+00	  0.117194392	2.191000E+01	  0.117194392	9.449700E+01	  0.117194392	2.931800E+01
487	  0.117394790	-8.870000E+00	  0.117394790	2.084400E+01	  0.117394790	9.530700E+01	  0.117394790	2.806600E+01
488	  0.117595196	-8.911000E+00	  0.117595196	1.981500E+01	  0.117595196	9.597500E+01	  0.117595196	2.676200E+01
489	  0.117795594	-8.945000E+00	  0.117795594	1.871700E+01	  0.117795594	9.670000E+01	  0.117795594	2.539800E+01
490	  0.117995992	-8.984000E+00	  0.117995992	1.762800E+01	  0.117995992	9.732300E+01	  0.117995992	2.398200E+01
491	  0.118196398	-9.027000E+00	  0.118196398	1.647100E+01	  0.118196398	9.791900E+01	  0.118196398	2.244800E+01
492	  0.118396796	-9.078000E+00	  0.118396796	1.534800E+01	  0.118396796	9.835800E+01	  0.118396796	2.089000E+01
493	  0.118597202	-9.129000E+00	  0.118597202	1.419200E+01	  0.118597202	9.875900E+01	  0.118597202	1.928400E+01
494	  0.118797600	-9.178000E+00	  0.118797600	1.302300E+01	  0.118797600	9.911700E+01	  0.118797600	1.766300E+01
