! Anritsu VNA Master:             	Model: MS2036C/10/77
! SN:             	1601066
! /bd0/18may10/256.ew.m3.txt
! Existing Calibration Information:
! TYPE:             	Current Settings	Active Cal Settings
! TIME:             	05/10/2018 10:14:53 AM	05/10/2018 10:05:08 AM
! INTERNAL TEMP:    	46.5 C	45.0 C
! # POINTS:         	494	494
! START FREQ:       	20.000 MHz	20.000 MHz
! STOP FREQ:        	118.797 594 MHz	118.797 594 MHz
! SOURCE POWER:     	High	High
! IFBW:             	50 Hz	50 Hz
! AVG FACTOR:       	  1 	  1 
! REF PLANE 1:      	0 mm	0 mm
! REF PLANE 2:      	0 mm	0 mm
! CAL TYPE:         	Full S22	Full S22
! CAL METHOD:       	SOLT	SOLT
! CAL LINE TYPE:    	Coax	Coax
! DUT PORT 1:       	K-Conn(M)	K-Conn(M)
! DUT PORT 2:       	K-Conn(M)	K-Conn(M)
! CAL STATUS:       	OK: Accuracy High	--
! PROP-V:       	0.700
! CABLE LOSS:       	0.000 dB/m
! REF IMPEDANCE:       	50.0
! Trace Specific Parameters:	TR1	TR2	TR3	TR4
! TRACE.#.Y (GRAPH TYPE)	LOG MAG	PHASE	REAL IMPEDANCE	IMAGINARY IMPEDANCE
! TRACE.#.X 	FREQ.GHZ	FREQ.GHZ	FREQ.GHZ	FREQ.GHZ
! S-PARAMETER	S22	S22	S22	S22
! SMOOTH/APERTURE %	0	0	0	0
! WINDOW	NSL	NSL	NSL	NSL
! GATING	OFF	OFF	OFF	OFF
! FGTD	OFF	OFF	OFF	OFF
Marker Information per Trace:	TR1	TR2	TR3	TR4
!MK1	--	"MK1 TR2:  20.000 MHz,PH:-126.97°"	--	--
!MK2	--	--	"MK2 TR3:  70.100 200 MHz,Z:(16.379 ohm, -1.339 ohm)"	--
!MK3	--	--	--	--
!MK4	--	--	--	--
!MK5	--	--	--	--
!MK6	--	--	--	--
!MK7	--	--	--	--
!MK8	--	--	--	--
PNT	TR1.FREQ.GHZ	TR1.LOG MAG.dB	TR2.FREQ.GHZ	TR2.PHASE.deg	TR3.FREQ.GHZ	TR3.REAL IMPEDANCE.ohm	TR4.FREQ.GHZ	TR4.IMAGINARY IMPEDANCE.ohm
1	  0.020000000	-6.150000E-01	  0.020000000	-1.269700E+02	  0.020000000	2.211000E+00	  0.020000000	-2.490600E+01
2	  0.020200402	-6.190000E-01	  0.020200402	-1.284250E+02	  0.020200402	2.198000E+00	  0.020200402	-2.411900E+01
3	  0.020400802	-6.250000E-01	  0.020400802	-1.298890E+02	  0.020400802	2.191000E+00	  0.020400802	-2.333700E+01
4	  0.020601204	-6.280000E-01	  0.020601204	-1.313830E+02	  0.020601204	2.177000E+00	  0.020601204	-2.254800E+01
5	  0.020801604	-6.320000E-01	  0.020801604	-1.329150E+02	  0.020801604	2.165000E+00	  0.020801604	-2.175000E+01
6	  0.021002004	-6.340000E-01	  0.021002004	-1.344420E+02	  0.021002004	2.146000E+00	  0.021002004	-2.096300E+01
7	  0.021202406	-6.410000E-01	  0.021202406	-1.359790E+02	  0.021202406	2.147000E+00	  0.021202406	-2.017900E+01
8	  0.021402806	-6.430000E-01	  0.021402806	-1.375120E+02	  0.021402806	2.131000E+00	  0.021402806	-1.940700E+01
9	  0.021603208	-6.470000E-01	  0.021603208	-1.390300E+02	  0.021603208	2.123000E+00	  0.021603208	-1.864900E+01
10	  0.021803608	-6.530000E-01	  0.021803608	-1.405560E+02	  0.021803608	2.119000E+00	  0.021803608	-1.789500E+01
11	  0.022004008	-6.610000E-01	  0.022004008	-1.420980E+02	  0.022004008	2.126000E+00	  0.022004008	-1.714000E+01
12	  0.022204408	-6.660000E-01	  0.022204408	-1.436760E+02	  0.022204408	2.124000E+00	  0.022204408	-1.637500E+01
13	  0.022404809	-6.750000E-01	  0.022404809	-1.452670E+02	  0.022404809	2.134000E+00	  0.022404809	-1.561000E+01
14	  0.022605211	-6.830000E-01	  0.022605211	-1.468590E+02	  0.022605211	2.139000E+00	  0.022605211	-1.485200E+01
15	  0.022805611	-6.860000E-01	  0.022805611	-1.484590E+02	  0.022805611	2.132000E+00	  0.022805611	-1.409600E+01
16	  0.023006011	-6.910000E-01	  0.023006011	-1.500580E+02	  0.023006011	2.130000E+00	  0.023006011	-1.334700E+01
17	  0.023206413	-6.960000E-01	  0.023206413	-1.516580E+02	  0.023206413	2.132000E+00	  0.023206413	-1.260300E+01
18	  0.023406813	-7.030000E-01	  0.023406813	-1.532570E+02	  0.023406813	2.137000E+00	  0.023406813	-1.186400E+01
19	  0.023607215	-7.120000E-01	  0.023607215	-1.548660E+02	  0.023607215	2.152000E+00	  0.023607215	-1.112600E+01
20	  0.023807615	-7.230000E-01	  0.023807615	-1.565000E+02	  0.023807615	2.171000E+00	  0.023807615	-1.038000E+01
21	  0.024008015	-7.340000E-01	  0.024008015	-1.581410E+02	  0.024008015	2.191000E+00	  0.024008015	-9.637000E+00
22	  0.024208417	-7.410000E-01	  0.024208417	-1.598050E+02	  0.024208417	2.201000E+00	  0.024208417	-8.887000E+00
23	  0.024408817	-7.460000E-01	  0.024408817	-1.614760E+02	  0.024408817	2.205000E+00	  0.024408817	-8.138000E+00
24	  0.024609219	-7.570000E-01	  0.024609219	-1.631350E+02	  0.024609219	2.225000E+00	  0.024609219	-7.397000E+00
25	  0.024809619	-7.670000E-01	  0.024809619	-1.648080E+02	  0.024809619	2.245000E+00	  0.024809619	-6.654000E+00
26	  0.025010020	-7.780000E-01	  0.025010020	-1.664850E+02	  0.025010020	2.269000E+00	  0.025010020	-5.912000E+00
27	  0.025210422	-7.900000E-01	  0.025210422	-1.681690E+02	  0.025210422	2.297000E+00	  0.025210422	-5.169000E+00
28	  0.025410822	-8.030000E-01	  0.025410822	-1.698630E+02	  0.025410822	2.328000E+00	  0.025410822	-4.425000E+00
29	  0.025611224	-8.160000E-01	  0.025611224	-1.715760E+02	  0.025611224	2.360000E+00	  0.025611224	-3.673000E+00
30	  0.025811624	-8.280000E-01	  0.025811624	-1.732920E+02	  0.025811624	2.390000E+00	  0.025811624	-2.923000E+00
31	  0.026012026	-8.400000E-01	  0.026012026	-1.750280E+02	  0.026012026	2.422000E+00	  0.026012026	-2.165000E+00
32	  0.026212426	-8.530000E-01	  0.026212426	-1.767650E+02	  0.026212426	2.457000E+00	  0.026212426	-1.408000E+00
33	  0.026412826	-8.710000E-01	  0.026412826	-1.785230E+02	  0.026412826	2.505000E+00	  0.026412826	-6.420000E-01
34	  0.026613226	-8.880000E-01	  0.026613226	1.797270E+02	  0.026613226	2.553000E+00	  0.026613226	1.180000E-01
35	  0.026813626	-9.030000E-01	  0.026813626	1.779570E+02	  0.026813626	2.599000E+00	  0.026813626	8.880000E-01
36	  0.027014028	-9.200000E-01	  0.027014028	1.761880E+02	  0.027014028	2.650000E+00	  0.027014028	1.659000E+00
37	  0.027214428	-9.390000E-01	  0.027214428	1.744130E+02	  0.027214428	2.708000E+00	  0.027214428	2.432000E+00
38	  0.027414829	-9.570000E-01	  0.027414829	1.726340E+02	  0.027414829	2.764000E+00	  0.027414829	3.208000E+00
39	  0.027615231	-9.770000E-01	  0.027615231	1.708210E+02	  0.027615231	2.827000E+00	  0.027615231	4.000000E+00
40	  0.027815631	-9.980000E-01	  0.027815631	1.690150E+02	  0.027815631	2.897000E+00	  0.027815631	4.791000E+00
41	  0.028016033	-1.020000E+00	  0.028016033	1.671850E+02	  0.028016033	2.970000E+00	  0.028016033	5.595000E+00
42	  0.028216433	-1.042000E+00	  0.028216433	1.653580E+02	  0.028216433	3.045000E+00	  0.028216433	6.400000E+00
43	  0.028416833	-1.065000E+00	  0.028416833	1.635130E+02	  0.028416833	3.126000E+00	  0.028416833	7.215000E+00
44	  0.028617235	-1.088000E+00	  0.028617235	1.616820E+02	  0.028617235	3.211000E+00	  0.028617235	8.028000E+00
45	  0.028817635	-1.112000E+00	  0.028817635	1.598390E+02	  0.028817635	3.298000E+00	  0.028817635	8.851000E+00
46	  0.029018037	-1.137000E+00	  0.029018037	1.579920E+02	  0.029018037	3.393000E+00	  0.029018037	9.679000E+00
47	  0.029218437	-1.163000E+00	  0.029218437	1.561340E+02	  0.029218437	3.493000E+00	  0.029218437	1.051700E+01
48	  0.029418837	-1.193000E+00	  0.029418837	1.542620E+02	  0.029418837	3.606000E+00	  0.029418837	1.136600E+01
49	  0.029619239	-1.219000E+00	  0.029619239	1.523810E+02	  0.029619239	3.715000E+00	  0.029619239	1.222500E+01
50	  0.029819639	-1.247000E+00	  0.029819639	1.504850E+02	  0.029819639	3.830000E+00	  0.029819639	1.309800E+01
51	  0.030020041	-1.277000E+00	  0.030020041	1.486030E+02	  0.030020041	3.957000E+00	  0.030020041	1.397000E+01
52	  0.030220442	-1.305000E+00	  0.030220442	1.467150E+02	  0.030220442	4.084000E+00	  0.030220442	1.485300E+01
53	  0.030420844	-1.336000E+00	  0.030420844	1.448170E+02	  0.030420844	4.221000E+00	  0.030420844	1.574900E+01
54	  0.030621244	-1.368000E+00	  0.030621244	1.429270E+02	  0.030621244	4.369000E+00	  0.030621244	1.664900E+01
55	  0.030821642	-1.402000E+00	  0.030821642	1.410240E+02	  0.030821642	4.528000E+00	  0.030821642	1.756400E+01
56	  0.031022044	-1.434000E+00	  0.031022044	1.391070E+02	  0.031022044	4.688000E+00	  0.031022044	1.849600E+01
57	  0.031222444	-1.464000E+00	  0.031222444	1.371850E+02	  0.031222444	4.847000E+00	  0.031222444	1.944200E+01
58	  0.031422846	-1.499000E+00	  0.031422846	1.352120E+02	  0.031422846	5.028000E+00	  0.031422846	2.042300E+01
59	  0.031623244	-1.534000E+00	  0.031623244	1.332570E+02	  0.031623244	5.221000E+00	  0.031623244	2.140800E+01
60	  0.031823646	-1.568000E+00	  0.031823646	1.312890E+02	  0.031823646	5.415000E+00	  0.031823646	2.241300E+01
61	  0.032024048	-1.606000E+00	  0.032024048	1.293300E+02	  0.032024048	5.632000E+00	  0.032024048	2.342600E+01
62	  0.032224450	-1.644000E+00	  0.032224450	1.273350E+02	  0.032224450	5.861000E+00	  0.032224450	2.447200E+01
63	  0.032424849	-1.682000E+00	  0.032424849	1.253590E+02	  0.032424849	6.101000E+00	  0.032424849	2.552400E+01
64	  0.032625251	-1.720000E+00	  0.032625251	1.233420E+02	  0.032625251	6.352000E+00	  0.032625251	2.661600E+01
65	  0.032825653	-1.762000E+00	  0.032825653	1.213130E+02	  0.032825653	6.631000E+00	  0.032825653	2.773100E+01
66	  0.033026051	-1.802000E+00	  0.033026051	1.192770E+02	  0.033026051	6.916000E+00	  0.033026051	2.887000E+01
67	  0.033226453	-1.842000E+00	  0.033226453	1.172280E+02	  0.033226453	7.220000E+00	  0.033226453	3.003700E+01
68	  0.033426855	-1.884000E+00	  0.033426855	1.151870E+02	  0.033426855	7.543000E+00	  0.033426855	3.122100E+01
69	  0.033627257	-1.929000E+00	  0.033627257	1.131540E+02	  0.033627257	7.898000E+00	  0.033627257	3.242000E+01
70	  0.033827655	-1.975000E+00	  0.033827655	1.111040E+02	  0.033827655	8.276000E+00	  0.033827655	3.365400E+01
71	  0.034028057	-2.017000E+00	  0.034028057	1.090480E+02	  0.034028057	8.656000E+00	  0.034028057	3.491900E+01
72	  0.034228459	-2.064000E+00	  0.034228459	1.069680E+02	  0.034228459	9.086000E+00	  0.034228459	3.622300E+01
73	  0.034428857	-2.110000E+00	  0.034428857	1.048930E+02	  0.034428857	9.534000E+00	  0.034428857	3.755400E+01
74	  0.034629259	-2.155000E+00	  0.034629259	1.027970E+02	  0.034629259	1.001100E+01	  0.034629259	3.892900E+01
75	  0.034829661	-2.204000E+00	  0.034829661	1.007130E+02	  0.034829661	1.053000E+01	  0.034829661	4.032500E+01
76	  0.035030060	-2.254000E+00	  0.035030060	9.863900E+01	  0.035030060	1.108300E+01	  0.035030060	4.174700E+01
77	  0.035230462	-2.302000E+00	  0.035230462	9.654000E+01	  0.035230462	1.166900E+01	  0.035230462	4.322300E+01
78	  0.035430863	-2.353000E+00	  0.035430863	9.447000E+01	  0.035430863	1.230000E+01	  0.035430863	4.471100E+01
79	  0.035631265	-2.403000E+00	  0.035631265	9.238100E+01	  0.035631265	1.297400E+01	  0.035631265	4.625200E+01
80	  0.035831664	-2.453000E+00	  0.035831664	9.028800E+01	  0.035831664	1.369500E+01	  0.035831664	4.783600E+01
81	  0.036032066	-2.504000E+00	  0.036032066	8.819800E+01	  0.036032066	1.446500E+01	  0.036032066	4.946000E+01
82	  0.036232468	-2.555000E+00	  0.036232468	8.612500E+01	  0.036232468	1.528800E+01	  0.036232468	5.111100E+01
83	  0.036432866	-2.608000E+00	  0.036432866	8.403400E+01	  0.036432866	1.618900E+01	  0.036432866	5.281800E+01
84	  0.036633268	-2.660000E+00	  0.036633268	8.194000E+01	  0.036633268	1.714800E+01	  0.036633268	5.457800E+01
85	  0.036833670	-2.714000E+00	  0.036833670	7.984900E+01	  0.036833670	1.819300E+01	  0.036833670	5.637600E+01
86	  0.037034072	-2.769000E+00	  0.037034072	7.774100E+01	  0.037034072	1.932400E+01	  0.037034072	5.824000E+01
87	  0.037234470	-2.822000E+00	  0.037234470	7.565700E+01	  0.037234470	2.052700E+01	  0.037234470	6.013400E+01
88	  0.037434869	-2.878000E+00	  0.037434869	7.354400E+01	  0.037434869	2.185500E+01	  0.037434869	6.210200E+01
89	  0.037635271	-2.931000E+00	  0.037635271	7.144400E+01	  0.037635271	2.326400E+01	  0.037635271	6.411600E+01
90	  0.037835669	-2.987000E+00	  0.037835669	6.933200E+01	  0.037835669	2.481200E+01	  0.037835669	6.619000E+01
91	  0.038036071	-3.047000E+00	  0.038036071	6.721000E+01	  0.038036071	2.652900E+01	  0.038036071	6.830900E+01
92	  0.038236473	-3.103000E+00	  0.038236473	6.508100E+01	  0.038236473	2.837000E+01	  0.038236473	7.050100E+01
93	  0.038436871	-3.163000E+00	  0.038436871	6.296600E+01	  0.038436871	3.038800E+01	  0.038436871	7.270800E+01
94	  0.038637273	-3.221000E+00	  0.038637273	6.084000E+01	  0.038637273	3.258200E+01	  0.038637273	7.497900E+01
95	  0.038837675	-3.278000E+00	  0.038837675	5.872900E+01	  0.038837675	3.494600E+01	  0.038837675	7.727800E+01
96	  0.039038073	-3.334000E+00	  0.039038073	5.664000E+01	  0.039038073	3.748300E+01	  0.039038073	7.959400E+01
97	  0.039238475	-3.391000E+00	  0.039238475	5.453800E+01	  0.039238475	4.028200E+01	  0.039238475	8.193600E+01
98	  0.039438877	-3.449000E+00	  0.039438877	5.243500E+01	  0.039438877	4.334400E+01	  0.039438877	8.428300E+01
99	  0.039639279	-3.509000E+00	  0.039639279	5.029500E+01	  0.039639279	4.675500E+01	  0.039639279	8.665800E+01
100	  0.039839678	-3.565000E+00	  0.039839678	4.817900E+01	  0.039839678	5.041300E+01	  0.039839678	8.900700E+01
101	  0.040040080	-3.623000E+00	  0.040040080	4.604500E+01	  0.040040080	5.446400E+01	  0.040040080	9.130700E+01
102	  0.040240481	-3.676000E+00	  0.040240481	4.392900E+01	  0.040240481	5.880300E+01	  0.040240481	9.357000E+01
103	  0.040440880	-3.734000E+00	  0.040440880	4.181800E+01	  0.040440880	6.358800E+01	  0.040440880	9.562900E+01
104	  0.040641282	-3.789000E+00	  0.040641282	3.971600E+01	  0.040641282	6.874600E+01	  0.040641282	9.756400E+01
105	  0.040841684	-3.845000E+00	  0.040841684	3.762800E+01	  0.040841684	7.433300E+01	  0.040841684	9.922500E+01
106	  0.041042086	-3.902000E+00	  0.041042086	3.554800E+01	  0.041042086	8.036700E+01	  0.041042086	1.005830E+02
107	  0.041242484	-3.958000E+00	  0.041242484	3.345000E+01	  0.041242484	8.693200E+01	  0.041242484	1.015850E+02
108	  0.041442886	-4.015000E+00	  0.041442886	3.136900E+01	  0.041442886	9.392700E+01	  0.041442886	1.020930E+02
109	  0.041643288	-4.067000E+00	  0.041643288	2.929100E+01	  0.041643288	1.013670E+02	  0.041643288	1.021280E+02
110	  0.041843686	-4.121000E+00	  0.041843686	2.720900E+01	  0.041843686	1.092710E+02	  0.041843686	1.014390E+02
111	  0.042044088	-4.172000E+00	  0.042044088	2.515700E+01	  0.042044088	1.174410E+02	  0.042044088	1.000340E+02
112	  0.042244490	-4.223000E+00	  0.042244490	2.311700E+01	  0.042244490	1.258670E+02	  0.042244490	9.773800E+01
113	  0.042444889	-4.277000E+00	  0.042444889	2.110000E+01	  0.042444889	1.343470E+02	  0.042444889	9.435000E+01
114	  0.042645290	-4.328000E+00	  0.042645290	1.907500E+01	  0.042645290	1.428980E+02	  0.042645290	8.994000E+01
115	  0.042845692	-4.378000E+00	  0.042845692	1.704800E+01	  0.042845692	1.513160E+02	  0.042845692	8.438000E+01
116	  0.043046094	-4.429000E+00	  0.043046094	1.505000E+01	  0.043046094	1.592270E+02	  0.043046094	7.767200E+01
117	  0.043246493	-4.475000E+00	  0.043246493	1.304300E+01	  0.043246493	1.666600E+02	  0.043246493	6.986300E+01
118	  0.043446895	-4.522000E+00	  0.043446895	1.105700E+01	  0.043446895	1.732000E+02	  0.043446895	6.100800E+01
119	  0.043647297	-4.567000E+00	  0.043647297	9.066000E+00	  0.043647297	1.787460E+02	  0.043647297	5.117300E+01
120	  0.043847695	-4.614000E+00	  0.043847695	7.094000E+00	  0.043847695	1.829550E+02	  0.043847695	4.060000E+01
121	  0.044048097	-4.658000E+00	  0.044048097	5.119000E+00	  0.044048097	1.858830E+02	  0.044048097	2.949800E+01
122	  0.044248499	-4.705000E+00	  0.044248499	3.166000E+00	  0.044248499	1.871920E+02	  0.044248499	1.818300E+01
123	  0.044448901	-4.749000E+00	  0.044448901	1.203000E+00	  0.044448901	1.871630E+02	  0.044448901	6.842000E+00
124	  0.044649299	-4.792000E+00	  0.044649299	-7.460000E-01	  0.044649299	1.857120E+02	  0.044649299	-4.171000E+00
125	  0.044849701	-4.832000E+00	  0.044849701	-2.698000E+00	  0.044849701	1.830900E+02	  0.044849701	-1.472100E+01
126	  0.045050103	-4.870000E+00	  0.045050103	-4.642000E+00	  0.045050103	1.793480E+02	  0.045050103	-2.458100E+01
127	  0.045250501	-4.914000E+00	  0.045250501	-6.587000E+00	  0.045250501	1.744230E+02	  0.045250501	-3.354700E+01
128	  0.045450903	-4.955000E+00	  0.045450903	-8.529000E+00	  0.045450903	1.688380E+02	  0.045450903	-4.159800E+01
129	  0.045651305	-4.995000E+00	  0.045651305	-1.046300E+01	  0.045651305	1.627130E+02	  0.045651305	-4.865000E+01
130	  0.045851704	-5.032000E+00	  0.045851704	-1.238700E+01	  0.045851704	1.563220E+02	  0.045851704	-5.476600E+01
131	  0.046052102	-5.073000E+00	  0.046052102	-1.427900E+01	  0.046052102	1.496960E+02	  0.046052102	-5.976300E+01
132	  0.046252504	-5.112000E+00	  0.046252504	-1.615600E+01	  0.046252504	1.430760E+02	  0.046252504	-6.388700E+01
133	  0.046452906	-5.152000E+00	  0.046452906	-1.801200E+01	  0.046452906	1.365450E+02	  0.046452906	-6.716600E+01
134	  0.046653304	-5.189000E+00	  0.046653304	-1.986800E+01	  0.046653304	1.301800E+02	  0.046653304	-6.983000E+01
135	  0.046853706	-5.217000E+00	  0.046853706	-2.170600E+01	  0.046853706	1.241080E+02	  0.046853706	-7.199800E+01
136	  0.047054108	-5.247000E+00	  0.047054108	-2.355600E+01	  0.047054108	1.181740E+02	  0.047054108	-7.361200E+01
137	  0.047254506	-5.272000E+00	  0.047254506	-2.540500E+01	  0.047254506	1.124990E+02	  0.047254506	-7.483400E+01
138	  0.047454908	-5.294000E+00	  0.047454908	-2.725300E+01	  0.047454908	1.070700E+02	  0.047454908	-7.567100E+01
139	  0.047655310	-5.314000E+00	  0.047655310	-2.909600E+01	  0.047655310	1.019020E+02	  0.047655310	-7.614000E+01
140	  0.047855709	-5.335000E+00	  0.047855709	-3.092300E+01	  0.047855709	9.703000E+01	  0.047855709	-7.628100E+01
141	  0.048056111	-5.362000E+00	  0.048056111	-3.276500E+01	  0.048056111	9.237100E+01	  0.048056111	-7.605100E+01
142	  0.048256513	-5.383000E+00	  0.048256513	-3.458500E+01	  0.048256513	8.802700E+01	  0.048256513	-7.567500E+01
143	  0.048456915	-5.407000E+00	  0.048456915	-3.640400E+01	  0.048456915	8.393400E+01	  0.048456915	-7.506800E+01
144	  0.048657313	-5.427000E+00	  0.048657313	-3.822600E+01	  0.048657313	8.006900E+01	  0.048657313	-7.435000E+01
145	  0.048857715	-5.448000E+00	  0.048857715	-4.002100E+01	  0.048857715	7.648800E+01	  0.048857715	-7.349400E+01
146	  0.049058117	-5.466000E+00	  0.049058117	-4.181500E+01	  0.049058117	7.311400E+01	  0.049058117	-7.256700E+01
147	  0.049258515	-5.488000E+00	  0.049258515	-4.357000E+01	  0.049258515	7.002000E+01	  0.049258515	-7.152300E+01
148	  0.049458917	-5.507000E+00	  0.049458917	-4.532100E+01	  0.049458917	6.710800E+01	  0.049458917	-7.044200E+01
149	  0.049659319	-5.530000E+00	  0.049659319	-4.704200E+01	  0.049659319	6.443000E+01	  0.049659319	-6.927800E+01
150	  0.049859721	-5.552000E+00	  0.049859721	-4.875400E+01	  0.049859721	6.191800E+01	  0.049859721	-6.809700E+01
151	  0.050060119	-5.571000E+00	  0.050060119	-5.046600E+01	  0.050060119	5.954100E+01	  0.050060119	-6.690900E+01
152	  0.050260521	-5.590000E+00	  0.050260521	-5.216500E+01	  0.050260521	5.732000E+01	  0.050260521	-6.570700E+01
153	  0.050460923	-5.608000E+00	  0.050460923	-5.385600E+01	  0.050460923	5.523200E+01	  0.050460923	-6.449800E+01
154	  0.050661322	-5.625000E+00	  0.050661322	-5.552500E+01	  0.050661322	5.328200E+01	  0.050661322	-6.330600E+01
155	  0.050861724	-5.643000E+00	  0.050861724	-5.719700E+01	  0.050861724	5.144200E+01	  0.050861724	-6.209300E+01
156	  0.051062126	-5.662000E+00	  0.051062126	-5.883200E+01	  0.051062126	4.974900E+01	  0.051062126	-6.089600E+01
157	  0.051262524	-5.681000E+00	  0.051262524	-6.046100E+01	  0.051262524	4.815600E+01	  0.051262524	-5.969700E+01
158	  0.051462926	-5.696000E+00	  0.051462926	-6.210500E+01	  0.051462926	4.661300E+01	  0.051462926	-5.852600E+01
159	  0.051663328	-5.714000E+00	  0.051663328	-6.372100E+01	  0.051663328	4.518900E+01	  0.051663328	-5.735800E+01
160	  0.051863730	-5.733000E+00	  0.051863730	-6.532000E+01	  0.051863730	4.385800E+01	  0.051863730	-5.620700E+01
161	  0.052064128	-5.745000E+00	  0.052064128	-6.692100E+01	  0.052064128	4.256700E+01	  0.052064128	-5.509600E+01
162	  0.052264530	-5.756000E+00	  0.052264530	-6.850900E+01	  0.052264530	4.134600E+01	  0.052264530	-5.400800E+01
163	  0.052464932	-5.771000E+00	  0.052464932	-7.010100E+01	  0.052464932	4.019900E+01	  0.052464932	-5.290500E+01
164	  0.052665330	-5.788000E+00	  0.052665330	-7.165700E+01	  0.052665330	3.914400E+01	  0.052665330	-5.182600E+01
165	  0.052865732	-5.800000E+00	  0.052865732	-7.322300E+01	  0.052865732	3.811100E+01	  0.052865732	-5.077600E+01
166	  0.053066134	-5.816000E+00	  0.053066134	-7.473800E+01	  0.053066134	3.717300E+01	  0.053066134	-4.975600E+01
167	  0.053266536	-5.830000E+00	  0.053266536	-7.627800E+01	  0.053266536	3.626200E+01	  0.053266536	-4.873300E+01
168	  0.053466935	-5.842000E+00	  0.053466935	-7.782400E+01	  0.053466935	3.537900E+01	  0.053466935	-4.772900E+01
169	  0.053667337	-5.856000E+00	  0.053667337	-7.935000E+01	  0.053667337	3.455400E+01	  0.053667337	-4.674300E+01
170	  0.053867739	-5.868000E+00	  0.053867739	-8.087600E+01	  0.053867739	3.375900E+01	  0.053867739	-4.577600E+01
171	  0.054068137	-5.875000E+00	  0.054068137	-8.237200E+01	  0.054068137	3.299800E+01	  0.054068137	-4.485200E+01
172	  0.054268539	-5.886000E+00	  0.054268539	-8.386800E+01	  0.054268539	3.228400E+01	  0.054268539	-4.392700E+01
173	  0.054468941	-5.898000E+00	  0.054468941	-8.534700E+01	  0.054468941	3.161600E+01	  0.054468941	-4.301700E+01
174	  0.054669335	-5.908000E+00	  0.054669335	-8.682100E+01	  0.054669335	3.096600E+01	  0.054669335	-4.213100E+01
175	  0.054869737	-5.916000E+00	  0.054869737	-8.825700E+01	  0.054869737	3.035600E+01	  0.054869737	-4.128000E+01
176	  0.055070139	-5.927000E+00	  0.055070139	-8.971500E+01	  0.055070139	2.977300E+01	  0.055070139	-4.041700E+01
177	  0.055270538	-5.932000E+00	  0.055270538	-9.115800E+01	  0.055270538	2.919800E+01	  0.055270538	-3.959000E+01
178	  0.055470940	-5.940000E+00	  0.055470940	-9.258600E+01	  0.055470940	2.866200E+01	  0.055470940	-3.877200E+01
179	  0.055671342	-5.943000E+00	  0.055671342	-9.401100E+01	  0.055671342	2.813000E+01	  0.055671342	-3.797800E+01
180	  0.055871744	-5.948000E+00	  0.055871744	-9.542600E+01	  0.055871744	2.763200E+01	  0.055871744	-3.719100E+01
181	  0.056072142	-5.957000E+00	  0.056072142	-9.682100E+01	  0.056072142	2.717300E+01	  0.056072142	-3.641400E+01
182	  0.056272544	-5.961000E+00	  0.056272544	-9.820900E+01	  0.056272544	2.671700E+01	  0.056272544	-3.566000E+01
183	  0.056472946	-5.963000E+00	  0.056472946	-9.956800E+01	  0.056472946	2.627900E+01	  0.056472946	-3.493500E+01
184	  0.056673344	-5.970000E+00	  0.056673344	-1.009120E+02	  0.056673344	2.588200E+01	  0.056673344	-3.421200E+01
185	  0.056873746	-5.977000E+00	  0.056873746	-1.022540E+02	  0.056873746	2.549700E+01	  0.056873746	-3.349900E+01
186	  0.057074148	-5.978000E+00	  0.057074148	-1.036180E+02	  0.057074148	2.510300E+01	  0.057074148	-3.279200E+01
187	  0.057274550	-5.980000E+00	  0.057274550	-1.049670E+02	  0.057274550	2.472900E+01	  0.057274550	-3.209800E+01
188	  0.057474948	-5.986000E+00	  0.057474948	-1.062870E+02	  0.057474948	2.439000E+01	  0.057474948	-3.141800E+01
189	  0.057675350	-5.989000E+00	  0.057675350	-1.076030E+02	  0.057675350	2.405300E+01	  0.057675350	-3.075200E+01
190	  0.057875752	-5.996000E+00	  0.057875752	-1.089200E+02	  0.057875752	2.374200E+01	  0.057875752	-3.008400E+01
191	  0.058076151	-6.001000E+00	  0.058076151	-1.102050E+02	  0.058076151	2.344200E+01	  0.058076151	-2.944200E+01
192	  0.058276553	-6.005000E+00	  0.058276553	-1.114720E+02	  0.058276553	2.315600E+01	  0.058276553	-2.881400E+01
193	  0.058476955	-6.009000E+00	  0.058476955	-1.127480E+02	  0.058476955	2.287500E+01	  0.058476955	-2.818900E+01
194	  0.058677353	-6.012000E+00	  0.058677353	-1.140410E+02	  0.058677353	2.259800E+01	  0.058677353	-2.756200E+01
195	  0.058877755	-6.019000E+00	  0.058877755	-1.153030E+02	  0.058877755	2.235300E+01	  0.058877755	-2.694900E+01
196	  0.059078157	-6.020000E+00	  0.059078157	-1.165460E+02	  0.059078157	2.209900E+01	  0.059078157	-2.635800E+01
197	  0.059278559	-6.027000E+00	  0.059278559	-1.178020E+02	  0.059278559	2.186900E+01	  0.059278559	-2.575800E+01
198	  0.059478957	-6.030000E+00	  0.059478957	-1.190450E+02	  0.059478957	2.163800E+01	  0.059478957	-2.517400E+01
199	  0.059679359	-6.038000E+00	  0.059679359	-1.202690E+02	  0.059679359	2.143300E+01	  0.059679359	-2.459600E+01
200	  0.059879761	-6.042000E+00	  0.059879761	-1.214890E+02	  0.059879761	2.122400E+01	  0.059879761	-2.403000E+01
201	  0.060080159	-6.049000E+00	  0.060080159	-1.227020E+02	  0.060080159	2.103300E+01	  0.060080159	-2.346800E+01
202	  0.060280561	-6.055000E+00	  0.060280561	-1.239120E+02	  0.060280561	2.084700E+01	  0.060280561	-2.291200E+01
203	  0.060480963	-6.063000E+00	  0.060480963	-1.251070E+02	  0.060480963	2.067200E+01	  0.060480963	-2.236600E+01
204	  0.060681365	-6.066000E+00	  0.060681365	-1.262900E+02	  0.060681365	2.049500E+01	  0.060681365	-2.183300E+01
205	  0.060881764	-6.068000E+00	  0.060881764	-1.274880E+02	  0.060881764	2.031700E+01	  0.060881764	-2.129800E+01
206	  0.061082166	-6.075000E+00	  0.061082166	-1.286820E+02	  0.061082166	2.016000E+01	  0.061082166	-2.076300E+01
207	  0.061282568	-6.081000E+00	  0.061282568	-1.298660E+02	  0.061282568	2.000500E+01	  0.061282568	-2.023800E+01
208	  0.061482966	-6.083000E+00	  0.061482966	-1.310230E+02	  0.061482966	1.985200E+01	  0.061482966	-1.973000E+01
209	  0.061683368	-6.087000E+00	  0.061683368	-1.321920E+02	  0.061683368	1.970600E+01	  0.061683368	-1.921900E+01
210	  0.061883770	-6.090000E+00	  0.061883770	-1.333210E+02	  0.061883770	1.956800E+01	  0.061883770	-1.872900E+01
211	  0.062084168	-6.093000E+00	  0.062084168	-1.344660E+02	  0.062084168	1.943100E+01	  0.062084168	-1.823500E+01
212	  0.062284570	-6.095000E+00	  0.062284570	-1.355980E+02	  0.062284570	1.930000E+01	  0.062284570	-1.774900E+01
213	  0.062484972	-6.092000E+00	  0.062484972	-1.367070E+02	  0.062484972	1.916200E+01	  0.062484972	-1.728000E+01
214	  0.062685370	-6.090000E+00	  0.062685370	-1.378070E+02	  0.062685370	1.902900E+01	  0.062685370	-1.681600E+01
215	  0.062885776	-6.091000E+00	  0.062885776	-1.389300E+02	  0.062885776	1.891100E+01	  0.062885776	-1.634100E+01
216	  0.063086174	-6.091000E+00	  0.063086174	-1.400260E+02	  0.063086174	1.879300E+01	  0.063086174	-1.588200E+01
217	  0.063286573	-6.088000E+00	  0.063286573	-1.411080E+02	  0.063286573	1.867600E+01	  0.063286573	-1.543100E+01
218	  0.063486971	-6.087000E+00	  0.063486971	-1.421870E+02	  0.063486971	1.856500E+01	  0.063486971	-1.498300E+01
219	  0.063687377	-6.078000E+00	  0.063687377	-1.432360E+02	  0.063687377	1.844200E+01	  0.063687377	-1.455400E+01
220	  0.063887775	-6.072000E+00	  0.063887775	-1.442910E+02	  0.063887775	1.832800E+01	  0.063887775	-1.412100E+01
221	  0.064088173	-6.068000E+00	  0.064088173	-1.453910E+02	  0.064088173	1.821900E+01	  0.064088173	-1.367100E+01
222	  0.064288579	-6.064000E+00	  0.064288579	-1.464760E+02	  0.064288579	1.811600E+01	  0.064288579	-1.322800E+01
223	  0.064488977	-6.059000E+00	  0.064488977	-1.475230E+02	  0.064488977	1.801500E+01	  0.064488977	-1.280300E+01
224	  0.064689375	-6.050000E+00	  0.064689375	-1.485720E+02	  0.064689375	1.791000E+01	  0.064689375	-1.237900E+01
225	  0.064889781	-6.043000E+00	  0.064889781	-1.496340E+02	  0.064889781	1.780800E+01	  0.064889781	-1.195100E+01
226	  0.065090179	-6.032000E+00	  0.065090179	-1.506760E+02	  0.065090179	1.770500E+01	  0.065090179	-1.153400E+01
227	  0.065290578	-6.025000E+00	  0.065290578	-1.517260E+02	  0.065290578	1.761300E+01	  0.065290578	-1.111300E+01
228	  0.065490983	-6.018000E+00	  0.065490983	-1.527650E+02	  0.065490983	1.752500E+01	  0.065490983	-1.069700E+01
229	  0.065691382	-6.010000E+00	  0.065691382	-1.538320E+02	  0.065691382	1.743400E+01	  0.065691382	-1.027100E+01
230	  0.065891780	-5.999000E+00	  0.065891780	-1.548570E+02	  0.065891780	1.734300E+01	  0.065891780	-9.864000E+00
231	  0.066092186	-5.995000E+00	  0.066092186	-1.559030E+02	  0.066092186	1.727100E+01	  0.066092186	-9.447000E+00
232	  0.066292584	-5.987000E+00	  0.066292584	-1.569620E+02	  0.066292584	1.719100E+01	  0.066292584	-9.027000E+00
233	  0.066492982	-5.976000E+00	  0.066492982	-1.580070E+02	  0.066492982	1.710800E+01	  0.066492982	-8.614000E+00
234	  0.066693388	-5.970000E+00	  0.066693388	-1.590580E+02	  0.066693388	1.704000E+01	  0.066693388	-8.198000E+00
235	  0.066893786	-5.964000E+00	  0.066893786	-1.600920E+02	  0.066893786	1.697600E+01	  0.066893786	-7.790000E+00
236	  0.067094192	-5.955000E+00	  0.067094192	-1.611270E+02	  0.067094192	1.690300E+01	  0.067094192	-7.382000E+00
237	  0.067294590	-5.949000E+00	  0.067294590	-1.621650E+02	  0.067294590	1.684500E+01	  0.067294590	-6.973000E+00
238	  0.067494988	-5.946000E+00	  0.067494988	-1.631890E+02	  0.067494988	1.679700E+01	  0.067494988	-6.569000E+00
239	  0.067695394	-5.940000E+00	  0.067695394	-1.642520E+02	  0.067695394	1.674200E+01	  0.067695394	-6.152000E+00
240	  0.067895792	-5.935000E+00	  0.067895792	-1.652730E+02	  0.067895792	1.669400E+01	  0.067895792	-5.751000E+00
241	  0.068096191	-5.932000E+00	  0.068096191	-1.663280E+02	  0.068096191	1.665000E+01	  0.068096191	-5.337000E+00
242	  0.068296596	-5.925000E+00	  0.068296596	-1.673560E+02	  0.068296596	1.660300E+01	  0.068296596	-4.934000E+00
243	  0.068496995	-5.923000E+00	  0.068496995	-1.683630E+02	  0.068496995	1.656900E+01	  0.068496995	-4.540000E+00
244	  0.068697393	-5.920000E+00	  0.068697393	-1.694130E+02	  0.068697393	1.653500E+01	  0.068697393	-4.129000E+00
245	  0.068897791	-5.916000E+00	  0.068897791	-1.704640E+02	  0.068897791	1.650200E+01	  0.068897791	-3.718000E+00
246	  0.069098189	-5.909000E+00	  0.069098189	-1.714530E+02	  0.069098189	1.646300E+01	  0.069098189	-3.333000E+00
247	  0.069298595	-5.910000E+00	  0.069298595	-1.724790E+02	  0.069298595	1.644600E+01	  0.069298595	-2.931000E+00
248	  0.069498993	-5.906000E+00	  0.069498993	-1.735290E+02	  0.069498993	1.642100E+01	  0.069498993	-2.522000E+00
249	  0.069699399	-5.907000E+00	  0.069699399	-1.745550E+02	  0.069699399	1.641000E+01	  0.069699399	-2.122000E+00
250	  0.069899797	-5.904000E+00	  0.069899797	-1.755670E+02	  0.069899797	1.639100E+01	  0.069899797	-1.727000E+00
251	  0.070100196	-5.903000E+00	  0.070100196	-1.765630E+02	  0.070100196	1.637900E+01	  0.070100196	-1.339000E+00
252	  0.070300601	-5.899000E+00	  0.070300601	-1.775880E+02	  0.070300601	1.636100E+01	  0.070300601	-9.390000E-01
253	  0.070501000	-5.896000E+00	  0.070501000	-1.785770E+02	  0.070501000	1.635000E+01	  0.070501000	-5.540000E-01
254	  0.070701398	-5.894000E+00	  0.070701398	-1.795780E+02	  0.070701398	1.634200E+01	  0.070701398	-1.640000E-01
255	  0.070901804	-5.893000E+00	  0.070901804	1.794420E+02	  0.070901804	1.634000E+01	  0.070901804	2.170000E-01
256	  0.071102202	-5.896000E+00	  0.071102202	1.784280E+02	  0.071102202	1.635000E+01	  0.071102202	6.120000E-01
257	  0.071302600	-5.896000E+00	  0.071302600	1.774280E+02	  0.071302600	1.635400E+01	  0.071302600	1.002000E+00
258	  0.071503006	-5.895000E+00	  0.071503006	1.764480E+02	  0.071503006	1.636000E+01	  0.071503006	1.384000E+00
259	  0.071703404	-5.898000E+00	  0.071703404	1.754550E+02	  0.071703404	1.637700E+01	  0.071703404	1.771000E+00
260	  0.071903802	-5.897000E+00	  0.071903802	1.744990E+02	  0.071903802	1.638400E+01	  0.071903802	2.144000E+00
261	  0.072104208	-5.901000E+00	  0.072104208	1.735310E+02	  0.072104208	1.640800E+01	  0.072104208	2.522000E+00
262	  0.072304606	-5.899000E+00	  0.072304606	1.725420E+02	  0.072304606	1.641600E+01	  0.072304606	2.908000E+00
263	  0.072505005	-5.900000E+00	  0.072505005	1.715920E+02	  0.072505005	1.643700E+01	  0.072505005	3.279000E+00
264	  0.072705410	-5.906000E+00	  0.072705410	1.706210E+02	  0.072705410	1.647100E+01	  0.072705410	3.658000E+00
265	  0.072905809	-5.905000E+00	  0.072905809	1.696730E+02	  0.072905809	1.649000E+01	  0.072905809	4.030000E+00
266	  0.073106214	-5.906000E+00	  0.073106214	1.687270E+02	  0.073106214	1.651600E+01	  0.073106214	4.400000E+00
267	  0.073306613	-5.912000E+00	  0.073306613	1.677750E+02	  0.073306613	1.655600E+01	  0.073306613	4.773000E+00
268	  0.073507011	-5.915000E+00	  0.073507011	1.668180E+02	  0.073507011	1.659200E+01	  0.073507011	5.148000E+00
269	  0.073707417	-5.920000E+00	  0.073707417	1.658760E+02	  0.073707417	1.663500E+01	  0.073707417	5.517000E+00
270	  0.073907815	-5.924000E+00	  0.073907815	1.649580E+02	  0.073907815	1.667500E+01	  0.073907815	5.877000E+00
271	  0.074108213	-5.927000E+00	  0.074108213	1.640500E+02	  0.074108213	1.671500E+01	  0.074108213	6.235000E+00
272	  0.074308619	-5.932000E+00	  0.074308619	1.630870E+02	  0.074308619	1.676500E+01	  0.074308619	6.613000E+00
273	  0.074509017	-5.935000E+00	  0.074509017	1.621650E+02	  0.074509017	1.680800E+01	  0.074509017	6.977000E+00
274	  0.074709415	-5.945000E+00	  0.074709415	1.612510E+02	  0.074709415	1.687400E+01	  0.074709415	7.336000E+00
275	  0.074909821	-5.951000E+00	  0.074909821	1.603250E+02	  0.074909821	1.693000E+01	  0.074909821	7.701000E+00
276	  0.075110219	-5.960000E+00	  0.075110219	1.594010E+02	  0.075110219	1.699600E+01	  0.075110219	8.065000E+00
277	  0.075310618	-5.962000E+00	  0.075310618	1.584820E+02	  0.075310618	1.704700E+01	  0.075310618	8.430000E+00
278	  0.075511023	-5.971000E+00	  0.075511023	1.575770E+02	  0.075511023	1.711700E+01	  0.075511023	8.788000E+00
279	  0.075711422	-5.979000E+00	  0.075711422	1.566940E+02	  0.075711422	1.718600E+01	  0.075711422	9.137000E+00
280	  0.075911827	-5.989000E+00	  0.075911827	1.557860E+02	  0.075911827	1.726300E+01	  0.075911827	9.496000E+00
281	  0.076112226	-6.001000E+00	  0.076112226	1.548690E+02	  0.076112226	1.734700E+01	  0.076112226	9.859000E+00
282	  0.076312624	-6.009000E+00	  0.076312624	1.539570E+02	  0.076312624	1.742600E+01	  0.076312624	1.022100E+01
283	  0.076513030	-6.020000E+00	  0.076513030	1.530570E+02	  0.076513030	1.751100E+01	  0.076513030	1.057900E+01
284	  0.076713428	-6.032000E+00	  0.076713428	1.521380E+02	  0.076713428	1.760200E+01	  0.076713428	1.094400E+01
285	  0.076913826	-6.042000E+00	  0.076913826	1.512540E+02	  0.076913826	1.769000E+01	  0.076913826	1.129600E+01
286	  0.077114232	-6.054000E+00	  0.077114232	1.503950E+02	  0.077114232	1.778400E+01	  0.077114232	1.163700E+01
287	  0.077314630	-6.066000E+00	  0.077314630	1.494940E+02	  0.077314630	1.788200E+01	  0.077314630	1.199700E+01
288	  0.077515028	-6.080000E+00	  0.077515028	1.485860E+02	  0.077515028	1.798800E+01	  0.077515028	1.235900E+01
289	  0.077715434	-6.093000E+00	  0.077715434	1.477110E+02	  0.077715434	1.809200E+01	  0.077715434	1.270800E+01
290	  0.077915832	-6.106000E+00	  0.077915832	1.468260E+02	  0.077915832	1.820000E+01	  0.077915832	1.306200E+01
291	  0.078116231	-6.119000E+00	  0.078116231	1.459170E+02	  0.078116231	1.831200E+01	  0.078116231	1.342600E+01
292	  0.078316636	-6.134000E+00	  0.078316636	1.450110E+02	  0.078316636	1.843000E+01	  0.078316636	1.378900E+01
293	  0.078517035	-6.146000E+00	  0.078517035	1.441270E+02	  0.078517035	1.854300E+01	  0.078517035	1.414500E+01
294	  0.078717433	-6.161000E+00	  0.078717433	1.432340E+02	  0.078717433	1.866600E+01	  0.078717433	1.450400E+01
295	  0.078917839	-6.176000E+00	  0.078917839	1.423780E+02	  0.078917839	1.878900E+01	  0.078917839	1.484700E+01
296	  0.079118237	-6.191000E+00	  0.079118237	1.414880E+02	  0.079118237	1.891800E+01	  0.079118237	1.520500E+01
297	  0.079318643	-6.205000E+00	  0.079318643	1.406340E+02	  0.079318643	1.904500E+01	  0.079318643	1.555000E+01
298	  0.079519041	-6.221000E+00	  0.079519041	1.397690E+02	  0.079519041	1.917700E+01	  0.079519041	1.589900E+01
299	  0.079719439	-6.237000E+00	  0.079719439	1.389080E+02	  0.079719439	1.931500E+01	  0.079719439	1.624600E+01
300	  0.079919845	-6.251000E+00	  0.079919845	1.380100E+02	  0.079919845	1.945400E+01	  0.079919845	1.661100E+01
301	  0.080120243	-6.263000E+00	  0.080120243	1.371310E+02	  0.080120243	1.958800E+01	  0.080120243	1.697000E+01
302	  0.080320641	-6.281000E+00	  0.080320641	1.363020E+02	  0.080320641	1.973500E+01	  0.080320641	1.730500E+01
303	  0.080521047	-6.301000E+00	  0.080521047	1.354540E+02	  0.080521047	1.989200E+01	  0.080521047	1.764600E+01
304	  0.080721445	-6.311000E+00	  0.080721445	1.345910E+02	  0.080721445	2.002900E+01	  0.080721445	1.800200E+01
305	  0.080921844	-6.333000E+00	  0.080921844	1.337740E+02	  0.080921844	2.019300E+01	  0.080921844	1.833000E+01
306	  0.081122249	-6.348000E+00	  0.081122249	1.329580E+02	  0.081122249	2.034200E+01	  0.081122249	1.866300E+01
307	  0.081322648	-6.368000E+00	  0.081322648	1.320970E+02	  0.081322648	2.051500E+01	  0.081322648	1.901100E+01
308	  0.081523046	-6.382000E+00	  0.081523046	1.312820E+02	  0.081523046	2.066700E+01	  0.081523046	1.934500E+01
309	  0.081723452	-6.400000E+00	  0.081723452	1.304530E+02	  0.081723452	2.083500E+01	  0.081723452	1.968300E+01
310	  0.081923850	-6.414000E+00	  0.081923850	1.296620E+02	  0.081923850	2.098900E+01	  0.081923850	2.000900E+01
311	  0.082124248	-6.434000E+00	  0.082124248	1.288470E+02	  0.082124248	2.116600E+01	  0.082124248	2.034000E+01
312	  0.082324654	-6.455000E+00	  0.082324654	1.280450E+02	  0.082324654	2.134900E+01	  0.082324654	2.066400E+01
313	  0.082525052	-6.473000E+00	  0.082525052	1.272830E+02	  0.082525052	2.151700E+01	  0.082525052	2.097500E+01
314	  0.082725458	-6.497000E+00	  0.082725458	1.264990E+02	  0.082725458	2.171300E+01	  0.082725458	2.128900E+01
315	  0.082925856	-6.515000E+00	  0.082925856	1.257220E+02	  0.082925856	2.189100E+01	  0.082925856	2.160600E+01
316	  0.083126254	-6.543000E+00	  0.083126254	1.249260E+02	  0.083126254	2.210200E+01	  0.083126254	2.192200E+01
317	  0.083326660	-6.565000E+00	  0.083326660	1.241590E+02	  0.083326660	2.229900E+01	  0.083326660	2.223100E+01
318	  0.083527058	-6.596000E+00	  0.083527058	1.233740E+02	  0.083527058	2.252300E+01	  0.083527058	2.253800E+01
319	  0.083727457	-6.620000E+00	  0.083727457	1.226180E+02	  0.083727457	2.272900E+01	  0.083727457	2.283900E+01
320	  0.083927862	-6.646000E+00	  0.083927862	1.218480E+02	  0.083927862	2.294600E+01	  0.083927862	2.314500E+01
321	  0.084128261	-6.673000E+00	  0.084128261	1.210900E+02	  0.084128261	2.316400E+01	  0.084128261	2.344400E+01
322	  0.084328659	-6.698000E+00	  0.084328659	1.203530E+02	  0.084328659	2.338000E+01	  0.084328659	2.373500E+01
323	  0.084529065	-6.727000E+00	  0.084529065	1.196200E+02	  0.084529065	2.360500E+01	  0.084529065	2.402100E+01
324	  0.084729463	-6.756000E+00	  0.084729463	1.188460E+02	  0.084729463	2.384500E+01	  0.084729463	2.432300E+01
325	  0.084929854	-6.784000E+00	  0.084929854	1.180950E+02	  0.084929854	2.408200E+01	  0.084929854	2.461500E+01
326	  0.085130259	-6.810000E+00	  0.085130259	1.173550E+02	  0.085130259	2.431100E+01	  0.085130259	2.490600E+01
327	  0.085330658	-6.845000E+00	  0.085330658	1.166200E+02	  0.085330658	2.457000E+01	  0.085330658	2.518200E+01
328	  0.085531056	-6.873000E+00	  0.085531056	1.158830E+02	  0.085531056	2.481300E+01	  0.085531056	2.546700E+01
329	  0.085731462	-6.904000E+00	  0.085731462	1.151650E+02	  0.085731462	2.506300E+01	  0.085731462	2.573900E+01
330	  0.085931860	-6.932000E+00	  0.085931860	1.144940E+02	  0.085931860	2.529700E+01	  0.085931860	2.599400E+01
331	  0.086132258	-6.962000E+00	  0.086132258	1.138010E+02	  0.086132258	2.554400E+01	  0.086132258	2.625500E+01
332	  0.086332664	-6.992000E+00	  0.086332664	1.131090E+02	  0.086332664	2.579800E+01	  0.086332664	2.651400E+01
333	  0.086533062	-7.020000E+00	  0.086533062	1.124140E+02	  0.086533062	2.604700E+01	  0.086533062	2.677700E+01
334	  0.086733460	-7.047000E+00	  0.086733460	1.117610E+02	  0.086733460	2.628600E+01	  0.086733460	2.702300E+01
335	  0.086933866	-7.073000E+00	  0.086933866	1.111130E+02	  0.086933866	2.652200E+01	  0.086933866	2.726800E+01
336	  0.087134264	-7.098000E+00	  0.087134264	1.104500E+02	  0.087134264	2.676500E+01	  0.087134264	2.752000E+01
337	  0.087334670	-7.119000E+00	  0.087334670	1.098390E+02	  0.087334670	2.698700E+01	  0.087334670	2.775400E+01
338	  0.087535068	-7.136000E+00	  0.087535068	1.091980E+02	  0.087535068	2.720300E+01	  0.087535068	2.801000E+01
339	  0.087735467	-7.159000E+00	  0.087735467	1.085690E+02	  0.087735467	2.744100E+01	  0.087735467	2.824800E+01
340	  0.087935872	-7.173000E+00	  0.087935872	1.079510E+02	  0.087935872	2.764800E+01	  0.087935872	2.849800E+01
341	  0.088136271	-7.182000E+00	  0.088136271	1.073050E+02	  0.088136271	2.785600E+01	  0.088136271	2.876800E+01
342	  0.088336669	-7.191000E+00	  0.088336669	1.066210E+02	  0.088336669	2.807400E+01	  0.088336669	2.905800E+01
343	  0.088537075	-7.198000E+00	  0.088537075	1.059510E+02	  0.088537075	2.828900E+01	  0.088537075	2.934200E+01
344	  0.088737473	-7.214000E+00	  0.088737473	1.052580E+02	  0.088737473	2.853700E+01	  0.088737473	2.962200E+01
345	  0.088937871	-7.217000E+00	  0.088937871	1.045730E+02	  0.088937871	2.875200E+01	  0.088937871	2.992200E+01
346	  0.089138277	-7.235000E+00	  0.089138277	1.038770E+02	  0.089138277	2.901600E+01	  0.089138277	3.019800E+01
347	  0.089338675	-7.249000E+00	  0.089338675	1.031540E+02	  0.089338675	2.927900E+01	  0.089338675	3.049500E+01
348	  0.089539073	-7.271000E+00	  0.089539073	1.024760E+02	  0.089539073	2.955800E+01	  0.089539073	3.075300E+01
349	  0.089739479	-7.281000E+00	  0.089739479	1.017680E+02	  0.089739479	2.981600E+01	  0.089739479	3.104900E+01
350	  0.089939877	-7.308000E+00	  0.089939877	1.010560E+02	  0.089939877	3.012700E+01	  0.089939877	3.131100E+01
351	  0.090140276	-7.325000E+00	  0.090140276	1.003390E+02	  0.090140276	3.041600E+01	  0.090140276	3.159600E+01
352	  0.090340681	-7.358000E+00	  0.090340681	9.966600E+01	  0.090340681	3.074000E+01	  0.090340681	3.182600E+01
353	  0.090541080	-7.373000E+00	  0.090541080	9.893700E+01	  0.090541080	3.103600E+01	  0.090541080	3.211800E+01
354	  0.090741485	-7.409000E+00	  0.090741485	9.828600E+01	  0.090741485	3.137000E+01	  0.090741485	3.232700E+01
355	  0.090941884	-7.436000E+00	  0.090941884	9.760100E+01	  0.090941884	3.169600E+01	  0.090941884	3.256800E+01
356	  0.091142282	-7.467000E+00	  0.091142282	9.690600E+01	  0.091142282	3.204000E+01	  0.091142282	3.280300E+01
357	  0.091342688	-7.499000E+00	  0.091342688	9.627400E+01	  0.091342688	3.236700E+01	  0.091342688	3.300600E+01
358	  0.091543086	-7.528000E+00	  0.091543086	9.558400E+01	  0.091543086	3.271100E+01	  0.091543086	3.324000E+01
359	  0.091743484	-7.560000E+00	  0.091743484	9.494200E+01	  0.091743484	3.305000E+01	  0.091743484	3.344300E+01
360	  0.091943890	-7.593000E+00	  0.091943890	9.427300E+01	  0.091943890	3.340500E+01	  0.091943890	3.365300E+01
361	  0.092144288	-7.627000E+00	  0.092144288	9.361500E+01	  0.092144288	3.376600E+01	  0.092144288	3.385100E+01
362	  0.092344686	-7.655000E+00	  0.092344686	9.298200E+01	  0.092344686	3.410000E+01	  0.092344686	3.405400E+01
363	  0.092545092	-7.690000E+00	  0.092545092	9.234400E+01	  0.092545092	3.446200E+01	  0.092545092	3.423600E+01
364	  0.092745490	-7.726000E+00	  0.092745490	9.175400E+01	  0.092745490	3.480900E+01	  0.092745490	3.439400E+01
365	  0.092945889	-7.759000E+00	  0.092945889	9.110500E+01	  0.092945889	3.517600E+01	  0.092945889	3.458000E+01
366	  0.093146294	-7.795000E+00	  0.093146294	9.044200E+01	  0.093146294	3.556200E+01	  0.093146294	3.476200E+01
367	  0.093346693	-7.827000E+00	  0.093346693	8.987700E+01	  0.093346693	3.589700E+01	  0.093346693	3.491100E+01
368	  0.093547091	-7.862000E+00	  0.093547091	8.929700E+01	  0.093547091	3.624900E+01	  0.093547091	3.505700E+01
369	  0.093747497	-7.893000E+00	  0.093747497	8.867800E+01	  0.093747497	3.661200E+01	  0.093747497	3.522400E+01
370	  0.093947895	-7.926000E+00	  0.093947895	8.808500E+01	  0.093947895	3.697200E+01	  0.093947895	3.537300E+01
371	  0.094148301	-7.959000E+00	  0.094148301	8.748800E+01	  0.094148301	3.733800E+01	  0.094148301	3.551900E+01
372	  0.094348699	-7.995000E+00	  0.094348699	8.694500E+01	  0.094348699	3.768800E+01	  0.094348699	3.563200E+01
373	  0.094549097	-8.034000E+00	  0.094549097	8.634400E+01	  0.094549097	3.807600E+01	  0.094549097	3.575700E+01
374	  0.094749503	-8.067000E+00	  0.094749503	8.579100E+01	  0.094749503	3.843000E+01	  0.094749503	3.587600E+01
375	  0.094949901	-8.100000E+00	  0.094949901	8.525900E+01	  0.094949901	3.877400E+01	  0.094949901	3.598500E+01
376	  0.095150299	-8.133000E+00	  0.095150299	8.470300E+01	  0.095150299	3.913400E+01	  0.095150299	3.609900E+01
377	  0.095350705	-8.170000E+00	  0.095350705	8.414800E+01	  0.095350705	3.950400E+01	  0.095350705	3.619900E+01
378	  0.095551103	-8.203000E+00	  0.095551103	8.361800E+01	  0.095551103	3.985500E+01	  0.095551103	3.629700E+01
379	  0.095751502	-8.237000E+00	  0.095751502	8.310100E+01	  0.095751502	4.020400E+01	  0.095751502	3.638300E+01
380	  0.095951907	-8.268000E+00	  0.095951907	8.256700E+01	  0.095951907	4.055700E+01	  0.095951907	3.648200E+01
381	  0.096152306	-8.305000E+00	  0.096152306	8.207200E+01	  0.096152306	4.090800E+01	  0.096152306	3.654300E+01
382	  0.096352704	-8.337000E+00	  0.096352704	8.157000E+01	  0.096352704	4.124900E+01	  0.096352704	3.662200E+01
383	  0.096553110	-8.367000E+00	  0.096553110	8.110500E+01	  0.096553110	4.157000E+01	  0.096553110	3.668800E+01
384	  0.096753508	-8.400000E+00	  0.096753508	8.060700E+01	  0.096753508	4.191600E+01	  0.096753508	3.675600E+01
385	  0.096953906	-8.435000E+00	  0.096953906	8.013200E+01	  0.096953906	4.225700E+01	  0.096953906	3.680300E+01
386	  0.097154312	-8.472000E+00	  0.097154312	7.965000E+01	  0.097154312	4.260700E+01	  0.097154312	3.684400E+01
387	  0.097354710	-8.504000E+00	  0.097354710	7.918700E+01	  0.097354710	4.293600E+01	  0.097354710	3.689200E+01
388	  0.097555116	-8.540000E+00	  0.097555116	7.877200E+01	  0.097555116	4.325000E+01	  0.097555116	3.690500E+01
389	  0.097755514	-8.575000E+00	  0.097755514	7.832400E+01	  0.097755514	4.358100E+01	  0.097755514	3.692900E+01
390	  0.097955912	-8.610000E+00	  0.097955912	7.790100E+01	  0.097955912	4.389700E+01	  0.097955912	3.694500E+01
391	  0.098156318	-8.640000E+00	  0.098156318	7.744900E+01	  0.098156318	4.422100E+01	  0.098156318	3.698400E+01
392	  0.098356716	-8.671000E+00	  0.098356716	7.703800E+01	  0.098356716	4.452400E+01	  0.098356716	3.700400E+01
393	  0.098557115	-8.704000E+00	  0.098557115	7.662900E+01	  0.098557115	4.483200E+01	  0.098557115	3.701000E+01
394	  0.098757520	-8.734000E+00	  0.098757520	7.616100E+01	  0.098757520	4.516700E+01	  0.098757520	3.704600E+01
395	  0.098957919	-8.763000E+00	  0.098957919	7.575400E+01	  0.098957919	4.546700E+01	  0.098957919	3.706300E+01
396	  0.099158317	-8.792000E+00	  0.099158317	7.535700E+01	  0.099158317	4.576100E+01	  0.099158317	3.707500E+01
397	  0.099358723	-8.820000E+00	  0.099358723	7.494700E+01	  0.099358723	4.606100E+01	  0.099358723	3.709200E+01
398	  0.099559121	-8.853000E+00	  0.099559121	7.457400E+01	  0.099559121	4.635100E+01	  0.099559121	3.707400E+01
399	  0.099759519	-8.879000E+00	  0.099759519	7.420000E+01	  0.099759519	4.662700E+01	  0.099759519	3.708300E+01
400	  0.099959925	-8.914000E+00	  0.099959925	7.382300E+01	  0.099959925	4.692300E+01	  0.099959925	3.705500E+01
401	  0.100160323	-8.933000E+00	  0.100160323	7.346800E+01	  0.100160323	4.717700E+01	  0.100160323	3.707900E+01
402	  0.100360721	-8.958000E+00	  0.100360721	7.302300E+01	  0.100360721	4.749500E+01	  0.100360721	3.710800E+01
403	  0.100561127	-8.980000E+00	  0.100561127	7.266600E+01	  0.100561127	4.775600E+01	  0.100561127	3.711800E+01
404	  0.100761525	-9.000000E+00	  0.100761525	7.234500E+01	  0.100761525	4.799300E+01	  0.100761525	3.712400E+01
405	  0.100961931	-9.020000E+00	  0.100961931	7.196000E+01	  0.100961931	4.826900E+01	  0.100961931	3.714600E+01
406	  0.101162329	-9.036000E+00	  0.101162329	7.155900E+01	  0.101162329	4.854900E+01	  0.101162329	3.718800E+01
407	  0.101362728	-9.058000E+00	  0.101362728	7.124300E+01	  0.101362728	4.878600E+01	  0.101362728	3.718200E+01
408	  0.101563133	-9.071000E+00	  0.101563133	7.086700E+01	  0.101563133	4.904800E+01	  0.101563133	3.722300E+01
409	  0.101763532	-9.096000E+00	  0.101763532	7.057100E+01	  0.101763532	4.928000E+01	  0.101763532	3.719200E+01
410	  0.101963930	-9.103000E+00	  0.101963930	7.022400E+01	  0.101963930	4.951300E+01	  0.101963930	3.725200E+01
411	  0.102164328	-9.111000E+00	  0.102164328	6.987800E+01	  0.102164328	4.975000E+01	  0.102164328	3.730200E+01
412	  0.102364726	-9.130000E+00	  0.102364726	6.954100E+01	  0.102364726	5.000000E+01	  0.102364726	3.730600E+01
413	  0.102565125	-9.137000E+00	  0.102565125	6.917600E+01	  0.102565125	5.025000E+01	  0.102565125	3.736100E+01
414	  0.102765530	-9.147000E+00	  0.102765530	6.883200E+01	  0.102765530	5.049100E+01	  0.102765530	3.740100E+01
415	  0.102965929	-9.144000E+00	  0.102965929	6.849100E+01	  0.102965929	5.071300E+01	  0.102965929	3.749200E+01
416	  0.103166327	-9.151000E+00	  0.103166327	6.819600E+01	  0.103166327	5.091900E+01	  0.103166327	3.753100E+01
417	  0.103366733	-9.154000E+00	  0.103366733	6.781200E+01	  0.103366733	5.118000E+01	  0.103366733	3.760700E+01
418	  0.103567131	-9.159000E+00	  0.103567131	6.748900E+01	  0.103567131	5.140600E+01	  0.103567131	3.765400E+01
419	  0.103767529	-9.159000E+00	  0.103767529	6.712100E+01	  0.103767529	5.165500E+01	  0.103767529	3.773700E+01
420	  0.103967935	-9.162000E+00	  0.103967935	6.676000E+01	  0.103967935	5.190600E+01	  0.103967935	3.780100E+01
421	  0.104168333	-9.153000E+00	  0.104168333	6.642800E+01	  0.104168333	5.212100E+01	  0.104168333	3.791400E+01
422	  0.104368731	-9.157000E+00	  0.104368731	6.607900E+01	  0.104368731	5.236900E+01	  0.104368731	3.796800E+01
423	  0.104569137	-9.147000E+00	  0.104569137	6.572400E+01	  0.104569137	5.260100E+01	  0.104569137	3.809100E+01
424	  0.104769535	-9.137000E+00	  0.104769535	6.533900E+01	  0.104769535	5.285900E+01	  0.104769535	3.821400E+01
425	  0.104969934	-9.130000E+00	  0.104969934	6.493400E+01	  0.104969934	5.313700E+01	  0.104969934	3.832800E+01
426	  0.105170339	-9.125000E+00	  0.105170339	6.455900E+01	  0.105170339	5.339800E+01	  0.105170339	3.842500E+01
427	  0.105370738	-9.113000E+00	  0.105370738	6.417800E+01	  0.105370738	5.365600E+01	  0.105370738	3.856000E+01
428	  0.105571143	-9.106000E+00	  0.105571143	6.375000E+01	  0.105571143	5.395700E+01	  0.105571143	3.867500E+01
429	  0.105771542	-9.098000E+00	  0.105771542	6.337300E+01	  0.105771542	5.422300E+01	  0.105771542	3.878400E+01
430	  0.105971940	-9.075000E+00	  0.105971940	6.289000E+01	  0.105971940	5.455200E+01	  0.105971940	3.898500E+01
431	  0.106172346	-9.060000E+00	  0.106172346	6.243600E+01	  0.106172346	5.487400E+01	  0.106172346	3.913700E+01
432	  0.106372744	-9.054000E+00	  0.106372744	6.203100E+01	  0.106372744	5.517100E+01	  0.106372744	3.924100E+01
433	  0.106573142	-9.026000E+00	  0.106573142	6.161500E+01	  0.106573142	5.545400E+01	  0.106573142	3.945400E+01
434	  0.106773548	-9.007000E+00	  0.106773548	6.118400E+01	  0.106773548	5.576500E+01	  0.106773548	3.962000E+01
435	  0.106973946	-8.986000E+00	  0.106973946	6.068700E+01	  0.106973946	5.612700E+01	  0.106973946	3.981200E+01
436	  0.107174344	-8.964000E+00	  0.107174344	6.019100E+01	  0.107174344	5.649300E+01	  0.107174344	4.000200E+01
437	  0.107374750	-8.942000E+00	  0.107374750	5.966900E+01	  0.107374750	5.688500E+01	  0.107374750	4.020100E+01
438	  0.107575148	-8.933000E+00	  0.107575148	5.917600E+01	  0.107575148	5.727000E+01	  0.107575148	4.032600E+01
439	  0.107775547	-8.906000E+00	  0.107775547	5.866500E+01	  0.107775547	5.766000E+01	  0.107775547	4.054100E+01
440	  0.107975952	-8.879000E+00	  0.107975952	5.816100E+01	  0.107975952	5.804800E+01	  0.107975952	4.075700E+01
441	  0.108176351	-8.863000E+00	  0.108176351	5.759200E+01	  0.108176351	5.850700E+01	  0.108176351	4.092200E+01
442	  0.108376749	-8.843000E+00	  0.108376749	5.703300E+01	  0.108376749	5.896000E+01	  0.108376749	4.110800E+01
443	  0.108577155	-8.821000E+00	  0.108577155	5.649000E+01	  0.108577155	5.940500E+01	  0.108577155	4.129400E+01
444	  0.108777553	-8.795000E+00	  0.108777553	5.585000E+01	  0.108777553	5.993700E+01	  0.108777553	4.151800E+01
445	  0.108977959	-8.782000E+00	  0.108977959	5.526900E+01	  0.108977959	6.043600E+01	  0.108977959	4.165400E+01
446	  0.109178357	-8.761000E+00	  0.109178357	5.466500E+01	  0.109178357	6.095600E+01	  0.109178357	4.183300E+01
447	  0.109378755	-8.744000E+00	  0.109378755	5.403500E+01	  0.109378755	6.151000E+01	  0.109378755	4.199300E+01
448	  0.109579161	-8.724000E+00	  0.109579161	5.338700E+01	  0.109579161	6.208800E+01	  0.109579161	4.216100E+01
449	  0.109779559	-8.706000E+00	  0.109779559	5.273000E+01	  0.109779559	6.268400E+01	  0.109779559	4.231500E+01
450	  0.109979957	-8.700000E+00	  0.109979957	5.208200E+01	  0.109979957	6.328600E+01	  0.109979957	4.238700E+01
451	  0.110180363	-8.681000E+00	  0.110180363	5.140400E+01	  0.110180363	6.391900E+01	  0.110180363	4.253900E+01
452	  0.110380761	-8.667000E+00	  0.110380761	5.070000E+01	  0.110380761	6.458800E+01	  0.110380761	4.264900E+01
453	  0.110581160	-8.660000E+00	  0.110581160	4.999900E+01	  0.110581160	6.526600E+01	  0.110581160	4.270800E+01
454	  0.110781565	-8.650000E+00	  0.110781565	4.931100E+01	  0.110781565	6.593900E+01	  0.110781565	4.277200E+01
455	  0.110981964	-8.645000E+00	  0.110981964	4.857600E+01	  0.110981964	6.666800E+01	  0.110981964	4.280100E+01
456	  0.111182362	-8.642000E+00	  0.111182362	4.787700E+01	  0.111182362	6.736800E+01	  0.111182362	4.280100E+01
457	  0.111382768	-8.629000E+00	  0.111382768	4.718200E+01	  0.111382768	6.807500E+01	  0.111382768	4.285200E+01
458	  0.111583166	-8.625000E+00	  0.111583166	4.642600E+01	  0.111583166	6.885100E+01	  0.111583166	4.283800E+01
459	  0.111783572	-8.618000E+00	  0.111783572	4.566100E+01	  0.111783572	6.964700E+01	  0.111783572	4.282000E+01
460	  0.111983970	-8.615000E+00	  0.111983970	4.491300E+01	  0.111983970	7.043100E+01	  0.111983970	4.277100E+01
461	  0.112184368	-8.614000E+00	  0.112184368	4.409800E+01	  0.112184368	7.129300E+01	  0.112184368	4.267600E+01
462	  0.112384774	-8.612000E+00	  0.112384774	4.332600E+01	  0.112384774	7.211900E+01	  0.112384774	4.257900E+01
463	  0.112585172	-8.613000E+00	  0.112585172	4.258300E+01	  0.112585172	7.291800E+01	  0.112585172	4.244700E+01
464	  0.112785570	-8.610000E+00	  0.112785570	4.178700E+01	  0.112785570	7.378400E+01	  0.112785570	4.231700E+01
465	  0.112985976	-8.614000E+00	  0.112985976	4.097600E+01	  0.112985976	7.466700E+01	  0.112985976	4.211700E+01
466	  0.113186374	-8.619000E+00	  0.113186374	4.016100E+01	  0.113186374	7.555600E+01	  0.113186374	4.188300E+01
467	  0.113386773	-8.617000E+00	  0.113386773	3.939300E+01	  0.113386773	7.641100E+01	  0.113386773	4.169700E+01
468	  0.113587178	-8.621000E+00	  0.113587178	3.855200E+01	  0.113587178	7.734200E+01	  0.113587178	4.141900E+01
469	  0.113787577	-8.623000E+00	  0.113787577	3.776900E+01	  0.113787577	7.821500E+01	  0.113787577	4.115100E+01
470	  0.113987975	-8.630000E+00	  0.113987975	3.691000E+01	  0.113987975	7.916500E+01	  0.113987975	4.079600E+01
471	  0.114188381	-8.636000E+00	  0.114188381	3.608200E+01	  0.114188381	8.008500E+01	  0.114188381	4.043500E+01
472	  0.114388779	-8.639000E+00	  0.114388779	3.530100E+01	  0.114388779	8.096000E+01	  0.114388779	4.009000E+01
473	  0.114589177	-8.644000E+00	  0.114589177	3.443700E+01	  0.114589177	8.192500E+01	  0.114589177	3.967100E+01
474	  0.114789583	-8.652000E+00	  0.114789583	3.358600E+01	  0.114789583	8.286500E+01	  0.114789583	3.920500E+01
475	  0.114989981	-8.658000E+00	  0.114989981	3.274700E+01	  0.114989981	8.379600E+01	  0.114989981	3.873100E+01
476	  0.115190387	-8.671000E+00	  0.115190387	3.184900E+01	  0.115190387	8.476700E+01	  0.115190387	3.814700E+01
477	  0.115390785	-8.676000E+00	  0.115390785	3.099700E+01	  0.115390785	8.570500E+01	  0.115390785	3.760900E+01
478	  0.115591183	-8.693000E+00	  0.115591183	3.010200E+01	  0.115591183	8.664200E+01	  0.115591183	3.693600E+01
479	  0.115791589	-8.703000E+00	  0.115791589	2.921500E+01	  0.115791589	8.758400E+01	  0.115791589	3.627900E+01
480	  0.115991987	-8.720000E+00	  0.115991987	2.826900E+01	  0.115991987	8.855100E+01	  0.115991987	3.550200E+01
481	  0.116192386	-8.738000E+00	  0.116192386	2.732800E+01	  0.116192386	8.949200E+01	  0.116192386	3.468500E+01
482	  0.116392791	-8.758000E+00	  0.116392791	2.639100E+01	  0.116392791	9.039800E+01	  0.116392791	3.382100E+01
483	  0.116593190	-8.776000E+00	  0.116593190	2.541500E+01	  0.116593190	9.133400E+01	  0.116593190	3.290400E+01
484	  0.116793588	-8.805000E+00	  0.116793588	2.438800E+01	  0.116793588	9.223400E+01	  0.116793588	3.182800E+01
485	  0.116993994	-8.834000E+00	  0.116993994	2.336400E+01	  0.116993994	9.310100E+01	  0.116993994	3.072300E+01
486	  0.117194392	-8.862000E+00	  0.117194392	2.234300E+01	  0.117194392	9.393100E+01	  0.117194392	2.958700E+01
487	  0.117394790	-8.901000E+00	  0.117394790	2.132500E+01	  0.117394790	9.465700E+01	  0.117394790	2.835900E+01
488	  0.117595196	-8.937000E+00	  0.117595196	2.026200E+01	  0.117595196	9.539200E+01	  0.117595196	2.707000E+01
489	  0.117795594	-8.977000E+00	  0.117795594	1.916200E+01	  0.117795594	9.609000E+01	  0.117795594	2.569200E+01
490	  0.117995992	-9.019000E+00	  0.117995992	1.808600E+01	  0.117995992	9.669600E+01	  0.117995992	2.430000E+01
491	  0.118196398	-9.069000E+00	  0.118196398	1.693700E+01	  0.118196398	9.724600E+01	  0.118196398	2.276400E+01
492	  0.118396796	-9.119000E+00	  0.118396796	1.577600E+01	  0.118396796	9.773900E+01	  0.118396796	2.119500E+01
493	  0.118597202	-9.170000E+00	  0.118597202	1.462300E+01	  0.118597202	9.814900E+01	  0.118597202	1.961600E+01
494	  0.118797600	-9.227000E+00	  0.118797600	1.347500E+01	  0.118797600	9.844300E+01	  0.118797600	1.800900E+01
