! Anritsu VNA Master:             	Model: MS2036C/10/77
! SN:             	1601066
! /bd0/18may10/256.ew.m2.txt
! Existing Calibration Information:
! TYPE:             	Current Settings	Active Cal Settings
! TIME:             	05/10/2018 10:13:29 AM	05/10/2018 10:05:08 AM
! INTERNAL TEMP:    	46.3 C	45.0 C
! # POINTS:         	494	494
! START FREQ:       	20.000 MHz	20.000 MHz
! STOP FREQ:        	118.797 594 MHz	118.797 594 MHz
! SOURCE POWER:     	High	High
! IFBW:             	50 Hz	50 Hz
! AVG FACTOR:       	  1 	  1 
! REF PLANE 1:      	0 mm	0 mm
! REF PLANE 2:      	0 mm	0 mm
! CAL TYPE:         	Full S22	Full S22
! CAL METHOD:       	SOLT	SOLT
! CAL LINE TYPE:    	Coax	Coax
! DUT PORT 1:       	K-Conn(M)	K-Conn(M)
! DUT PORT 2:       	K-Conn(M)	K-Conn(M)
! CAL STATUS:       	OK: Accuracy High	--
! PROP-V:       	0.700
! CABLE LOSS:       	0.000 dB/m
! REF IMPEDANCE:       	50.0
! Trace Specific Parameters:	TR1	TR2	TR3	TR4
! TRACE.#.Y (GRAPH TYPE)	LOG MAG	PHASE	REAL IMPEDANCE	IMAGINARY IMPEDANCE
! TRACE.#.X 	FREQ.GHZ	FREQ.GHZ	FREQ.GHZ	FREQ.GHZ
! S-PARAMETER	S22	S22	S22	S22
! SMOOTH/APERTURE %	0	0	0	0
! WINDOW	NSL	NSL	NSL	NSL
! GATING	OFF	OFF	OFF	OFF
! FGTD	OFF	OFF	OFF	OFF
Marker Information per Trace:	TR1	TR2	TR3	TR4
!MK1	--	"MK1 TR2:  20.000 MHz,PH:-126.95°"	--	--
!MK2	--	--	"MK2 TR3:  70.100 200 MHz,Z:(16.372 ohm, -1.331 ohm)"	--
!MK3	--	--	--	--
!MK4	--	--	--	--
!MK5	--	--	--	--
!MK6	--	--	--	--
!MK7	--	--	--	--
!MK8	--	--	--	--
PNT	TR1.FREQ.GHZ	TR1.LOG MAG.dB	TR2.FREQ.GHZ	TR2.PHASE.deg	TR3.FREQ.GHZ	TR3.REAL IMPEDANCE.ohm	TR4.FREQ.GHZ	TR4.IMAGINARY IMPEDANCE.ohm
1	  0.020000000	-6.300000E-01	  0.020000000	-1.269480E+02	  0.020000000	2.263000E+00	  0.020000000	-2.491600E+01
2	  0.020200402	-6.320000E-01	  0.020200402	-1.283970E+02	  0.020200402	2.243000E+00	  0.020200402	-2.413200E+01
3	  0.020400802	-6.370000E-01	  0.020400802	-1.298730E+02	  0.020400802	2.232000E+00	  0.020400802	-2.334400E+01
4	  0.020601204	-6.400000E-01	  0.020601204	-1.313710E+02	  0.020601204	2.217000E+00	  0.020601204	-2.255400E+01
5	  0.020801604	-6.440000E-01	  0.020801604	-1.328910E+02	  0.020801604	2.206000E+00	  0.020801604	-2.176100E+01
6	  0.021002004	-6.470000E-01	  0.021002004	-1.344270E+02	  0.021002004	2.189000E+00	  0.021002004	-2.096900E+01
7	  0.021202406	-6.530000E-01	  0.021202406	-1.359690E+02	  0.021202406	2.187000E+00	  0.021202406	-2.018300E+01
8	  0.021402806	-6.550000E-01	  0.021402806	-1.374990E+02	  0.021402806	2.170000E+00	  0.021402806	-1.941200E+01
9	  0.021603208	-6.580000E-01	  0.021603208	-1.390170E+02	  0.021603208	2.158000E+00	  0.021603208	-1.865400E+01
10	  0.021803608	-6.640000E-01	  0.021803608	-1.405470E+02	  0.021803608	2.155000E+00	  0.021803608	-1.789800E+01
11	  0.022004008	-6.720000E-01	  0.022004008	-1.420930E+02	  0.022004008	2.160000E+00	  0.022004008	-1.714100E+01
12	  0.022204408	-6.770000E-01	  0.022204408	-1.436570E+02	  0.022204408	2.159000E+00	  0.022204408	-1.638300E+01
13	  0.022404809	-6.860000E-01	  0.022404809	-1.452700E+02	  0.022404809	2.166000E+00	  0.022404809	-1.560800E+01
14	  0.022605211	-6.920000E-01	  0.022605211	-1.468550E+02	  0.022605211	2.166000E+00	  0.022605211	-1.485300E+01
15	  0.022805611	-6.960000E-01	  0.022805611	-1.484580E+02	  0.022805611	2.161000E+00	  0.022805611	-1.409600E+01
16	  0.023006011	-7.010000E-01	  0.023006011	-1.500550E+02	  0.023006011	2.163000E+00	  0.023006011	-1.334800E+01
17	  0.023206413	-7.070000E-01	  0.023206413	-1.516600E+02	  0.023206413	2.163000E+00	  0.023206413	-1.260100E+01
18	  0.023406813	-7.140000E-01	  0.023406813	-1.532520E+02	  0.023406813	2.170000E+00	  0.023406813	-1.186600E+01
19	  0.023607215	-7.220000E-01	  0.023607215	-1.548630E+02	  0.023607215	2.180000E+00	  0.023607215	-1.112700E+01
20	  0.023807615	-7.330000E-01	  0.023807615	-1.565030E+02	  0.023807615	2.201000E+00	  0.023807615	-1.037900E+01
21	  0.024008015	-7.430000E-01	  0.024008015	-1.581410E+02	  0.024008015	2.217000E+00	  0.024008015	-9.636000E+00
22	  0.024208417	-7.510000E-01	  0.024208417	-1.598060E+02	  0.024208417	2.231000E+00	  0.024208417	-8.886000E+00
23	  0.024408817	-7.570000E-01	  0.024408817	-1.614710E+02	  0.024408817	2.235000E+00	  0.024408817	-8.139000E+00
24	  0.024609219	-7.660000E-01	  0.024609219	-1.631310E+02	  0.024609219	2.253000E+00	  0.024609219	-7.398000E+00
25	  0.024809619	-7.760000E-01	  0.024809619	-1.647970E+02	  0.024809619	2.273000E+00	  0.024809619	-6.659000E+00
26	  0.025010020	-7.870000E-01	  0.025010020	-1.664760E+02	  0.025010020	2.298000E+00	  0.025010020	-5.916000E+00
27	  0.025210422	-7.990000E-01	  0.025210422	-1.681540E+02	  0.025210422	2.324000E+00	  0.025210422	-5.176000E+00
28	  0.025410822	-8.120000E-01	  0.025410822	-1.698520E+02	  0.025410822	2.354000E+00	  0.025410822	-4.429000E+00
29	  0.025611224	-8.250000E-01	  0.025611224	-1.715650E+02	  0.025611224	2.386000E+00	  0.025611224	-3.678000E+00
30	  0.025811624	-8.370000E-01	  0.025811624	-1.732770E+02	  0.025811624	2.416000E+00	  0.025811624	-2.929000E+00
31	  0.026012026	-8.490000E-01	  0.026012026	-1.750170E+02	  0.026012026	2.448000E+00	  0.026012026	-2.170000E+00
32	  0.026212426	-8.630000E-01	  0.026212426	-1.767500E+02	  0.026212426	2.484000E+00	  0.026212426	-1.414000E+00
33	  0.026412826	-8.790000E-01	  0.026412826	-1.785070E+02	  0.026412826	2.529000E+00	  0.026412826	-6.490000E-01
34	  0.026613226	-8.950000E-01	  0.026613226	1.797420E+02	  0.026613226	2.576000E+00	  0.026613226	1.120000E-01
35	  0.026813626	-9.100000E-01	  0.026813626	1.779760E+02	  0.026813626	2.620000E+00	  0.026813626	8.800000E-01
36	  0.027014028	-9.290000E-01	  0.027014028	1.762050E+02	  0.027014028	2.676000E+00	  0.027014028	1.651000E+00
37	  0.027214428	-9.470000E-01	  0.027214428	1.744270E+02	  0.027214428	2.730000E+00	  0.027214428	2.426000E+00
38	  0.027414829	-9.650000E-01	  0.027414829	1.726440E+02	  0.027414829	2.786000E+00	  0.027414829	3.204000E+00
39	  0.027615231	-9.840000E-01	  0.027615231	1.708360E+02	  0.027615231	2.849000E+00	  0.027615231	3.994000E+00
40	  0.027815631	-1.004000E+00	  0.027815631	1.690290E+02	  0.027815631	2.915000E+00	  0.027815631	4.785000E+00
41	  0.028016033	-1.026000E+00	  0.028016033	1.672050E+02	  0.028016033	2.988000E+00	  0.028016033	5.586000E+00
42	  0.028216433	-1.049000E+00	  0.028216433	1.653640E+02	  0.028216433	3.067000E+00	  0.028216433	6.397000E+00
43	  0.028416833	-1.072000E+00	  0.028416833	1.635130E+02	  0.028416833	3.147000E+00	  0.028416833	7.215000E+00
44	  0.028617235	-1.094000E+00	  0.028617235	1.616780E+02	  0.028617235	3.228000E+00	  0.028617235	8.030000E+00
45	  0.028817635	-1.119000E+00	  0.028817635	1.598330E+02	  0.028817635	3.318000E+00	  0.028817635	8.853000E+00
46	  0.029018037	-1.145000E+00	  0.029018037	1.579870E+02	  0.029018037	3.416000E+00	  0.029018037	9.681000E+00
47	  0.029218437	-1.170000E+00	  0.029218437	1.561280E+02	  0.029218437	3.514000E+00	  0.029218437	1.051900E+01
48	  0.029418837	-1.199000E+00	  0.029418837	1.542460E+02	  0.029418837	3.626000E+00	  0.029418837	1.137200E+01
49	  0.029619239	-1.226000E+00	  0.029619239	1.523550E+02	  0.029619239	3.735000E+00	  0.029619239	1.223600E+01
50	  0.029819639	-1.256000E+00	  0.029819639	1.504640E+02	  0.029819639	3.858000E+00	  0.029819639	1.310700E+01
51	  0.030020041	-1.285000E+00	  0.030020041	1.485790E+02	  0.030020041	3.983000E+00	  0.030020041	1.398100E+01
52	  0.030220442	-1.314000E+00	  0.030220442	1.466880E+02	  0.030220442	4.110000E+00	  0.030220442	1.486500E+01
53	  0.030420844	-1.343000E+00	  0.030420844	1.448010E+02	  0.030420844	4.244000E+00	  0.030420844	1.575600E+01
54	  0.030621244	-1.375000E+00	  0.030621244	1.429090E+02	  0.030621244	4.391000E+00	  0.030621244	1.665700E+01
55	  0.030821642	-1.409000E+00	  0.030821642	1.410070E+02	  0.030821642	4.551000E+00	  0.030821642	1.757100E+01
56	  0.031022044	-1.442000E+00	  0.031022044	1.390850E+02	  0.031022044	4.715000E+00	  0.031022044	1.850500E+01
57	  0.031222444	-1.473000E+00	  0.031222444	1.371620E+02	  0.031222444	4.876000E+00	  0.031222444	1.945100E+01
58	  0.031422846	-1.508000E+00	  0.031422846	1.352030E+02	  0.031422846	5.059000E+00	  0.031422846	2.042600E+01
59	  0.031623244	-1.543000E+00	  0.031623244	1.332300E+02	  0.031623244	5.252000E+00	  0.031623244	2.142000E+01
60	  0.031823646	-1.577000E+00	  0.031823646	1.312700E+02	  0.031823646	5.447000E+00	  0.031823646	2.242000E+01
61	  0.032024048	-1.614000E+00	  0.032024048	1.293090E+02	  0.032024048	5.663000E+00	  0.032024048	2.343400E+01
62	  0.032224450	-1.651000E+00	  0.032224450	1.273180E+02	  0.032224450	5.887000E+00	  0.032224450	2.447900E+01
63	  0.032424849	-1.691000E+00	  0.032424849	1.253410E+02	  0.032424849	6.132000E+00	  0.032424849	2.553100E+01
64	  0.032625251	-1.728000E+00	  0.032625251	1.233320E+02	  0.032625251	6.380000E+00	  0.032625251	2.661900E+01
65	  0.032825653	-1.769000E+00	  0.032825653	1.212930E+02	  0.032825653	6.660000E+00	  0.032825653	2.773900E+01
66	  0.033026051	-1.809000E+00	  0.033026051	1.192600E+02	  0.033026051	6.945000E+00	  0.033026051	2.887700E+01
67	  0.033226453	-1.849000E+00	  0.033226453	1.172170E+02	  0.033226453	7.249000E+00	  0.033226453	3.004000E+01
68	  0.033426855	-1.891000E+00	  0.033426855	1.151790E+02	  0.033426855	7.573000E+00	  0.033426855	3.122100E+01
69	  0.033627257	-1.936000E+00	  0.033627257	1.131390E+02	  0.033627257	7.928000E+00	  0.033627257	3.242500E+01
70	  0.033827655	-1.983000E+00	  0.033827655	1.110980E+02	  0.033827655	8.307000E+00	  0.033827655	3.365300E+01
71	  0.034028057	-2.023000E+00	  0.034028057	1.090330E+02	  0.034028057	8.685000E+00	  0.034028057	3.492400E+01
72	  0.034228459	-2.071000E+00	  0.034228459	1.069570E+02	  0.034228459	9.118000E+00	  0.034228459	3.622500E+01
73	  0.034428857	-2.116000E+00	  0.034428857	1.048810E+02	  0.034428857	9.562000E+00	  0.034428857	3.755700E+01
74	  0.034629259	-2.163000E+00	  0.034629259	1.027780E+02	  0.034629259	1.004600E+01	  0.034629259	3.893600E+01
75	  0.034829661	-2.211000E+00	  0.034829661	1.007010E+02	  0.034829661	1.056200E+01	  0.034829661	4.032700E+01
76	  0.035030060	-2.261000E+00	  0.035030060	9.861900E+01	  0.035030060	1.111900E+01	  0.035030060	4.175400E+01
77	  0.035230462	-2.310000E+00	  0.035230462	9.651900E+01	  0.035230462	1.171100E+01	  0.035230462	4.322900E+01
78	  0.035430863	-2.361000E+00	  0.035430863	9.444900E+01	  0.035430863	1.234400E+01	  0.035430863	4.471700E+01
79	  0.035631265	-2.411000E+00	  0.035631265	9.236000E+01	  0.035631265	1.301800E+01	  0.035631265	4.625800E+01
80	  0.035831664	-2.462000E+00	  0.035831664	9.026600E+01	  0.035831664	1.374400E+01	  0.035831664	4.784100E+01
81	  0.036032066	-2.511000E+00	  0.036032066	8.817900E+01	  0.036032066	1.451100E+01	  0.036032066	4.946300E+01
82	  0.036232468	-2.564000E+00	  0.036232468	8.610000E+01	  0.036232468	1.534500E+01	  0.036232468	5.111600E+01
83	  0.036432866	-2.615000E+00	  0.036432866	8.400100E+01	  0.036432866	1.623900E+01	  0.036432866	5.283400E+01
84	  0.036633268	-2.668000E+00	  0.036633268	8.190500E+01	  0.036633268	1.721000E+01	  0.036633268	5.459000E+01
85	  0.036833670	-2.722000E+00	  0.036833670	7.981800E+01	  0.036833670	1.825100E+01	  0.036833670	5.638800E+01
86	  0.037034072	-2.776000E+00	  0.037034072	7.770100E+01	  0.037034072	1.938800E+01	  0.037034072	5.826000E+01
87	  0.037234470	-2.830000E+00	  0.037234470	7.562300E+01	  0.037234470	2.059300E+01	  0.037234470	6.014600E+01
88	  0.037434869	-2.884000E+00	  0.037434869	7.350400E+01	  0.037434869	2.191500E+01	  0.037434869	6.212300E+01
89	  0.037635271	-2.939000E+00	  0.037635271	7.141600E+01	  0.037635271	2.333100E+01	  0.037635271	6.412100E+01
90	  0.037835669	-2.992000E+00	  0.037835669	6.928900E+01	  0.037835669	2.487700E+01	  0.037835669	6.621600E+01
91	  0.038036071	-3.053000E+00	  0.038036071	6.716900E+01	  0.038036071	2.660100E+01	  0.038036071	6.832900E+01
92	  0.038236473	-3.110000E+00	  0.038236473	6.504600E+01	  0.038236473	2.844600E+01	  0.038236473	7.051100E+01
93	  0.038436871	-3.170000E+00	  0.038436871	6.292500E+01	  0.038436871	3.047500E+01	  0.038436871	7.272100E+01
94	  0.038637273	-3.225000E+00	  0.038637273	6.079800E+01	  0.038637273	3.265200E+01	  0.038637273	7.500600E+01
95	  0.038837675	-3.284000E+00	  0.038837675	5.868700E+01	  0.038837675	3.503000E+01	  0.038837675	7.729800E+01
96	  0.039038073	-3.339000E+00	  0.039038073	5.660200E+01	  0.039038073	3.757000E+01	  0.039038073	7.960400E+01
97	  0.039238475	-3.396000E+00	  0.039238475	5.449000E+01	  0.039238475	4.038500E+01	  0.039238475	8.195700E+01
98	  0.039438877	-3.452000E+00	  0.039438877	5.239400E+01	  0.039438877	4.342800E+01	  0.039438877	8.430900E+01
99	  0.039639279	-3.512000E+00	  0.039639279	5.025200E+01	  0.039639279	4.684800E+01	  0.039639279	8.668300E+01
100	  0.039839678	-3.569000E+00	  0.039839678	4.813900E+01	  0.039839678	5.051500E+01	  0.039839678	8.901700E+01
101	  0.040040080	-3.626000E+00	  0.040040080	4.601000E+01	  0.040040080	5.455400E+01	  0.040040080	9.131900E+01
102	  0.040240481	-3.681000E+00	  0.040240481	4.389400E+01	  0.040240481	5.891300E+01	  0.040240481	9.355600E+01
103	  0.040440880	-3.737000E+00	  0.040440880	4.178300E+01	  0.040440880	6.368300E+01	  0.040440880	9.564300E+01
104	  0.040641282	-3.792000E+00	  0.040641282	3.968800E+01	  0.040641282	6.883600E+01	  0.040641282	9.755300E+01
105	  0.040841684	-3.850000E+00	  0.040841684	3.760700E+01	  0.040841684	7.442600E+01	  0.040841684	9.917000E+01
106	  0.041042086	-3.906000E+00	  0.041042086	3.552100E+01	  0.041042086	8.047200E+01	  0.041042086	1.005410E+02
107	  0.041242484	-3.963000E+00	  0.041242484	3.343200E+01	  0.041242484	8.701400E+01	  0.041242484	1.015060E+02
108	  0.041442886	-4.019000E+00	  0.041442886	3.133500E+01	  0.041442886	9.406100E+01	  0.041442886	1.020280E+02
109	  0.041643288	-4.071000E+00	  0.041643288	2.925700E+01	  0.041643288	1.015010E+02	  0.041643288	1.020430E+02
110	  0.041843686	-4.124000E+00	  0.041843686	2.717800E+01	  0.041843686	1.093910E+02	  0.041843686	1.013640E+02
111	  0.042044088	-4.176000E+00	  0.042044088	2.512100E+01	  0.042044088	1.175850E+02	  0.042044088	9.993300E+01
112	  0.042244490	-4.226000E+00	  0.042244490	2.307400E+01	  0.042244490	1.260360E+02	  0.042244490	9.762300E+01
113	  0.042444889	-4.280000E+00	  0.042444889	2.105600E+01	  0.042444889	1.345210E+02	  0.042444889	9.422400E+01
114	  0.042645290	-4.329000E+00	  0.042645290	1.903000E+01	  0.042645290	1.430840E+02	  0.042645290	8.982700E+01
115	  0.042845692	-4.381000E+00	  0.042845692	1.700300E+01	  0.042845692	1.514670E+02	  0.042845692	8.418800E+01
116	  0.043046094	-4.431000E+00	  0.043046094	1.501600E+01	  0.043046094	1.593270E+02	  0.043046094	7.750200E+01
117	  0.043246493	-4.478000E+00	  0.043246493	1.300100E+01	  0.043246493	1.667670E+02	  0.043246493	6.964100E+01
118	  0.043446895	-4.525000E+00	  0.043446895	1.099100E+01	  0.043446895	1.733440E+02	  0.043446895	6.065300E+01
119	  0.043647297	-4.569000E+00	  0.043647297	9.003000E+00	  0.043647297	1.788670E+02	  0.043647297	5.082500E+01
120	  0.043847695	-4.614000E+00	  0.043847695	7.031000E+00	  0.043847695	1.830980E+02	  0.043847695	4.026400E+01
121	  0.044048097	-4.659000E+00	  0.044048097	5.057000E+00	  0.044048097	1.859340E+02	  0.044048097	2.913400E+01
122	  0.044248499	-4.706000E+00	  0.044248499	3.098000E+00	  0.044248499	1.872310E+02	  0.044248499	1.779700E+01
123	  0.044448901	-4.748000E+00	  0.044448901	1.134000E+00	  0.044448901	1.872100E+02	  0.044448901	6.452000E+00
124	  0.044649299	-4.793000E+00	  0.044649299	-8.100000E-01	  0.044649299	1.856740E+02	  0.044649299	-4.524000E+00
125	  0.044849701	-4.833000E+00	  0.044849701	-2.772000E+00	  0.044849701	1.829700E+02	  0.044849701	-1.511200E+01
126	  0.045050103	-4.872000E+00	  0.045050103	-4.718000E+00	  0.045050103	1.791660E+02	  0.045050103	-2.494800E+01
127	  0.045250501	-4.915000E+00	  0.045250501	-6.665000E+00	  0.045250501	1.742240E+02	  0.045250501	-3.389100E+01
128	  0.045450903	-4.954000E+00	  0.045450903	-8.616000E+00	  0.045450903	1.686530E+02	  0.045450903	-4.198300E+01
129	  0.045651305	-4.997000E+00	  0.045651305	-1.054300E+01	  0.045651305	1.624570E+02	  0.045651305	-4.892600E+01
130	  0.045851704	-5.032000E+00	  0.045851704	-1.245700E+01	  0.045851704	1.560960E+02	  0.045851704	-5.498300E+01
131	  0.046052102	-5.074000E+00	  0.046052102	-1.435800E+01	  0.046052102	1.494330E+02	  0.046052102	-5.996600E+01
132	  0.046252504	-5.113000E+00	  0.046252504	-1.623400E+01	  0.046252504	1.428060E+02	  0.046252504	-6.404400E+01
133	  0.046452906	-5.152000E+00	  0.046452906	-1.808800E+01	  0.046452906	1.363030E+02	  0.046452906	-6.731800E+01
134	  0.046653304	-5.190000E+00	  0.046653304	-1.993600E+01	  0.046653304	1.299490E+02	  0.046653304	-6.990900E+01
135	  0.046853706	-5.220000E+00	  0.046853706	-2.178100E+01	  0.046853706	1.238540E+02	  0.046853706	-7.205400E+01
136	  0.047054108	-5.247000E+00	  0.047054108	-2.361800E+01	  0.047054108	1.179870E+02	  0.047054108	-7.367400E+01
137	  0.047254506	-5.270000E+00	  0.047254506	-2.547300E+01	  0.047254506	1.123060E+02	  0.047254506	-7.491200E+01
138	  0.047454908	-5.295000E+00	  0.047454908	-2.732000E+01	  0.047454908	1.068780E+02	  0.047454908	-7.568800E+01
139	  0.047655310	-5.313000E+00	  0.047655310	-2.915300E+01	  0.047655310	1.017540E+02	  0.047655310	-7.619300E+01
140	  0.047855709	-5.336000E+00	  0.047855709	-3.098700E+01	  0.047855709	9.686400E+01	  0.047855709	-7.628900E+01
141	  0.048056111	-5.362000E+00	  0.048056111	-3.282600E+01	  0.048056111	9.222200E+01	  0.048056111	-7.605300E+01
142	  0.048256513	-5.385000E+00	  0.048256513	-3.463600E+01	  0.048256513	8.791000E+01	  0.048256513	-7.565200E+01
143	  0.048456915	-5.407000E+00	  0.048456915	-3.646100E+01	  0.048456915	8.380900E+01	  0.048456915	-7.506000E+01
144	  0.048657313	-5.427000E+00	  0.048657313	-3.827600E+01	  0.048657313	7.996600E+01	  0.048657313	-7.433800E+01
145	  0.048857715	-5.449000E+00	  0.048857715	-4.008600E+01	  0.048857715	7.636400E+01	  0.048857715	-7.345600E+01
146	  0.049058117	-5.467000E+00	  0.049058117	-4.186200E+01	  0.049058117	7.302800E+01	  0.049058117	-7.254100E+01
147	  0.049258515	-5.487000E+00	  0.049258515	-4.362300E+01	  0.049258515	6.992700E+01	  0.049258515	-7.150200E+01
148	  0.049458917	-5.508000E+00	  0.049458917	-4.539100E+01	  0.049458917	6.699500E+01	  0.049458917	-7.039700E+01
149	  0.049659319	-5.532000E+00	  0.049659319	-4.709300E+01	  0.049659319	6.435700E+01	  0.049659319	-6.922700E+01
150	  0.049859721	-5.552000E+00	  0.049859721	-4.880800E+01	  0.049859721	6.183900E+01	  0.049859721	-6.806000E+01
151	  0.050060119	-5.572000E+00	  0.050060119	-5.052200E+01	  0.050060119	5.946700E+01	  0.050060119	-6.687000E+01
152	  0.050260521	-5.590000E+00	  0.050260521	-5.221300E+01	  0.050260521	5.725800E+01	  0.050260521	-6.567600E+01
153	  0.050460923	-5.609000E+00	  0.050460923	-5.391700E+01	  0.050460923	5.516200E+01	  0.050460923	-6.444900E+01
154	  0.050661322	-5.625000E+00	  0.050661322	-5.559800E+01	  0.050661322	5.319800E+01	  0.050661322	-6.325700E+01
155	  0.050861724	-5.642000E+00	  0.050861724	-5.725300E+01	  0.050861724	5.137800E+01	  0.050861724	-6.206100E+01
156	  0.051062126	-5.663000E+00	  0.051062126	-5.889200E+01	  0.051062126	4.968900E+01	  0.051062126	-6.085000E+01
157	  0.051262524	-5.681000E+00	  0.051262524	-6.052900E+01	  0.051262524	4.808500E+01	  0.051262524	-5.965700E+01
158	  0.051462926	-5.698000E+00	  0.051462926	-6.216700E+01	  0.051462926	4.656200E+01	  0.051462926	-5.847300E+01
159	  0.051663328	-5.715000E+00	  0.051663328	-6.378700E+01	  0.051663328	4.513300E+01	  0.051663328	-5.731000E+01
160	  0.051863730	-5.735000E+00	  0.051863730	-6.539900E+01	  0.051863730	4.379900E+01	  0.051863730	-5.614400E+01
161	  0.052064128	-5.747000E+00	  0.052064128	-6.699700E+01	  0.052064128	4.251200E+01	  0.052064128	-5.503800E+01
162	  0.052264530	-5.756000E+00	  0.052264530	-6.859200E+01	  0.052264530	4.128200E+01	  0.052264530	-5.395300E+01
163	  0.052464932	-5.771000E+00	  0.052464932	-7.017500E+01	  0.052464932	4.014200E+01	  0.052464932	-5.286000E+01
164	  0.052665330	-5.788000E+00	  0.052665330	-7.173700E+01	  0.052665330	3.908600E+01	  0.052665330	-5.177700E+01
165	  0.052865732	-5.801000E+00	  0.052865732	-7.329700E+01	  0.052865732	3.806400E+01	  0.052865732	-5.072600E+01
166	  0.053066134	-5.817000E+00	  0.053066134	-7.481400E+01	  0.053066134	3.712900E+01	  0.053066134	-4.970400E+01
167	  0.053266536	-5.830000E+00	  0.053266536	-7.635200E+01	  0.053266536	3.621600E+01	  0.053266536	-4.868600E+01
168	  0.053466935	-5.842000E+00	  0.053466935	-7.789700E+01	  0.053466935	3.533500E+01	  0.053466935	-4.768500E+01
169	  0.053667337	-5.857000E+00	  0.053667337	-7.941200E+01	  0.053667337	3.452200E+01	  0.053667337	-4.670200E+01
170	  0.053867739	-5.864000E+00	  0.053867739	-8.094100E+01	  0.053867739	3.371100E+01	  0.053867739	-4.574800E+01
171	  0.054068137	-5.876000E+00	  0.054068137	-8.245000E+01	  0.054068137	3.296200E+01	  0.054068137	-4.480200E+01
172	  0.054268539	-5.887000E+00	  0.054268539	-8.394200E+01	  0.054268539	3.225200E+01	  0.054268539	-4.387900E+01
173	  0.054468941	-5.896000E+00	  0.054468941	-8.541400E+01	  0.054468941	3.157600E+01	  0.054468941	-4.298400E+01
174	  0.054669335	-5.907000E+00	  0.054669335	-8.689700E+01	  0.054669335	3.092800E+01	  0.054669335	-4.209000E+01
175	  0.054869737	-5.914000E+00	  0.054869737	-8.833000E+01	  0.054869737	3.031900E+01	  0.054869737	-4.124200E+01
176	  0.055070139	-5.925000E+00	  0.055070139	-8.977700E+01	  0.055070139	2.974100E+01	  0.055070139	-4.038700E+01
177	  0.055270538	-5.930000E+00	  0.055270538	-9.122500E+01	  0.055270538	2.916200E+01	  0.055270538	-3.955800E+01
178	  0.055470940	-5.937000E+00	  0.055470940	-9.265000E+01	  0.055470940	2.862700E+01	  0.055470940	-3.874400E+01
179	  0.055671342	-5.941000E+00	  0.055671342	-9.406700E+01	  0.055671342	2.810300E+01	  0.055671342	-3.795100E+01
180	  0.055871744	-5.948000E+00	  0.055871744	-9.547500E+01	  0.055871744	2.761300E+01	  0.055871744	-3.716400E+01
181	  0.056072142	-5.955000E+00	  0.056072142	-9.687100E+01	  0.056072142	2.714700E+01	  0.056072142	-3.639300E+01
182	  0.056272544	-5.961000E+00	  0.056272544	-9.825400E+01	  0.056272544	2.670100E+01	  0.056272544	-3.563700E+01
183	  0.056472946	-5.965000E+00	  0.056472946	-9.961000E+01	  0.056472946	2.627300E+01	  0.056472946	-3.490800E+01
184	  0.056673344	-5.969000E+00	  0.056673344	-1.009700E+02	  0.056673344	2.586100E+01	  0.056673344	-3.418400E+01
185	  0.056873746	-5.975000E+00	  0.056873746	-1.023050E+02	  0.056873746	2.547500E+01	  0.056873746	-3.347700E+01
186	  0.057074148	-5.978000E+00	  0.057074148	-1.036660E+02	  0.057074148	2.508700E+01	  0.057074148	-3.276900E+01
187	  0.057274550	-5.981000E+00	  0.057274550	-1.050200E+02	  0.057274550	2.471700E+01	  0.057274550	-3.207000E+01
188	  0.057474948	-5.987000E+00	  0.057474948	-1.063320E+02	  0.057474948	2.437800E+01	  0.057474948	-3.139500E+01
189	  0.057675350	-5.991000E+00	  0.057675350	-1.076440E+02	  0.057675350	2.404900E+01	  0.057675350	-3.072800E+01
190	  0.057875752	-5.999000E+00	  0.057875752	-1.089620E+02	  0.057875752	2.374100E+01	  0.057875752	-3.005900E+01
191	  0.058076151	-6.000000E+00	  0.058076151	-1.102570E+02	  0.058076151	2.342900E+01	  0.058076151	-2.941700E+01
192	  0.058276553	-6.006000E+00	  0.058276553	-1.115210E+02	  0.058276553	2.314600E+01	  0.058276553	-2.879000E+01
193	  0.058476955	-6.010000E+00	  0.058476955	-1.128010E+02	  0.058476955	2.286900E+01	  0.058476955	-2.816100E+01
194	  0.058677353	-6.013000E+00	  0.058677353	-1.140920E+02	  0.058677353	2.259000E+01	  0.058677353	-2.753600E+01
195	  0.058877755	-6.019000E+00	  0.058877755	-1.153570E+02	  0.058877755	2.233900E+01	  0.058877755	-2.692400E+01
196	  0.059078157	-6.023000E+00	  0.059078157	-1.165980E+02	  0.059078157	2.209800E+01	  0.059078157	-2.632900E+01
197	  0.059278559	-6.028000E+00	  0.059278559	-1.178610E+02	  0.059278559	2.185900E+01	  0.059278559	-2.573000E+01
198	  0.059478957	-6.031000E+00	  0.059478957	-1.191060E+02	  0.059478957	2.163000E+01	  0.059478957	-2.514400E+01
199	  0.059679359	-6.040000E+00	  0.059679359	-1.203450E+02	  0.059679359	2.142500E+01	  0.059679359	-2.455900E+01
200	  0.059879761	-6.043000E+00	  0.059879761	-1.215610E+02	  0.059879761	2.121500E+01	  0.059879761	-2.399600E+01
201	  0.060080159	-6.049000E+00	  0.060080159	-1.227790E+02	  0.060080159	2.102100E+01	  0.060080159	-2.343300E+01
202	  0.060280561	-6.055000E+00	  0.060280561	-1.239940E+02	  0.060280561	2.083300E+01	  0.060280561	-2.287500E+01
203	  0.060480963	-6.062000E+00	  0.060480963	-1.251870E+02	  0.060480963	2.065800E+01	  0.060480963	-2.233100E+01
204	  0.060681365	-6.066000E+00	  0.060681365	-1.263740E+02	  0.060681365	2.048300E+01	  0.060681365	-2.179500E+01
205	  0.060881764	-6.068000E+00	  0.060881764	-1.275810E+02	  0.060881764	2.030300E+01	  0.060881764	-2.125600E+01
206	  0.061082166	-6.075000E+00	  0.061082166	-1.287610E+02	  0.061082166	2.014900E+01	  0.061082166	-2.072800E+01
207	  0.061282568	-6.082000E+00	  0.061282568	-1.299390E+02	  0.061282568	1.999900E+01	  0.061282568	-2.020400E+01
208	  0.061482966	-6.083000E+00	  0.061482966	-1.311220E+02	  0.061482966	1.983800E+01	  0.061482966	-1.968700E+01
209	  0.061683368	-6.086000E+00	  0.061683368	-1.322830E+02	  0.061683368	1.969200E+01	  0.061683368	-1.918000E+01
210	  0.061883770	-6.090000E+00	  0.061883770	-1.334210E+02	  0.061883770	1.955400E+01	  0.061883770	-1.868600E+01
211	  0.062084168	-6.092000E+00	  0.062084168	-1.345490E+02	  0.062084168	1.941900E+01	  0.062084168	-1.820000E+01
212	  0.062284570	-6.094000E+00	  0.062284570	-1.356810E+02	  0.062284570	1.928700E+01	  0.062284570	-1.771500E+01
213	  0.062484972	-6.094000E+00	  0.062484972	-1.367780E+02	  0.062484972	1.915800E+01	  0.062484972	-1.724800E+01
214	  0.062685370	-6.091000E+00	  0.062685370	-1.378870E+02	  0.062685370	1.902500E+01	  0.062685370	-1.678100E+01
215	  0.062885776	-6.087000E+00	  0.062885776	-1.389830E+02	  0.062885776	1.889200E+01	  0.062885776	-1.632200E+01
216	  0.063086174	-6.089000E+00	  0.063086174	-1.400920E+02	  0.063086174	1.878100E+01	  0.063086174	-1.585600E+01
217	  0.063286573	-6.086000E+00	  0.063286573	-1.411630E+02	  0.063286573	1.866400E+01	  0.063286573	-1.541000E+01
218	  0.063486971	-6.088000E+00	  0.063486971	-1.422250E+02	  0.063486971	1.856300E+01	  0.063486971	-1.496700E+01
219	  0.063687377	-6.080000E+00	  0.063687377	-1.432910E+02	  0.063687377	1.844000E+01	  0.063687377	-1.453000E+01
220	  0.063887775	-6.075000E+00	  0.063887775	-1.443400E+02	  0.063887775	1.833100E+01	  0.063887775	-1.409900E+01
221	  0.064088173	-6.071000E+00	  0.064088173	-1.454090E+02	  0.064088173	1.822500E+01	  0.064088173	-1.366200E+01
222	  0.064288579	-6.066000E+00	  0.064288579	-1.464980E+02	  0.064288579	1.811900E+01	  0.064288579	-1.321800E+01
223	  0.064488977	-6.060000E+00	  0.064488977	-1.475510E+02	  0.064488977	1.801700E+01	  0.064488977	-1.279100E+01
224	  0.064689375	-6.050000E+00	  0.064689375	-1.485960E+02	  0.064689375	1.790700E+01	  0.064689375	-1.237000E+01
225	  0.064889781	-6.045000E+00	  0.064889781	-1.496590E+02	  0.064889781	1.781300E+01	  0.064889781	-1.194000E+01
226	  0.065090179	-6.038000E+00	  0.065090179	-1.506950E+02	  0.065090179	1.771900E+01	  0.065090179	-1.152400E+01
227	  0.065290578	-6.030000E+00	  0.065290578	-1.517380E+02	  0.065290578	1.762600E+01	  0.065290578	-1.110600E+01
228	  0.065490983	-6.024000E+00	  0.065490983	-1.527940E+02	  0.065490983	1.753800E+01	  0.065490983	-1.068300E+01
229	  0.065691382	-6.014000E+00	  0.065691382	-1.538650E+02	  0.065691382	1.744300E+01	  0.065691382	-1.025600E+01
230	  0.065891780	-6.004000E+00	  0.065891780	-1.548790E+02	  0.065891780	1.735600E+01	  0.065891780	-9.853000E+00
231	  0.066092186	-6.001000E+00	  0.066092186	-1.559500E+02	  0.066092186	1.728400E+01	  0.066092186	-9.426000E+00
232	  0.066292584	-5.991000E+00	  0.066292584	-1.569990E+02	  0.066292584	1.720100E+01	  0.066292584	-9.011000E+00
233	  0.066492982	-5.983000E+00	  0.066492982	-1.580540E+02	  0.066492982	1.712200E+01	  0.066492982	-8.593000E+00
234	  0.066693388	-5.977000E+00	  0.066693388	-1.591020E+02	  0.066693388	1.705500E+01	  0.066693388	-8.179000E+00
235	  0.066893786	-5.971000E+00	  0.066893786	-1.601290E+02	  0.066893786	1.699000E+01	  0.066893786	-7.773000E+00
236	  0.067094192	-5.961000E+00	  0.067094192	-1.611830E+02	  0.067094192	1.691700E+01	  0.067094192	-7.358000E+00
237	  0.067294590	-5.953000E+00	  0.067294590	-1.622090E+02	  0.067294590	1.685400E+01	  0.067294590	-6.955000E+00
238	  0.067494988	-5.951000E+00	  0.067494988	-1.632500E+02	  0.067494988	1.680700E+01	  0.067494988	-6.544000E+00
239	  0.067695394	-5.942000E+00	  0.067695394	-1.643100E+02	  0.067695394	1.674500E+01	  0.067695394	-6.129000E+00
240	  0.067895792	-5.939000E+00	  0.067895792	-1.653340E+02	  0.067895792	1.670200E+01	  0.067895792	-5.726000E+00
241	  0.068096191	-5.933000E+00	  0.068096191	-1.663910E+02	  0.068096191	1.665100E+01	  0.068096191	-5.312000E+00
242	  0.068296596	-5.929000E+00	  0.068296596	-1.674070E+02	  0.068296596	1.661100E+01	  0.068296596	-4.914000E+00
243	  0.068496995	-5.927000E+00	  0.068496995	-1.684250E+02	  0.068496995	1.657700E+01	  0.068496995	-4.515000E+00
244	  0.068697393	-5.922000E+00	  0.068697393	-1.694510E+02	  0.068697393	1.654000E+01	  0.068697393	-4.114000E+00
245	  0.068897791	-5.915000E+00	  0.068897791	-1.705090E+02	  0.068897791	1.649700E+01	  0.068897791	-3.701000E+00
246	  0.069098189	-5.909000E+00	  0.069098189	-1.715170E+02	  0.069098189	1.646300E+01	  0.069098189	-3.308000E+00
247	  0.069298595	-5.911000E+00	  0.069298595	-1.725470E+02	  0.069298595	1.644700E+01	  0.069298595	-2.905000E+00
248	  0.069498993	-5.908000E+00	  0.069498993	-1.735760E+02	  0.069498993	1.642500E+01	  0.069498993	-2.503000E+00
249	  0.069699399	-5.906000E+00	  0.069699399	-1.746010E+02	  0.069699399	1.640500E+01	  0.069699399	-2.103000E+00
250	  0.069899797	-5.903000E+00	  0.069899797	-1.755910E+02	  0.069899797	1.638800E+01	  0.069899797	-1.717000E+00
251	  0.070100196	-5.900000E+00	  0.070100196	-1.765850E+02	  0.070100196	1.637200E+01	  0.070100196	-1.330000E+00
252	  0.070300601	-5.900000E+00	  0.070300601	-1.776070E+02	  0.070300601	1.636500E+01	  0.070300601	-9.320000E-01
253	  0.070501000	-5.894000E+00	  0.070501000	-1.785940E+02	  0.070501000	1.634600E+01	  0.070501000	-5.470000E-01
254	  0.070701398	-5.892000E+00	  0.070701398	-1.795790E+02	  0.070701398	1.633800E+01	  0.070701398	-1.630000E-01
255	  0.070901804	-5.892000E+00	  0.070901804	1.794350E+02	  0.070901804	1.633800E+01	  0.070901804	2.190000E-01
256	  0.071102202	-5.896000E+00	  0.071102202	1.784250E+02	  0.071102202	1.635100E+01	  0.071102202	6.130000E-01
257	  0.071302600	-5.897000E+00	  0.071302600	1.774400E+02	  0.071302600	1.635800E+01	  0.071302600	9.970000E-01
258	  0.071503006	-5.897000E+00	  0.071503006	1.764560E+02	  0.071503006	1.636500E+01	  0.071503006	1.381000E+00
259	  0.071703404	-5.901000E+00	  0.071703404	1.754810E+02	  0.071703404	1.638300E+01	  0.071703404	1.761000E+00
260	  0.071903802	-5.898000E+00	  0.071903802	1.744980E+02	  0.071903802	1.638700E+01	  0.071903802	2.144000E+00
261	  0.072104208	-5.902000E+00	  0.072104208	1.735360E+02	  0.072104208	1.641100E+01	  0.072104208	2.519000E+00
262	  0.072304606	-5.898000E+00	  0.072304606	1.725680E+02	  0.072304606	1.641400E+01	  0.072304606	2.898000E+00
263	  0.072505005	-5.905000E+00	  0.072505005	1.715970E+02	  0.072505005	1.644900E+01	  0.072505005	3.277000E+00
264	  0.072705410	-5.909000E+00	  0.072705410	1.706240E+02	  0.072705410	1.648000E+01	  0.072705410	3.657000E+00
265	  0.072905809	-5.909000E+00	  0.072905809	1.696830E+02	  0.072905809	1.650000E+01	  0.072905809	4.025000E+00
266	  0.073106214	-5.913000E+00	  0.073106214	1.687400E+02	  0.073106214	1.653500E+01	  0.073106214	4.394000E+00
267	  0.073306613	-5.919000E+00	  0.073306613	1.677780E+02	  0.073306613	1.657400E+01	  0.073306613	4.770000E+00
268	  0.073507011	-5.922000E+00	  0.073507011	1.668180E+02	  0.073507011	1.661000E+01	  0.073507011	5.146000E+00
269	  0.073707417	-5.929000E+00	  0.073707417	1.658610E+02	  0.073707417	1.665700E+01	  0.073707417	5.521000E+00
270	  0.073907815	-5.933000E+00	  0.073907815	1.649250E+02	  0.073907815	1.669900E+01	  0.073907815	5.889000E+00
271	  0.074108213	-5.935000E+00	  0.074108213	1.640210E+02	  0.074108213	1.673500E+01	  0.074108213	6.244000E+00
272	  0.074308619	-5.938000E+00	  0.074308619	1.630670E+02	  0.074308619	1.678100E+01	  0.074308619	6.620000E+00
273	  0.074509017	-5.944000E+00	  0.074509017	1.621370E+02	  0.074509017	1.683200E+01	  0.074509017	6.986000E+00
274	  0.074709415	-5.952000E+00	  0.074709415	1.612040E+02	  0.074709415	1.689300E+01	  0.074709415	7.353000E+00
275	  0.074909821	-5.956000E+00	  0.074909821	1.602750E+02	  0.074909821	1.694500E+01	  0.074909821	7.720000E+00
276	  0.075110219	-5.967000E+00	  0.075110219	1.593600E+02	  0.075110219	1.701600E+01	  0.075110219	8.080000E+00
277	  0.075310618	-5.969000E+00	  0.075310618	1.584340E+02	  0.075310618	1.706800E+01	  0.075310618	8.447000E+00
278	  0.075511023	-5.975000E+00	  0.075511023	1.575250E+02	  0.075511023	1.713100E+01	  0.075511023	8.807000E+00
279	  0.075711422	-5.983000E+00	  0.075711422	1.566270E+02	  0.075711422	1.719900E+01	  0.075711422	9.163000E+00
280	  0.075911827	-5.994000E+00	  0.075911827	1.557380E+02	  0.075911827	1.727800E+01	  0.075911827	9.514000E+00
281	  0.076112226	-6.003000E+00	  0.076112226	1.547970E+02	  0.076112226	1.735600E+01	  0.076112226	9.887000E+00
282	  0.076312624	-6.012000E+00	  0.076312624	1.538990E+02	  0.076312624	1.743500E+01	  0.076312624	1.024400E+01
283	  0.076513030	-6.023000E+00	  0.076513030	1.529930E+02	  0.076513030	1.752300E+01	  0.076513030	1.060300E+01
284	  0.076713428	-6.033000E+00	  0.076713428	1.520790E+02	  0.076713428	1.760900E+01	  0.076713428	1.096700E+01
285	  0.076913826	-6.042000E+00	  0.076913826	1.512040E+02	  0.076913826	1.769500E+01	  0.076913826	1.131600E+01
286	  0.077114232	-6.055000E+00	  0.077114232	1.503350E+02	  0.077114232	1.778900E+01	  0.077114232	1.166200E+01
287	  0.077314630	-6.069000E+00	  0.077314630	1.494470E+02	  0.077314630	1.789300E+01	  0.077314630	1.201400E+01
288	  0.077515028	-6.080000E+00	  0.077515028	1.485550E+02	  0.077515028	1.799000E+01	  0.077515028	1.237100E+01
289	  0.077715434	-6.091000E+00	  0.077715434	1.476710E+02	  0.077715434	1.809100E+01	  0.077715434	1.272500E+01
290	  0.077915832	-6.103000E+00	  0.077915832	1.467670E+02	  0.077915832	1.819700E+01	  0.077915832	1.308700E+01
291	  0.078116231	-6.117000E+00	  0.078116231	1.458750E+02	  0.078116231	1.831000E+01	  0.078116231	1.344400E+01
292	  0.078316636	-6.131000E+00	  0.078316636	1.449880E+02	  0.078316636	1.842500E+01	  0.078316636	1.380000E+01
293	  0.078517035	-6.144000E+00	  0.078517035	1.440980E+02	  0.078517035	1.854100E+01	  0.078517035	1.415800E+01
294	  0.078717433	-6.158000E+00	  0.078717433	1.432200E+02	  0.078717433	1.866100E+01	  0.078717433	1.451000E+01
295	  0.078917839	-6.175000E+00	  0.078917839	1.423600E+02	  0.078917839	1.878900E+01	  0.078917839	1.485500E+01
296	  0.079118237	-6.187000E+00	  0.079118237	1.414740E+02	  0.079118237	1.891000E+01	  0.079118237	1.521300E+01
297	  0.079318643	-6.203000E+00	  0.079318643	1.406200E+02	  0.079318643	1.903900E+01	  0.079318643	1.555800E+01
298	  0.079519041	-6.220000E+00	  0.079519041	1.397620E+02	  0.079519041	1.917800E+01	  0.079519041	1.590200E+01
299	  0.079719439	-6.234000E+00	  0.079719439	1.388950E+02	  0.079719439	1.931000E+01	  0.079719439	1.625300E+01
300	  0.079919845	-6.248000E+00	  0.079919845	1.380000E+02	  0.079919845	1.944800E+01	  0.079919845	1.661700E+01
301	  0.080120243	-6.265000E+00	  0.080120243	1.371350E+02	  0.080120243	1.959200E+01	  0.080120243	1.696700E+01
302	  0.080320641	-6.281000E+00	  0.080320641	1.362910E+02	  0.080320641	1.973700E+01	  0.080320641	1.730900E+01
303	  0.080521047	-6.302000E+00	  0.080521047	1.354520E+02	  0.080521047	1.989500E+01	  0.080521047	1.764600E+01
304	  0.080721445	-6.314000E+00	  0.080721445	1.345990E+02	  0.080721445	2.003600E+01	  0.080721445	1.799600E+01
305	  0.080921844	-6.332000E+00	  0.080921844	1.337660E+02	  0.080921844	2.019200E+01	  0.080921844	1.833400E+01
306	  0.081122249	-6.350000E+00	  0.081122249	1.329570E+02	  0.081122249	2.034900E+01	  0.081122249	1.866100E+01
307	  0.081322648	-6.369000E+00	  0.081322648	1.321000E+02	  0.081322648	2.051800E+01	  0.081322648	1.900900E+01
308	  0.081523046	-6.383000E+00	  0.081523046	1.312730E+02	  0.081523046	2.067200E+01	  0.081523046	1.934900E+01
309	  0.081723452	-6.401000E+00	  0.081723452	1.304430E+02	  0.081723452	2.083800E+01	  0.081723452	1.968700E+01
310	  0.081923850	-6.417000E+00	  0.081923850	1.296520E+02	  0.081923850	2.099800E+01	  0.081923850	2.001100E+01
311	  0.082124248	-6.433000E+00	  0.082124248	1.288330E+02	  0.082124248	2.116700E+01	  0.082124248	2.034700E+01
312	  0.082324654	-6.454000E+00	  0.082324654	1.280250E+02	  0.082324654	2.134800E+01	  0.082324654	2.067400E+01
313	  0.082525052	-6.475000E+00	  0.082525052	1.272570E+02	  0.082525052	2.152700E+01	  0.082525052	2.098500E+01
314	  0.082725458	-6.498000E+00	  0.082725458	1.264780E+02	  0.082725458	2.171900E+01	  0.082725458	2.129700E+01
315	  0.082925856	-6.519000E+00	  0.082925856	1.257020E+02	  0.082925856	2.190500E+01	  0.082925856	2.161100E+01
316	  0.083126254	-6.543000E+00	  0.083126254	1.249020E+02	  0.083126254	2.210800E+01	  0.083126254	2.193200E+01
317	  0.083326660	-6.566000E+00	  0.083326660	1.241240E+02	  0.083326660	2.230500E+01	  0.083326660	2.224600E+01
318	  0.083527058	-6.594000E+00	  0.083527058	1.233560E+02	  0.083527058	2.252000E+01	  0.083527058	2.254900E+01
319	  0.083727457	-6.617000E+00	  0.083727457	1.225660E+02	  0.083727457	2.273000E+01	  0.083727457	2.286600E+01
320	  0.083927862	-6.644000E+00	  0.083927862	1.218160E+02	  0.083927862	2.294500E+01	  0.083927862	2.316100E+01
321	  0.084128261	-6.672000E+00	  0.084128261	1.210660E+02	  0.084128261	2.316600E+01	  0.084128261	2.345600E+01
322	  0.084328659	-6.696000E+00	  0.084328659	1.203150E+02	  0.084328659	2.338000E+01	  0.084328659	2.375500E+01
323	  0.084529065	-6.726000E+00	  0.084529065	1.195780E+02	  0.084529065	2.361100E+01	  0.084529065	2.404000E+01
324	  0.084729463	-6.752000E+00	  0.084729463	1.187880E+02	  0.084729463	2.384600E+01	  0.084729463	2.435400E+01
325	  0.084929854	-6.783000E+00	  0.084929854	1.180440E+02	  0.084929854	2.408900E+01	  0.084929854	2.463900E+01
326	  0.085130259	-6.810000E+00	  0.085130259	1.172990E+02	  0.085130259	2.432100E+01	  0.085130259	2.493200E+01
327	  0.085330658	-6.842000E+00	  0.085330658	1.165690E+02	  0.085330658	2.457100E+01	  0.085330658	2.520900E+01
328	  0.085531056	-6.869000E+00	  0.085531056	1.158310E+02	  0.085531056	2.481100E+01	  0.085531056	2.549700E+01
329	  0.085731462	-6.900000E+00	  0.085731462	1.151300E+02	  0.085731462	2.505800E+01	  0.085731462	2.576100E+01
330	  0.085931860	-6.928000E+00	  0.085931860	1.144480E+02	  0.085931860	2.529700E+01	  0.085931860	2.602000E+01
331	  0.086132258	-6.959000E+00	  0.086132258	1.137500E+02	  0.086132258	2.554700E+01	  0.086132258	2.628200E+01
332	  0.086332664	-6.991000E+00	  0.086332664	1.130720E+02	  0.086332664	2.580100E+01	  0.086332664	2.653300E+01
333	  0.086533062	-7.019000E+00	  0.086533062	1.123710E+02	  0.086533062	2.605300E+01	  0.086533062	2.679900E+01
334	  0.086733460	-7.046000E+00	  0.086733460	1.117260E+02	  0.086733460	2.629000E+01	  0.086733460	2.704100E+01
335	  0.086933866	-7.073000E+00	  0.086933866	1.110580E+02	  0.086933866	2.653800E+01	  0.086933866	2.729200E+01
336	  0.087134264	-7.094000E+00	  0.087134264	1.103950E+02	  0.087134264	2.676700E+01	  0.087134264	2.755100E+01
337	  0.087334670	-7.115000E+00	  0.087334670	1.097920E+02	  0.087334670	2.698700E+01	  0.087334670	2.778200E+01
338	  0.087535068	-7.136000E+00	  0.087535068	1.091250E+02	  0.087535068	2.722400E+01	  0.087535068	2.804200E+01
339	  0.087735467	-7.156000E+00	  0.087735467	1.085280E+02	  0.087735467	2.744300E+01	  0.087735467	2.827100E+01
340	  0.087935872	-7.171000E+00	  0.087935872	1.079040E+02	  0.087935872	2.765900E+01	  0.087935872	2.852100E+01
341	  0.088136271	-7.179000E+00	  0.088136271	1.072530E+02	  0.088136271	2.786100E+01	  0.088136271	2.879800E+01
342	  0.088336669	-7.188000E+00	  0.088336669	1.065790E+02	  0.088336669	2.807900E+01	  0.088336669	2.908000E+01
343	  0.088537075	-7.196000E+00	  0.088537075	1.059060E+02	  0.088537075	2.829600E+01	  0.088537075	2.936700E+01
344	  0.088737473	-7.213000E+00	  0.088737473	1.052240E+02	  0.088737473	2.854500E+01	  0.088737473	2.963900E+01
345	  0.088937871	-7.216000E+00	  0.088937871	1.045120E+02	  0.088937871	2.876600E+01	  0.088937871	2.995200E+01
346	  0.089138277	-7.235000E+00	  0.089138277	1.038470E+02	  0.089138277	2.902300E+01	  0.089138277	3.021300E+01
347	  0.089338675	-7.247000E+00	  0.089338675	1.031220E+02	  0.089338675	2.928400E+01	  0.089338675	3.051300E+01
348	  0.089539073	-7.268000E+00	  0.089539073	1.024400E+02	  0.089539073	2.956100E+01	  0.089539073	3.077600E+01
349	  0.089739479	-7.279000E+00	  0.089739479	1.017200E+02	  0.089739479	2.982300E+01	  0.089739479	3.107600E+01
350	  0.089939877	-7.307000E+00	  0.089939877	1.010170E+02	  0.089939877	3.013800E+01	  0.089939877	3.133100E+01
351	  0.090140276	-7.324000E+00	  0.090140276	1.003080E+02	  0.090140276	3.042400E+01	  0.090140276	3.161300E+01
352	  0.090340681	-7.354000E+00	  0.090340681	9.963600E+01	  0.090340681	3.073900E+01	  0.090340681	3.184800E+01
353	  0.090541080	-7.372000E+00	  0.090541080	9.891300E+01	  0.090541080	3.104200E+01	  0.090541080	3.213100E+01
354	  0.090741485	-7.407000E+00	  0.090741485	9.824600E+01	  0.090741485	3.138100E+01	  0.090741485	3.234800E+01
355	  0.090941884	-7.435000E+00	  0.090941884	9.757500E+01	  0.090941884	3.170100E+01	  0.090941884	3.258300E+01
356	  0.091142282	-7.466000E+00	  0.091142282	9.689000E+01	  0.091142282	3.204200E+01	  0.091142282	3.281300E+01
357	  0.091342688	-7.501000E+00	  0.091342688	9.626400E+01	  0.091342688	3.237700E+01	  0.091342688	3.300600E+01
358	  0.091543086	-7.527000E+00	  0.091543086	9.558300E+01	  0.091543086	3.271000E+01	  0.091543086	3.324200E+01
359	  0.091743484	-7.563000E+00	  0.091743484	9.493400E+01	  0.091743484	3.306300E+01	  0.091743484	3.343800E+01
360	  0.091943890	-7.595000E+00	  0.091943890	9.424300E+01	  0.091943890	3.342500E+01	  0.091943890	3.365900E+01
361	  0.092144288	-7.629000E+00	  0.092144288	9.360500E+01	  0.092144288	3.377500E+01	  0.092144288	3.385000E+01
362	  0.092344686	-7.656000E+00	  0.092344686	9.296100E+01	  0.092344686	3.411100E+01	  0.092344686	3.406100E+01
363	  0.092545092	-7.694000E+00	  0.092545092	9.232900E+01	  0.092545092	3.447900E+01	  0.092545092	3.423300E+01
364	  0.092745490	-7.727000E+00	  0.092745490	9.171000E+01	  0.092745490	3.482900E+01	  0.092745490	3.441100E+01
365	  0.092945889	-7.761000E+00	  0.092945889	9.108200E+01	  0.092945889	3.519000E+01	  0.092945889	3.458600E+01
366	  0.093146294	-7.794000E+00	  0.093146294	9.043100E+01	  0.093146294	3.556300E+01	  0.093146294	3.477100E+01
367	  0.093346693	-7.832000E+00	  0.093346693	8.983300E+01	  0.093346693	3.592800E+01	  0.093346693	3.491700E+01
368	  0.093547091	-7.864000E+00	  0.093547091	8.925300E+01	  0.093547091	3.627400E+01	  0.093547091	3.506800E+01
369	  0.093747497	-7.899000E+00	  0.093747497	8.862500E+01	  0.093747497	3.665100E+01	  0.093747497	3.522900E+01
370	  0.093947895	-7.930000E+00	  0.093947895	8.803200E+01	  0.093947895	3.700700E+01	  0.093947895	3.538300E+01
371	  0.094148301	-7.965000E+00	  0.094148301	8.743700E+01	  0.094148301	3.737600E+01	  0.094148301	3.552400E+01
372	  0.094348699	-8.003000E+00	  0.094348699	8.688100E+01	  0.094348699	3.774000E+01	  0.094348699	3.563400E+01
373	  0.094549097	-8.039000E+00	  0.094549097	8.629100E+01	  0.094549097	3.811600E+01	  0.094549097	3.576200E+01
374	  0.094749503	-8.072000E+00	  0.094749503	8.572500E+01	  0.094749503	3.847300E+01	  0.094749503	3.588900E+01
375	  0.094949901	-8.106000E+00	  0.094949901	8.518000E+01	  0.094949901	3.882900E+01	  0.094949901	3.599700E+01
376	  0.095150299	-8.138000E+00	  0.095150299	8.464000E+01	  0.095150299	3.917800E+01	  0.095150299	3.610800E+01
377	  0.095350705	-8.171000E+00	  0.095350705	8.407400E+01	  0.095350705	3.954300E+01	  0.095350705	3.622400E+01
378	  0.095551103	-8.204000E+00	  0.095551103	8.354000E+01	  0.095551103	3.989900E+01	  0.095551103	3.632100E+01
379	  0.095751502	-8.239000E+00	  0.095751502	8.300600E+01	  0.095751502	4.025900E+01	  0.095751502	3.641100E+01
380	  0.095951907	-8.271000E+00	  0.095951907	8.250400E+01	  0.095951907	4.059700E+01	  0.095951907	3.649700E+01
381	  0.096152306	-8.309000E+00	  0.096152306	8.198800E+01	  0.096152306	4.096200E+01	  0.096152306	3.656100E+01
382	  0.096352704	-8.343000E+00	  0.096352704	8.150000E+01	  0.096352704	4.130100E+01	  0.096352704	3.662700E+01
383	  0.096553110	-8.369000E+00	  0.096553110	8.102400E+01	  0.096553110	4.161800E+01	  0.096553110	3.671200E+01
384	  0.096753508	-8.408000E+00	  0.096753508	8.052600E+01	  0.096753508	4.197900E+01	  0.096753508	3.675600E+01
385	  0.096953906	-8.442000E+00	  0.096953906	8.004300E+01	  0.096953906	4.232300E+01	  0.096953906	3.680900E+01
386	  0.097154312	-8.472000E+00	  0.097154312	7.957300E+01	  0.097154312	4.265100E+01	  0.097154312	3.686900E+01
387	  0.097354710	-8.507000E+00	  0.097354710	7.908800E+01	  0.097354710	4.299800E+01	  0.097354710	3.691600E+01
388	  0.097555116	-8.545000E+00	  0.097555116	7.867300E+01	  0.097555116	4.331600E+01	  0.097555116	3.692100E+01
389	  0.097755514	-8.578000E+00	  0.097755514	7.822800E+01	  0.097755514	4.364200E+01	  0.097755514	3.695000E+01
390	  0.097955912	-8.614000E+00	  0.097955912	7.781300E+01	  0.097955912	4.395600E+01	  0.097955912	3.695900E+01
391	  0.098156318	-8.645000E+00	  0.098156318	7.734400E+01	  0.098156318	4.429200E+01	  0.098156318	3.699900E+01
392	  0.098356716	-8.678000E+00	  0.098356716	7.695500E+01	  0.098356716	4.458600E+01	  0.098356716	3.700400E+01
393	  0.098557115	-8.712000E+00	  0.098557115	7.654100E+01	  0.098557115	4.490000E+01	  0.098557115	3.700800E+01
394	  0.098757520	-8.740000E+00	  0.098757520	7.608000E+01	  0.098757520	4.522800E+01	  0.098757520	3.704700E+01
395	  0.098957919	-8.773000E+00	  0.098957919	7.566000E+01	  0.098957919	4.554300E+01	  0.098957919	3.705300E+01
396	  0.099158317	-8.802000E+00	  0.099158317	7.525000E+01	  0.099158317	4.584400E+01	  0.099158317	3.707000E+01
397	  0.099358723	-8.827000E+00	  0.099358723	7.485800E+01	  0.099358723	4.613000E+01	  0.099358723	3.708900E+01
398	  0.099559121	-8.863000E+00	  0.099559121	7.447100E+01	  0.099559121	4.643300E+01	  0.099559121	3.706500E+01
399	  0.099759519	-8.888000E+00	  0.099759519	7.407600E+01	  0.099759519	4.672000E+01	  0.099759519	3.708300E+01
400	  0.099959925	-8.923000E+00	  0.099959925	7.368800E+01	  0.099959925	4.702300E+01	  0.099959925	3.705600E+01
401	  0.100160323	-8.938000E+00	  0.100160323	7.335300E+01	  0.100160323	4.725600E+01	  0.100160323	3.709200E+01
402	  0.100360721	-8.966000E+00	  0.100360721	7.292200E+01	  0.100360721	4.757200E+01	  0.100360721	3.710400E+01
403	  0.100561127	-8.986000E+00	  0.100561127	7.255700E+01	  0.100561127	4.783500E+01	  0.100561127	3.712400E+01
404	  0.100761525	-9.008000E+00	  0.100761525	7.220400E+01	  0.100761525	4.809400E+01	  0.100761525	3.713200E+01
405	  0.100961931	-9.027000E+00	  0.100961931	7.182800E+01	  0.100961931	4.836400E+01	  0.100961931	3.715300E+01
406	  0.101162329	-9.051000E+00	  0.101162329	7.143500E+01	  0.101162329	4.865400E+01	  0.101162329	3.715800E+01
407	  0.101362728	-9.066000E+00	  0.101362728	7.111000E+01	  0.101362728	4.888500E+01	  0.101362728	3.718000E+01
408	  0.101563133	-9.082000E+00	  0.101563133	7.076300E+01	  0.101563133	4.913200E+01	  0.101563133	3.720600E+01
409	  0.101763532	-9.101000E+00	  0.101763532	7.044500E+01	  0.101763532	4.936900E+01	  0.101763532	3.720200E+01
410	  0.101963930	-9.109000E+00	  0.101963930	7.007400E+01	  0.101963930	4.962000E+01	  0.101963930	3.726500E+01
411	  0.102164328	-9.119000E+00	  0.102164328	6.971400E+01	  0.102164328	4.987000E+01	  0.102164328	3.730800E+01
412	  0.102364726	-9.135000E+00	  0.102364726	6.939500E+01	  0.102364726	5.010300E+01	  0.102364726	3.731900E+01
413	  0.102565125	-9.144000E+00	  0.102565125	6.902200E+01	  0.102565125	5.036100E+01	  0.102565125	3.736900E+01
414	  0.102765530	-9.150000E+00	  0.102765530	6.872600E+01	  0.102765530	5.056600E+01	  0.102765530	3.741200E+01
415	  0.102965929	-9.151000E+00	  0.102965929	6.835200E+01	  0.102965929	5.081400E+01	  0.102965929	3.749700E+01
416	  0.103166327	-9.156000E+00	  0.103166327	6.803300E+01	  0.103166327	5.103500E+01	  0.103166327	3.754900E+01
417	  0.103366733	-9.158000E+00	  0.103366733	6.768700E+01	  0.103366733	5.127000E+01	  0.103366733	3.761800E+01
418	  0.103567131	-9.161000E+00	  0.103567131	6.738300E+01	  0.103567131	5.148000E+01	  0.103567131	3.767000E+01
419	  0.103767529	-9.162000E+00	  0.103767529	6.696800E+01	  0.103767529	5.176400E+01	  0.103767529	3.775600E+01
420	  0.103967935	-9.161000E+00	  0.103967935	6.664300E+01	  0.103967935	5.198500E+01	  0.103967935	3.783000E+01
421	  0.104168333	-9.160000E+00	  0.104168333	6.632900E+01	  0.104168333	5.220000E+01	  0.104168333	3.790100E+01
422	  0.104368731	-9.159000E+00	  0.104368731	6.594400E+01	  0.104368731	5.246400E+01	  0.104368731	3.799000E+01
423	  0.104569137	-9.152000E+00	  0.104569137	6.562200E+01	  0.104569137	5.268000E+01	  0.104569137	3.808700E+01
424	  0.104769535	-9.146000E+00	  0.104769535	6.521200E+01	  0.104769535	5.296000E+01	  0.104769535	3.819900E+01
425	  0.104969934	-9.137000E+00	  0.104969934	6.485200E+01	  0.104969934	5.320400E+01	  0.104969934	3.831100E+01
426	  0.105170339	-9.126000E+00	  0.105170339	6.445400E+01	  0.105170339	5.347400E+01	  0.105170339	3.844400E+01
427	  0.105370738	-9.116000E+00	  0.105370738	6.409200E+01	  0.105370738	5.372200E+01	  0.105370738	3.855900E+01
428	  0.105571143	-9.107000E+00	  0.105571143	6.365500E+01	  0.105571143	5.402800E+01	  0.105571143	3.868600E+01
429	  0.105771542	-9.097000E+00	  0.105771542	6.327500E+01	  0.105771542	5.429400E+01	  0.105771542	3.880400E+01
430	  0.105971940	-9.085000E+00	  0.105971940	6.280500E+01	  0.105971940	5.462700E+01	  0.105971940	3.895200E+01
431	  0.106172346	-9.063000E+00	  0.106172346	6.237700E+01	  0.106172346	5.492000E+01	  0.106172346	3.913500E+01
432	  0.106372744	-9.060000E+00	  0.106372744	6.194500E+01	  0.106372744	5.524300E+01	  0.106372744	3.922500E+01
433	  0.106573142	-9.034000E+00	  0.106573142	6.152300E+01	  0.106573142	5.553500E+01	  0.106573142	3.942700E+01
434	  0.106773548	-9.017000E+00	  0.106773548	6.110100E+01	  0.106773548	5.584000E+01	  0.106773548	3.958400E+01
435	  0.106973946	-8.998000E+00	  0.106973946	6.061100E+01	  0.106973946	5.619900E+01	  0.106973946	3.976200E+01
436	  0.107174344	-8.976000E+00	  0.107174344	6.009400E+01	  0.107174344	5.658200E+01	  0.107174344	3.995600E+01
437	  0.107374750	-8.954000E+00	  0.107374750	5.960400E+01	  0.107374750	5.694800E+01	  0.107374750	4.014800E+01
438	  0.107575148	-8.950000E+00	  0.107575148	5.909600E+01	  0.107575148	5.735100E+01	  0.107575148	4.024600E+01
439	  0.107775547	-8.922000E+00	  0.107775547	5.855700E+01	  0.107775547	5.776200E+01	  0.107775547	4.047400E+01
440	  0.107975952	-8.891000E+00	  0.107975952	5.802200E+01	  0.107975952	5.817400E+01	  0.107975952	4.071200E+01
441	  0.108176351	-8.878000E+00	  0.108176351	5.751400E+01	  0.108176351	5.858500E+01	  0.108176351	4.085100E+01
442	  0.108376749	-8.858000E+00	  0.108376749	5.693900E+01	  0.108376749	5.905200E+01	  0.108376749	4.103100E+01
443	  0.108577155	-8.835000E+00	  0.108577155	5.639500E+01	  0.108577155	5.949700E+01	  0.108577155	4.122600E+01
444	  0.108777553	-8.818000E+00	  0.108777553	5.575600E+01	  0.108777553	6.003500E+01	  0.108777553	4.139500E+01
445	  0.108977959	-8.800000E+00	  0.108977959	5.519800E+01	  0.108977959	6.050900E+01	  0.108977959	4.155800E+01
446	  0.109178357	-8.784000E+00	  0.109178357	5.455300E+01	  0.109178357	6.107000E+01	  0.109178357	4.170800E+01
447	  0.109378755	-8.762000E+00	  0.109378755	5.391800E+01	  0.109378755	6.162600E+01	  0.109378755	4.189000E+01
448	  0.109579161	-8.744000E+00	  0.109579161	5.325400E+01	  0.109579161	6.222000E+01	  0.109579161	4.205300E+01
449	  0.109779559	-8.727000E+00	  0.109779559	5.262200E+01	  0.109779559	6.279300E+01	  0.109779559	4.219100E+01
450	  0.109979957	-8.719000E+00	  0.109979957	5.198800E+01	  0.109979957	6.338000E+01	  0.109979957	4.227700E+01
451	  0.110180363	-8.698000E+00	  0.110180363	5.132800E+01	  0.110180363	6.399600E+01	  0.110180363	4.243600E+01
452	  0.110380761	-8.683000E+00	  0.110380761	5.061300E+01	  0.110380761	6.467500E+01	  0.110380761	4.255100E+01
453	  0.110581160	-8.679000E+00	  0.110581160	4.991700E+01	  0.110581160	6.534700E+01	  0.110581160	4.258500E+01
454	  0.110781565	-8.667000E+00	  0.110781565	4.922900E+01	  0.110781565	6.601900E+01	  0.110781565	4.266200E+01
455	  0.110981964	-8.655000E+00	  0.110981964	4.850900E+01	  0.110981964	6.673300E+01	  0.110981964	4.272900E+01
456	  0.111182362	-8.650000E+00	  0.111182362	4.780100E+01	  0.111182362	6.744200E+01	  0.111182362	4.274100E+01
457	  0.111382768	-8.641000E+00	  0.111382768	4.709300E+01	  0.111382768	6.816100E+01	  0.111382768	4.276900E+01
458	  0.111583166	-8.632000E+00	  0.111583166	4.634300E+01	  0.111583166	6.893300E+01	  0.111583166	4.277900E+01
459	  0.111783572	-8.627000E+00	  0.111783572	4.559100E+01	  0.111783572	6.971300E+01	  0.111783572	4.275200E+01
460	  0.111983970	-8.629000E+00	  0.111983970	4.484600E+01	  0.111983970	7.049100E+01	  0.111983970	4.266500E+01
461	  0.112184368	-8.623000E+00	  0.112184368	4.404600E+01	  0.112184368	7.134000E+01	  0.112184368	4.260400E+01
462	  0.112384774	-8.620000E+00	  0.112384774	4.327000E+01	  0.112384774	7.217100E+01	  0.112384774	4.251300E+01
463	  0.112585172	-8.619000E+00	  0.112585172	4.249600E+01	  0.112585172	7.300400E+01	  0.112585172	4.239100E+01
464	  0.112785570	-8.619000E+00	  0.112785570	4.172000E+01	  0.112785570	7.384500E+01	  0.112785570	4.223900E+01
465	  0.112985976	-8.622000E+00	  0.112985976	4.092500E+01	  0.112985976	7.471100E+01	  0.112985976	4.204800E+01
466	  0.113186374	-8.627000E+00	  0.113186374	4.013000E+01	  0.113186374	7.557700E+01	  0.113186374	4.182100E+01
467	  0.113386773	-8.623000E+00	  0.113386773	3.931900E+01	  0.113386773	7.648300E+01	  0.113386773	4.163200E+01
468	  0.113587178	-8.630000E+00	  0.113587178	3.852200E+01	  0.113587178	7.735600E+01	  0.113587178	4.134200E+01
469	  0.113787577	-8.629000E+00	  0.113787577	3.771400E+01	  0.113787577	7.826300E+01	  0.113787577	4.109000E+01
470	  0.113987975	-8.641000E+00	  0.113987975	3.689400E+01	  0.113987975	7.915700E+01	  0.113987975	4.070900E+01
471	  0.114188381	-8.646000E+00	  0.114188381	3.606200E+01	  0.114188381	8.008100E+01	  0.114188381	4.035100E+01
472	  0.114388779	-8.653000E+00	  0.114388779	3.526600E+01	  0.114388779	8.095900E+01	  0.114388779	3.996900E+01
473	  0.114589177	-8.652000E+00	  0.114589177	3.440100E+01	  0.114589177	8.194100E+01	  0.114589177	3.959200E+01
474	  0.114789583	-8.669000E+00	  0.114789583	3.353900E+01	  0.114789583	8.286300E+01	  0.114789583	3.905200E+01
475	  0.114989981	-8.673000E+00	  0.114989981	3.268600E+01	  0.114989981	8.381200E+01	  0.114989981	3.858600E+01
476	  0.115190387	-8.683000E+00	  0.115190387	3.181900E+01	  0.115190387	8.475600E+01	  0.115190387	3.804000E+01
477	  0.115390785	-8.693000E+00	  0.115390785	3.092900E+01	  0.115390785	8.571500E+01	  0.115390785	3.744200E+01
478	  0.115591183	-8.707000E+00	  0.115591183	3.005400E+01	  0.115591183	8.663300E+01	  0.115591183	3.679700E+01
479	  0.115791589	-8.721000E+00	  0.115791589	2.919200E+01	  0.115791589	8.753100E+01	  0.115791589	3.613200E+01
480	  0.115991987	-8.737000E+00	  0.115991987	2.822000E+01	  0.115991987	8.852600E+01	  0.115991987	3.534300E+01
481	  0.116192386	-8.761000E+00	  0.116192386	2.729300E+01	  0.116192386	8.941400E+01	  0.116192386	3.449300E+01
482	  0.116392791	-8.778000E+00	  0.116392791	2.633300E+01	  0.116392791	9.035400E+01	  0.116392791	3.363200E+01
483	  0.116593190	-8.796000E+00	  0.116593190	2.534400E+01	  0.116593190	9.129600E+01	  0.116593190	3.270400E+01
484	  0.116793588	-8.825000E+00	  0.116793588	2.435200E+01	  0.116793588	9.215600E+01	  0.116793588	3.166200E+01
485	  0.116993994	-8.853000E+00	  0.116993994	2.330100E+01	  0.116993994	9.305200E+01	  0.116993994	3.054300E+01
486	  0.117194392	-8.883000E+00	  0.117194392	2.229600E+01	  0.117194392	9.384600E+01	  0.117194392	2.941000E+01
487	  0.117394790	-8.921000E+00	  0.117394790	2.126700E+01	  0.117394790	9.457700E+01	  0.117394790	2.817400E+01
488	  0.117595196	-8.958000E+00	  0.117595196	2.020500E+01	  0.117595196	9.530500E+01	  0.117595196	2.689000E+01
489	  0.117795594	-8.996000E+00	  0.117795594	1.911300E+01	  0.117795594	9.599700E+01	  0.117795594	2.553000E+01
490	  0.117995992	-9.037000E+00	  0.117995992	1.800500E+01	  0.117995992	9.663100E+01	  0.117995992	2.411400E+01
491	  0.118196398	-9.084000E+00	  0.118196398	1.684600E+01	  0.118196398	9.720200E+01	  0.118196398	2.258400E+01
492	  0.118396796	-9.134000E+00	  0.118396796	1.571700E+01	  0.118396796	9.766300E+01	  0.118396796	2.105400E+01
493	  0.118597202	-9.185000E+00	  0.118597202	1.459200E+01	  0.118597202	9.805600E+01	  0.118597202	1.951500E+01
494	  0.118797600	-9.239000E+00	  0.118797600	1.339500E+01	  0.118797600	9.839900E+01	  0.118797600	1.786400E+01
