! Anritsu VNA Master:             	Model: MS2036C/10/77
! SN:             	1601066
! /bd0/18may10/256.ew.m10_1.txt
! Existing Calibration Information:
! TYPE:             	Current Settings	Active Cal Settings
! TIME:             	05/10/2018 10:33:13 AM	05/10/2018 10:22:12 AM
! INTERNAL TEMP:    	47.5 C	47.0 C
! # POINTS:         	494	494
! START FREQ:       	20.000 MHz	20.000 MHz
! STOP FREQ:        	118.797 594 MHz	118.797 594 MHz
! SOURCE POWER:     	High	High
! IFBW:             	50 Hz	50 Hz
! AVG FACTOR:       	  1 	  1 
! REF PLANE 1:      	0 mm	0 mm
! REF PLANE 2:      	0 mm	0 mm
! CAL TYPE:         	Full S22	Full S22
! CAL METHOD:       	SOLT	SOLT
! CAL LINE TYPE:    	Coax	Coax
! DUT PORT 1:       	K-Conn(M)	K-Conn(M)
! DUT PORT 2:       	K-Conn(M)	K-Conn(M)
! CAL STATUS:       	OK: Accuracy High	--
! PROP-V:       	0.700
! CABLE LOSS:       	0.000 dB/m
! REF IMPEDANCE:       	50.0
! Trace Specific Parameters:	TR1	TR2	TR3	TR4
! TRACE.#.Y (GRAPH TYPE)	LOG MAG	PHASE	REAL IMPEDANCE	IMAGINARY IMPEDANCE
! TRACE.#.X 	FREQ.GHZ	FREQ.GHZ	FREQ.GHZ	FREQ.GHZ
! S-PARAMETER	S22	S22	S22	S22
! SMOOTH/APERTURE %	0	0	0	0
! WINDOW	NSL	NSL	NSL	NSL
! GATING	OFF	OFF	OFF	OFF
! FGTD	OFF	OFF	OFF	OFF
Marker Information per Trace:	TR1	TR2	TR3	TR4
!MK1	--	"MK1 TR2:  20.000 MHz,PH:-126.98°"	--	--
!MK2	--	--	"MK2 TR3:  70.100 200 MHz,Z:(16.355 ohm, -1.309 ohm)"	--
!MK3	--	--	--	--
!MK4	--	--	--	--
!MK5	--	--	--	--
!MK6	--	--	--	--
!MK7	--	--	--	--
!MK8	--	--	--	--
PNT	TR1.FREQ.GHZ	TR1.LOG MAG.dB	TR2.FREQ.GHZ	TR2.PHASE.deg	TR3.FREQ.GHZ	TR3.REAL IMPEDANCE.ohm	TR4.FREQ.GHZ	TR4.IMAGINARY IMPEDANCE.ohm
1	  0.020000000	-6.090000E-01	  0.020000000	-1.269750E+02	  0.020000000	2.189000E+00	  0.020000000	-2.490400E+01
2	  0.020200402	-6.130000E-01	  0.020200402	-1.284410E+02	  0.020200402	2.175000E+00	  0.020200402	-2.411100E+01
3	  0.020400802	-6.160000E-01	  0.020400802	-1.299180E+02	  0.020400802	2.158000E+00	  0.020400802	-2.332300E+01
4	  0.020601204	-6.200000E-01	  0.020601204	-1.314090E+02	  0.020601204	2.148000E+00	  0.020601204	-2.253600E+01
5	  0.020801604	-6.260000E-01	  0.020801604	-1.329410E+02	  0.020801604	2.142000E+00	  0.020801604	-2.173700E+01
6	  0.021002004	-6.290000E-01	  0.021002004	-1.344850E+02	  0.021002004	2.129000E+00	  0.021002004	-2.094100E+01
7	  0.021202406	-6.350000E-01	  0.021202406	-1.360210E+02	  0.021202406	2.124000E+00	  0.021202406	-2.015900E+01
8	  0.021402806	-6.380000E-01	  0.021402806	-1.375530E+02	  0.021402806	2.114000E+00	  0.021402806	-1.938600E+01
9	  0.021603208	-6.420000E-01	  0.021603208	-1.390870E+02	  0.021603208	2.105000E+00	  0.021603208	-1.862100E+01
10	  0.021803608	-6.470000E-01	  0.021803608	-1.406290E+02	  0.021803608	2.101000E+00	  0.021803608	-1.786000E+01
11	  0.022004008	-6.520000E-01	  0.022004008	-1.421740E+02	  0.022004008	2.098000E+00	  0.022004008	-1.710400E+01
12	  0.022204408	-6.580000E-01	  0.022204408	-1.437410E+02	  0.022204408	2.098000E+00	  0.022204408	-1.634400E+01
13	  0.022404809	-6.650000E-01	  0.022404809	-1.453440E+02	  0.022404809	2.101000E+00	  0.022404809	-1.557400E+01
14	  0.022605211	-6.700000E-01	  0.022605211	-1.469220E+02	  0.022605211	2.098000E+00	  0.022605211	-1.482300E+01
15	  0.022805611	-6.800000E-01	  0.022805611	-1.485200E+02	  0.022805611	2.111000E+00	  0.022805611	-1.406800E+01
16	  0.023006011	-6.860000E-01	  0.023006011	-1.501090E+02	  0.023006011	2.114000E+00	  0.023006011	-1.332300E+01
17	  0.023206413	-6.890000E-01	  0.023206413	-1.517080E+02	  0.023206413	2.110000E+00	  0.023206413	-1.258000E+01
18	  0.023406813	-6.950000E-01	  0.023406813	-1.533050E+02	  0.023406813	2.114000E+00	  0.023406813	-1.184300E+01
19	  0.023607215	-7.040000E-01	  0.023607215	-1.549120E+02	  0.023607215	2.125000E+00	  0.023607215	-1.110500E+01
20	  0.023807615	-7.170000E-01	  0.023807615	-1.565420E+02	  0.023807615	2.152000E+00	  0.023807615	-1.036200E+01
21	  0.024008015	-7.260000E-01	  0.024008015	-1.581840E+02	  0.024008015	2.167000E+00	  0.024008015	-9.618000E+00
22	  0.024208417	-7.330000E-01	  0.024208417	-1.598420E+02	  0.024208417	2.176000E+00	  0.024208417	-8.870000E+00
23	  0.024408817	-7.410000E-01	  0.024408817	-1.614970E+02	  0.024408817	2.190000E+00	  0.024408817	-8.128000E+00
24	  0.024609219	-7.520000E-01	  0.024609219	-1.631630E+02	  0.024609219	2.210000E+00	  0.024609219	-7.385000E+00
25	  0.024809619	-7.610000E-01	  0.024809619	-1.648260E+02	  0.024809619	2.229000E+00	  0.024809619	-6.646000E+00
26	  0.025010020	-7.730000E-01	  0.025010020	-1.665040E+02	  0.025010020	2.255000E+00	  0.025010020	-5.904000E+00
27	  0.025210422	-7.860000E-01	  0.025210422	-1.681760E+02	  0.025210422	2.285000E+00	  0.025210422	-5.166000E+00
28	  0.025410822	-7.990000E-01	  0.025410822	-1.698730E+02	  0.025410822	2.316000E+00	  0.025410822	-4.420000E+00
29	  0.025611224	-8.130000E-01	  0.025611224	-1.715840E+02	  0.025611224	2.351000E+00	  0.025611224	-3.670000E+00
30	  0.025811624	-8.250000E-01	  0.025811624	-1.733060E+02	  0.025811624	2.382000E+00	  0.025811624	-2.917000E+00
31	  0.026012026	-8.390000E-01	  0.026012026	-1.750330E+02	  0.026012026	2.417000E+00	  0.026012026	-2.163000E+00
32	  0.026212426	-8.520000E-01	  0.026212426	-1.767810E+02	  0.026212426	2.453000E+00	  0.026212426	-1.401000E+00
33	  0.026412826	-8.690000E-01	  0.026412826	-1.785320E+02	  0.026412826	2.501000E+00	  0.026412826	-6.380000E-01
34	  0.026613226	-8.840000E-01	  0.026613226	1.797070E+02	  0.026613226	2.543000E+00	  0.026613226	1.270000E-01
35	  0.026813626	-9.010000E-01	  0.026813626	1.779350E+02	  0.026813626	2.592000E+00	  0.026813626	8.980000E-01
36	  0.027014028	-9.180000E-01	  0.027014028	1.761580E+02	  0.027014028	2.645000E+00	  0.027014028	1.671000E+00
37	  0.027214428	-9.360000E-01	  0.027214428	1.743840E+02	  0.027214428	2.698000E+00	  0.027214428	2.444000E+00
38	  0.027414829	-9.550000E-01	  0.027414829	1.725950E+02	  0.027414829	2.759000E+00	  0.027414829	3.225000E+00
39	  0.027615231	-9.740000E-01	  0.027615231	1.707770E+02	  0.027615231	2.819000E+00	  0.027615231	4.019000E+00
40	  0.027815631	-9.940000E-01	  0.027815631	1.689640E+02	  0.027815631	2.887000E+00	  0.027815631	4.814000E+00
41	  0.028016033	-1.017000E+00	  0.028016033	1.671430E+02	  0.028016033	2.963000E+00	  0.028016033	5.613000E+00
42	  0.028216433	-1.039000E+00	  0.028216433	1.653020E+02	  0.028216433	3.039000E+00	  0.028216433	6.425000E+00
43	  0.028416833	-1.062000E+00	  0.028416833	1.634650E+02	  0.028416833	3.117000E+00	  0.028416833	7.237000E+00
44	  0.028617235	-1.085000E+00	  0.028617235	1.616240E+02	  0.028617235	3.202000E+00	  0.028617235	8.055000E+00
45	  0.028817635	-1.110000E+00	  0.028817635	1.597820E+02	  0.028817635	3.292000E+00	  0.028817635	8.876000E+00
46	  0.029018037	-1.135000E+00	  0.029018037	1.579450E+02	  0.029018037	3.387000E+00	  0.029018037	9.700000E+00
47	  0.029218437	-1.162000E+00	  0.029218437	1.560910E+02	  0.029218437	3.489000E+00	  0.029218437	1.053600E+01
48	  0.029418837	-1.189000E+00	  0.029418837	1.542160E+02	  0.029418837	3.596000E+00	  0.029418837	1.138700E+01
49	  0.029619239	-1.218000E+00	  0.029619239	1.523390E+02	  0.029619239	3.713000E+00	  0.029619239	1.224500E+01
50	  0.029819639	-1.247000E+00	  0.029819639	1.504660E+02	  0.029819639	3.831000E+00	  0.029819639	1.310700E+01
51	  0.030020041	-1.276000E+00	  0.030020041	1.485800E+02	  0.030020041	3.955000E+00	  0.030020041	1.398200E+01
52	  0.030220442	-1.305000E+00	  0.030220442	1.466930E+02	  0.030220442	4.082000E+00	  0.030220442	1.486400E+01
53	  0.030420844	-1.334000E+00	  0.030420844	1.448200E+02	  0.030420844	4.217000E+00	  0.030420844	1.574800E+01
54	  0.030621244	-1.365000E+00	  0.030621244	1.429300E+02	  0.030621244	4.359000E+00	  0.030621244	1.664800E+01
55	  0.030821642	-1.400000E+00	  0.030821642	1.410350E+02	  0.030821642	4.522000E+00	  0.030821642	1.755900E+01
56	  0.031022044	-1.433000E+00	  0.031022044	1.391090E+02	  0.031022044	4.683000E+00	  0.031022044	1.849600E+01
57	  0.031222444	-1.462000E+00	  0.031222444	1.372000E+02	  0.031222444	4.840000E+00	  0.031222444	1.943500E+01
58	  0.031422846	-1.495000E+00	  0.031422846	1.352310E+02	  0.031422846	5.017000E+00	  0.031422846	2.041400E+01
59	  0.031623244	-1.532000E+00	  0.031623244	1.332630E+02	  0.031623244	5.214000E+00	  0.031623244	2.140500E+01
60	  0.031823646	-1.566000E+00	  0.031823646	1.312910E+02	  0.031823646	5.408000E+00	  0.031823646	2.241200E+01
61	  0.032024048	-1.604000E+00	  0.032024048	1.293200E+02	  0.032024048	5.627000E+00	  0.032024048	2.343100E+01
62	  0.032224450	-1.641000E+00	  0.032224450	1.273320E+02	  0.032224450	5.851000E+00	  0.032224450	2.447500E+01
63	  0.032424849	-1.682000E+00	  0.032424849	1.253340E+02	  0.032424849	6.100000E+00	  0.032424849	2.553800E+01
64	  0.032625251	-1.719000E+00	  0.032625251	1.233060E+02	  0.032625251	6.351000E+00	  0.032625251	2.663600E+01
65	  0.032825653	-1.758000E+00	  0.032825653	1.212740E+02	  0.032825653	6.621000E+00	  0.032825653	2.775400E+01
66	  0.033026051	-1.799000E+00	  0.033026051	1.192080E+02	  0.033026051	6.910000E+00	  0.033026051	2.891100E+01
67	  0.033226453	-1.840000E+00	  0.033226453	1.171930E+02	  0.033226453	7.216000E+00	  0.033226453	3.005800E+01
68	  0.033426855	-1.881000E+00	  0.033426855	1.151320E+02	  0.033426855	7.536000E+00	  0.033426855	3.125500E+01
69	  0.033627257	-1.922000E+00	  0.033627257	1.130920E+02	  0.033627257	7.874000E+00	  0.033627257	3.246200E+01
70	  0.033827655	-1.967000E+00	  0.033827655	1.110480E+02	  0.033827655	8.246000E+00	  0.033827655	3.369400E+01
71	  0.034028057	-2.011000E+00	  0.034028057	1.089790E+02	  0.034028057	8.641000E+00	  0.034028057	3.496700E+01
72	  0.034228459	-2.057000E+00	  0.034228459	1.069100E+02	  0.034228459	9.065000E+00	  0.034228459	3.626600E+01
73	  0.034428857	-2.103000E+00	  0.034428857	1.048430E+02	  0.034428857	9.511000E+00	  0.034428857	3.759200E+01
74	  0.034629259	-2.149000E+00	  0.034629259	1.027390E+02	  0.034629259	9.988000E+00	  0.034629259	3.897500E+01
75	  0.034829661	-2.196000E+00	  0.034829661	1.006640E+02	  0.034829661	1.049900E+01	  0.034829661	4.036800E+01
76	  0.035030060	-2.246000E+00	  0.035030060	9.859600E+01	  0.035030060	1.105100E+01	  0.035030060	4.178600E+01
77	  0.035230462	-2.294000E+00	  0.035230462	9.649800E+01	  0.035230462	1.163500E+01	  0.035230462	4.326300E+01
78	  0.035430863	-2.342000E+00	  0.035430863	9.441600E+01	  0.035430863	1.225700E+01	  0.035430863	4.476600E+01
79	  0.035631265	-2.394000E+00	  0.035631265	9.235300E+01	  0.035631265	1.293300E+01	  0.035631265	4.628600E+01
80	  0.035831664	-2.445000E+00	  0.035831664	9.025900E+01	  0.035831664	1.365600E+01	  0.035831664	4.787200E+01
81	  0.036032066	-2.494000E+00	  0.036032066	8.818400E+01	  0.036032066	1.441300E+01	  0.036032066	4.948800E+01
82	  0.036232468	-2.545000E+00	  0.036232468	8.610400E+01	  0.036232468	1.524200E+01	  0.036232468	5.114600E+01
83	  0.036432866	-2.597000E+00	  0.036432866	8.401600E+01	  0.036432866	1.613000E+01	  0.036432866	5.285600E+01
84	  0.036633268	-2.650000E+00	  0.036633268	8.190300E+01	  0.036633268	1.710300E+01	  0.036633268	5.463100E+01
85	  0.036833670	-2.705000E+00	  0.036833670	7.983000E+01	  0.036833670	1.814500E+01	  0.036833670	5.641500E+01
86	  0.037034072	-2.760000E+00	  0.037034072	7.775000E+01	  0.037034072	1.926700E+01	  0.037034072	5.825300E+01
87	  0.037234470	-2.814000E+00	  0.037234470	7.564600E+01	  0.037234470	2.047800E+01	  0.037234470	6.016800E+01
88	  0.037434869	-2.867000E+00	  0.037434869	7.355500E+01	  0.037434869	2.177500E+01	  0.037434869	6.212400E+01
89	  0.037635271	-2.921000E+00	  0.037635271	7.144100E+01	  0.037635271	2.319300E+01	  0.037635271	6.415600E+01
90	  0.037835669	-2.978000E+00	  0.037835669	6.931300E+01	  0.037835669	2.475900E+01	  0.037835669	6.624400E+01
91	  0.038036071	-3.035000E+00	  0.038036071	6.718200E+01	  0.038036071	2.646100E+01	  0.038036071	6.838900E+01
92	  0.038236473	-3.096000E+00	  0.038236473	6.505400E+01	  0.038236473	2.833400E+01	  0.038236473	7.056500E+01
93	  0.038436871	-3.155000E+00	  0.038436871	6.292700E+01	  0.038436871	3.035700E+01	  0.038436871	7.279500E+01
94	  0.038637273	-3.214000E+00	  0.038637273	6.079100E+01	  0.038637273	3.256700E+01	  0.038637273	7.507800E+01
95	  0.038837675	-3.269000E+00	  0.038837675	5.868500E+01	  0.038837675	3.490900E+01	  0.038837675	7.739100E+01
96	  0.039038073	-3.323000E+00	  0.039038073	5.656100E+01	  0.039038073	3.747300E+01	  0.039038073	7.977100E+01
97	  0.039238475	-3.381000E+00	  0.039238475	5.443200E+01	  0.039238475	4.032200E+01	  0.039238475	8.214800E+01
98	  0.039438877	-3.440000E+00	  0.039438877	5.232800E+01	  0.039438877	4.339700E+01	  0.039438877	8.450600E+01
99	  0.039639279	-3.497000E+00	  0.039639279	5.020100E+01	  0.039639279	4.678500E+01	  0.039639279	8.689300E+01
100	  0.039839678	-3.555000E+00	  0.039839678	4.808300E+01	  0.039839678	5.047300E+01	  0.039839678	8.924400E+01
101	  0.040040080	-3.610000E+00	  0.040040080	4.594500E+01	  0.040040080	5.451900E+01	  0.040040080	9.159600E+01
102	  0.040240481	-3.665000E+00	  0.040240481	4.381800E+01	  0.040240481	5.892000E+01	  0.040240481	9.386100E+01
103	  0.040440880	-3.720000E+00	  0.040440880	4.171000E+01	  0.040440880	6.369000E+01	  0.040440880	9.597700E+01
104	  0.040641282	-3.777000E+00	  0.040641282	3.960100E+01	  0.040641282	6.891700E+01	  0.040641282	9.789300E+01
105	  0.040841684	-3.829000E+00	  0.040841684	3.752700E+01	  0.040841684	7.447000E+01	  0.040841684	9.962000E+01
106	  0.041042086	-3.887000E+00	  0.041042086	3.545700E+01	  0.041042086	8.051600E+01	  0.041042086	1.009650E+02
107	  0.041242484	-3.943000E+00	  0.041242484	3.336700E+01	  0.041242484	8.709400E+01	  0.041242484	1.019760E+02
108	  0.041442886	-3.997000E+00	  0.041442886	3.127100E+01	  0.041442886	9.417500E+01	  0.041442886	1.025480E+02
109	  0.041643288	-4.052000E+00	  0.041643288	2.919400E+01	  0.041643288	1.016700E+02	  0.041643288	1.025410E+02
110	  0.041843686	-4.105000E+00	  0.041843686	2.712800E+01	  0.041843686	1.095690E+02	  0.041843686	1.018620E+02
111	  0.042044088	-4.158000E+00	  0.042044088	2.508200E+01	  0.042044088	1.177710E+02	  0.042044088	1.004060E+02
112	  0.042244490	-4.211000E+00	  0.042244490	2.305400E+01	  0.042244490	1.261870E+02	  0.042244490	9.802100E+01
113	  0.042444889	-4.264000E+00	  0.042444889	2.102300E+01	  0.042444889	1.347890E+02	  0.042444889	9.464600E+01
114	  0.042645290	-4.318000E+00	  0.042645290	1.900300E+01	  0.042645290	1.433340E+02	  0.042645290	9.010500E+01
115	  0.042845692	-4.370000E+00	  0.042845692	1.701200E+01	  0.042845692	1.516010E+02	  0.042845692	8.453500E+01
116	  0.043046094	-4.421000E+00	  0.043046094	1.499800E+01	  0.043046094	1.595950E+02	  0.043046094	7.773400E+01
117	  0.043246493	-4.471000E+00	  0.043246493	1.298100E+01	  0.043246493	1.670090E+02	  0.043246493	6.975100E+01
118	  0.043446895	-4.519000E+00	  0.043446895	1.099000E+01	  0.043446895	1.735170E+02	  0.043446895	6.079500E+01
119	  0.043647297	-4.565000E+00	  0.043647297	9.008000E+00	  0.043647297	1.789840E+02	  0.043647297	5.093400E+01
120	  0.043847695	-4.613000E+00	  0.043847695	7.040000E+00	  0.043847695	1.831160E+02	  0.043847695	4.033100E+01
121	  0.044048097	-4.659000E+00	  0.044048097	5.052000E+00	  0.044048097	1.859460E+02	  0.044048097	2.910500E+01
122	  0.044248499	-4.705000E+00	  0.044248499	3.086000E+00	  0.044248499	1.872850E+02	  0.044248499	1.773500E+01
123	  0.044448901	-4.746000E+00	  0.044448901	1.121000E+00	  0.044448901	1.872800E+02	  0.044448901	6.383000E+00
124	  0.044649299	-4.787000E+00	  0.044649299	-8.490000E-01	  0.044649299	1.858820E+02	  0.044649299	-4.753000E+00
125	  0.044849701	-4.831000E+00	  0.044849701	-2.804000E+00	  0.044849701	1.830230E+02	  0.044849701	-1.529900E+01
126	  0.045050103	-4.869000E+00	  0.045050103	-4.774000E+00	  0.045050103	1.791560E+02	  0.045050103	-2.525200E+01
127	  0.045250501	-4.915000E+00	  0.045250501	-6.719000E+00	  0.045250501	1.741270E+02	  0.045250501	-3.415000E+01
128	  0.045450903	-4.953000E+00	  0.045450903	-8.657000E+00	  0.045450903	1.685750E+02	  0.045450903	-4.217000E+01
129	  0.045651305	-4.991000E+00	  0.045651305	-1.060300E+01	  0.045651305	1.624400E+02	  0.045651305	-4.925900E+01
130	  0.045851704	-5.028000E+00	  0.045851704	-1.253000E+01	  0.045851704	1.559690E+02	  0.045851704	-5.530700E+01
131	  0.046052102	-5.064000E+00	  0.046052102	-1.443500E+01	  0.046052102	1.493650E+02	  0.046052102	-6.037600E+01
132	  0.046252504	-5.103000E+00	  0.046252504	-1.628700E+01	  0.046252504	1.428010E+02	  0.046252504	-6.439100E+01
133	  0.046452906	-5.140000E+00	  0.046452906	-1.816000E+01	  0.046452906	1.362380E+02	  0.046452906	-6.773000E+01
134	  0.046653304	-5.174000E+00	  0.046653304	-2.000500E+01	  0.046653304	1.299070E+02	  0.046653304	-7.036300E+01
135	  0.046853706	-5.205000E+00	  0.046853706	-2.182300E+01	  0.046853706	1.238470E+02	  0.046853706	-7.240400E+01
136	  0.047054108	-5.230000E+00	  0.047054108	-2.365700E+01	  0.047054108	1.179830E+02	  0.047054108	-7.405600E+01
137	  0.047254506	-5.253000E+00	  0.047254506	-2.548600E+01	  0.047254506	1.123580E+02	  0.047254506	-7.526900E+01
138	  0.047454908	-5.275000E+00	  0.047454908	-2.730900E+01	  0.047454908	1.069790E+02	  0.047454908	-7.604500E+01
139	  0.047655310	-5.298000E+00	  0.047655310	-2.913200E+01	  0.047655310	1.018450E+02	  0.047655310	-7.645700E+01
140	  0.047855709	-5.321000E+00	  0.047855709	-3.094900E+01	  0.047855709	9.698100E+01	  0.047855709	-7.653700E+01
141	  0.048056111	-5.345000E+00	  0.048056111	-3.275500E+01	  0.048056111	9.240000E+01	  0.048056111	-7.633100E+01
142	  0.048256513	-5.366000E+00	  0.048256513	-3.456400E+01	  0.048256513	8.806600E+01	  0.048256513	-7.593600E+01
143	  0.048456915	-5.388000E+00	  0.048456915	-3.637400E+01	  0.048456915	8.397700E+01	  0.048456915	-7.535400E+01
144	  0.048657313	-5.412000E+00	  0.048657313	-3.818000E+01	  0.048657313	8.013600E+01	  0.048657313	-7.457900E+01
145	  0.048857715	-5.436000E+00	  0.048857715	-3.995500E+01	  0.048857715	7.659100E+01	  0.048857715	-7.367400E+01
146	  0.049058117	-5.455000E+00	  0.049058117	-4.174200E+01	  0.049058117	7.321600E+01	  0.049058117	-7.274000E+01
147	  0.049258515	-5.479000E+00	  0.049258515	-4.348600E+01	  0.049258515	7.014000E+01	  0.049258515	-7.166200E+01
148	  0.049458917	-5.501000E+00	  0.049458917	-4.523300E+01	  0.049458917	6.723300E+01	  0.049458917	-7.055200E+01
149	  0.049659319	-5.526000E+00	  0.049659319	-4.696300E+01	  0.049659319	6.453700E+01	  0.049659319	-6.936600E+01
150	  0.049859721	-5.549000E+00	  0.049859721	-4.866200E+01	  0.049859721	6.204400E+01	  0.049859721	-6.817300E+01
151	  0.050060119	-5.572000E+00	  0.050060119	-5.039000E+01	  0.050060119	5.965100E+01	  0.050060119	-6.694800E+01
152	  0.050260521	-5.592000E+00	  0.050260521	-5.209900E+01	  0.050260521	5.741400E+01	  0.050260521	-6.573100E+01
153	  0.050460923	-5.609000E+00	  0.050460923	-5.380500E+01	  0.050460923	5.530200E+01	  0.050460923	-6.452000E+01
154	  0.050661322	-5.629000E+00	  0.050661322	-5.548500E+01	  0.050661322	5.334700E+01	  0.050661322	-6.330100E+01
155	  0.050861724	-5.647000E+00	  0.050861724	-5.717700E+01	  0.050861724	5.148300E+01	  0.050861724	-6.207600E+01
156	  0.051062126	-5.665000E+00	  0.051062126	-5.880800E+01	  0.051062126	4.978800E+01	  0.051062126	-6.088800E+01
157	  0.051262524	-5.686000E+00	  0.051262524	-6.046000E+01	  0.051262524	4.817600E+01	  0.051262524	-5.966700E+01
158	  0.051462926	-5.701000E+00	  0.051462926	-6.212400E+01	  0.051462926	4.661600E+01	  0.051462926	-5.848100E+01
159	  0.051663328	-5.719000E+00	  0.051663328	-6.374100E+01	  0.051663328	4.519000E+01	  0.051663328	-5.731900E+01
160	  0.051863730	-5.737000E+00	  0.051863730	-6.536900E+01	  0.051863730	4.383300E+01	  0.051863730	-5.615200E+01
161	  0.052064128	-5.748000E+00	  0.052064128	-6.699200E+01	  0.052064128	4.252100E+01	  0.052064128	-5.503400E+01
162	  0.052264530	-5.758000E+00	  0.052264530	-6.858400E+01	  0.052264530	4.129800E+01	  0.052264530	-5.394700E+01
163	  0.052464932	-5.774000E+00	  0.052464932	-7.017400E+01	  0.052464932	4.015900E+01	  0.052464932	-5.284200E+01
164	  0.052665330	-5.785000E+00	  0.052665330	-7.173400E+01	  0.052665330	3.907600E+01	  0.052665330	-5.179300E+01
165	  0.052865732	-5.800000E+00	  0.052865732	-7.327700E+01	  0.052865732	3.807300E+01	  0.052865732	-5.074400E+01
166	  0.053066134	-5.810000E+00	  0.053066134	-7.481900E+01	  0.053066134	3.709700E+01	  0.053066134	-4.972900E+01
167	  0.053266536	-5.824000E+00	  0.053266536	-7.635900E+01	  0.053266536	3.618600E+01	  0.053266536	-4.870900E+01
168	  0.053466935	-5.837000E+00	  0.053466935	-7.788100E+01	  0.053466935	3.532300E+01	  0.053466935	-4.771600E+01
169	  0.053667337	-5.846000E+00	  0.053667337	-7.940300E+01	  0.053667337	3.448500E+01	  0.053667337	-4.674600E+01
170	  0.053867739	-5.856000E+00	  0.053867739	-8.088500E+01	  0.053867739	3.371000E+01	  0.053867739	-4.581000E+01
171	  0.054068137	-5.867000E+00	  0.054068137	-8.239600E+01	  0.054068137	3.295600E+01	  0.054068137	-4.486400E+01
172	  0.054268539	-5.875000E+00	  0.054268539	-8.388900E+01	  0.054268539	3.223300E+01	  0.054268539	-4.394800E+01
173	  0.054468941	-5.887000E+00	  0.054468941	-8.532100E+01	  0.054468941	3.158300E+01	  0.054468941	-4.306800E+01
174	  0.054669335	-5.900000E+00	  0.054669335	-8.680000E+01	  0.054669335	3.094600E+01	  0.054669335	-4.216500E+01
175	  0.054869737	-5.908000E+00	  0.054869737	-8.824300E+01	  0.054869737	3.033400E+01	  0.054869737	-4.130900E+01
176	  0.055070139	-5.918000E+00	  0.055070139	-8.967100E+01	  0.055070139	2.976000E+01	  0.055070139	-4.046600E+01
177	  0.055270538	-5.925000E+00	  0.055270538	-9.111600E+01	  0.055270538	2.918800E+01	  0.055270538	-3.963300E+01
178	  0.055470940	-5.935000E+00	  0.055470940	-9.254100E+01	  0.055470940	2.866000E+01	  0.055470940	-3.881100E+01
179	  0.055671342	-5.943000E+00	  0.055671342	-9.396100E+01	  0.055671342	2.815100E+01	  0.055671342	-3.800400E+01
180	  0.055871744	-5.949000E+00	  0.055871744	-9.537400E+01	  0.055871744	2.765500E+01	  0.055871744	-3.721600E+01
181	  0.056072142	-5.958000E+00	  0.056072142	-9.677700E+01	  0.056072142	2.719000E+01	  0.056072142	-3.643600E+01
182	  0.056272544	-5.967000E+00	  0.056272544	-9.816600E+01	  0.056272544	2.675200E+01	  0.056272544	-3.567000E+01
183	  0.056472946	-5.971000E+00	  0.056472946	-9.953200E+01	  0.056472946	2.632000E+01	  0.056472946	-3.493600E+01
184	  0.056673344	-5.979000E+00	  0.056673344	-1.008960E+02	  0.056673344	2.591700E+01	  0.056673344	-3.420300E+01
185	  0.056873746	-5.981000E+00	  0.056873746	-1.022710E+02	  0.056873746	2.550700E+01	  0.056873746	-3.348200E+01
186	  0.057074148	-5.989000E+00	  0.057074148	-1.036210E+02	  0.057074148	2.513700E+01	  0.057074148	-3.277100E+01
187	  0.057274550	-5.994000E+00	  0.057274550	-1.049820E+02	  0.057274550	2.477000E+01	  0.057274550	-3.206600E+01
188	  0.057474948	-5.997000E+00	  0.057474948	-1.063190E+02	  0.057474948	2.441800E+01	  0.057474948	-3.138200E+01
189	  0.057675350	-6.001000E+00	  0.057675350	-1.076620E+02	  0.057675350	2.407800E+01	  0.057675350	-3.070200E+01
190	  0.057875752	-6.005000E+00	  0.057875752	-1.089790E+02	  0.057875752	2.375700E+01	  0.057875752	-3.004000E+01
191	  0.058076151	-6.012000E+00	  0.058076151	-1.103120E+02	  0.058076151	2.345300E+01	  0.058076151	-2.937200E+01
192	  0.058276553	-6.016000E+00	  0.058276553	-1.115920E+02	  0.058276553	2.316200E+01	  0.058276553	-2.874000E+01
193	  0.058476955	-6.016000E+00	  0.058476955	-1.128920E+02	  0.058476955	2.286500E+01	  0.058476955	-2.811000E+01
194	  0.058677353	-6.022000E+00	  0.058677353	-1.141730E+02	  0.058677353	2.260100E+01	  0.058677353	-2.748500E+01
195	  0.058877755	-6.023000E+00	  0.058877755	-1.154420E+02	  0.058877755	2.233600E+01	  0.058877755	-2.687700E+01
196	  0.059078157	-6.025000E+00	  0.059078157	-1.167040E+02	  0.059078157	2.208200E+01	  0.059078157	-2.627700E+01
197	  0.059278559	-6.027000E+00	  0.059278559	-1.179570E+02	  0.059278559	2.183900E+01	  0.059278559	-2.568500E+01
198	  0.059478957	-6.031000E+00	  0.059478957	-1.191910E+02	  0.059478957	2.161200E+01	  0.059478957	-2.510500E+01
199	  0.059679359	-6.037000E+00	  0.059679359	-1.204380E+02	  0.059679359	2.139800E+01	  0.059679359	-2.452000E+01
200	  0.059879761	-6.041000E+00	  0.059879761	-1.216570E+02	  0.059879761	2.119200E+01	  0.059879761	-2.395500E+01
201	  0.060080159	-6.046000E+00	  0.060080159	-1.228450E+02	  0.060080159	2.099800E+01	  0.060080159	-2.340700E+01
202	  0.060280561	-6.052000E+00	  0.060280561	-1.240330E+02	  0.060280561	2.081600E+01	  0.060280561	-2.286200E+01
203	  0.060480963	-6.057000E+00	  0.060480963	-1.252250E+02	  0.060480963	2.063700E+01	  0.060480963	-2.231900E+01
204	  0.060681365	-6.060000E+00	  0.060681365	-1.263930E+02	  0.060681365	2.046100E+01	  0.060681365	-2.179300E+01
205	  0.060881764	-6.065000E+00	  0.060881764	-1.275770E+02	  0.060881764	2.029300E+01	  0.060881764	-2.126200E+01
206	  0.061082166	-6.067000E+00	  0.061082166	-1.287560E+02	  0.061082166	2.012500E+01	  0.061082166	-2.073800E+01
207	  0.061282568	-6.077000E+00	  0.061282568	-1.299040E+02	  0.061282568	1.998900E+01	  0.061282568	-2.022500E+01
208	  0.061482966	-6.081000E+00	  0.061482966	-1.310640E+02	  0.061482966	1.984000E+01	  0.061482966	-1.971400E+01
209	  0.061683368	-6.086000E+00	  0.061683368	-1.322150E+02	  0.061683368	1.970000E+01	  0.061683368	-1.921000E+01
210	  0.061883770	-6.092000E+00	  0.061883770	-1.333600E+02	  0.061883770	1.956800E+01	  0.061883770	-1.871100E+01
211	  0.062084168	-6.095000E+00	  0.062084168	-1.344540E+02	  0.062084168	1.943800E+01	  0.062084168	-1.823900E+01
212	  0.062284570	-6.099000E+00	  0.062284570	-1.356100E+02	  0.062284570	1.930900E+01	  0.062284570	-1.774100E+01
213	  0.062484972	-6.098000E+00	  0.062484972	-1.366810E+02	  0.062484972	1.918100E+01	  0.062484972	-1.728600E+01
214	  0.062685370	-6.097000E+00	  0.062685370	-1.378390E+02	  0.062685370	1.904500E+01	  0.062685370	-1.679700E+01
215	  0.062885776	-6.097000E+00	  0.062885776	-1.389520E+02	  0.062885776	1.892500E+01	  0.062885776	-1.632800E+01
216	  0.063086174	-6.098000E+00	  0.063086174	-1.400500E+02	  0.063086174	1.881000E+01	  0.063086174	-1.586700E+01
217	  0.063286573	-6.094000E+00	  0.063286573	-1.411160E+02	  0.063286573	1.869100E+01	  0.063286573	-1.542400E+01
218	  0.063486971	-6.094000E+00	  0.063486971	-1.422330E+02	  0.063486971	1.858100E+01	  0.063486971	-1.495900E+01
219	  0.063687377	-6.088000E+00	  0.063687377	-1.432990E+02	  0.063687377	1.846300E+01	  0.063687377	-1.452100E+01
220	  0.063887775	-6.080000E+00	  0.063887775	-1.444170E+02	  0.063887775	1.833800E+01	  0.063887775	-1.406500E+01
221	  0.064088173	-6.079000E+00	  0.064088173	-1.454950E+02	  0.064088173	1.823900E+01	  0.064088173	-1.362200E+01
222	  0.064288579	-6.071000E+00	  0.064288579	-1.465860E+02	  0.064288579	1.812400E+01	  0.064288579	-1.317900E+01
223	  0.064488977	-6.065000E+00	  0.064488977	-1.476400E+02	  0.064488977	1.802200E+01	  0.064488977	-1.275100E+01
224	  0.064689375	-6.057000E+00	  0.064689375	-1.487570E+02	  0.064689375	1.791500E+01	  0.064689375	-1.230000E+01
225	  0.064889781	-6.049000E+00	  0.064889781	-1.498090E+02	  0.064889781	1.781200E+01	  0.064889781	-1.187700E+01
226	  0.065090179	-6.039000E+00	  0.065090179	-1.508640E+02	  0.065090179	1.771100E+01	  0.065090179	-1.145500E+01
227	  0.065290578	-6.032000E+00	  0.065290578	-1.519360E+02	  0.065290578	1.761600E+01	  0.065290578	-1.102500E+01
228	  0.065490983	-6.016000E+00	  0.065490983	-1.529830E+02	  0.065490983	1.750500E+01	  0.065490983	-1.061000E+01
229	  0.065691382	-6.005000E+00	  0.065691382	-1.540610E+02	  0.065691382	1.740900E+01	  0.065691382	-1.018100E+01
230	  0.065891780	-5.997000E+00	  0.065891780	-1.551050E+02	  0.065891780	1.732300E+01	  0.065891780	-9.766000E+00
231	  0.066092186	-5.987000E+00	  0.066092186	-1.561360E+02	  0.066092186	1.723700E+01	  0.066092186	-9.357000E+00
232	  0.066292584	-5.973000E+00	  0.066292584	-1.571970E+02	  0.066292584	1.714300E+01	  0.066292584	-8.938000E+00
233	  0.066492982	-5.965000E+00	  0.066492982	-1.582330E+02	  0.066492982	1.706700E+01	  0.066492982	-8.528000E+00
234	  0.066693388	-5.958000E+00	  0.066693388	-1.592500E+02	  0.066693388	1.699900E+01	  0.066693388	-8.126000E+00
235	  0.066893786	-5.951000E+00	  0.066893786	-1.602670E+02	  0.066893786	1.693100E+01	  0.066893786	-7.724000E+00
236	  0.067094192	-5.939000E+00	  0.067094192	-1.613240E+02	  0.067094192	1.685300E+01	  0.067094192	-7.309000E+00
237	  0.067294590	-5.934000E+00	  0.067294590	-1.623390E+02	  0.067294590	1.679900E+01	  0.067294590	-6.909000E+00
238	  0.067494988	-5.929000E+00	  0.067494988	-1.633410E+02	  0.067494988	1.674500E+01	  0.067494988	-6.514000E+00
239	  0.067695394	-5.923000E+00	  0.067695394	-1.643660E+02	  0.067695394	1.669200E+01	  0.067695394	-6.111000E+00
240	  0.067895792	-5.917000E+00	  0.067895792	-1.653950E+02	  0.067895792	1.664300E+01	  0.067895792	-5.707000E+00
241	  0.068096191	-5.912000E+00	  0.068096191	-1.664370E+02	  0.068096191	1.659500E+01	  0.068096191	-5.298000E+00
242	  0.068296596	-5.910000E+00	  0.068296596	-1.674600E+02	  0.068296596	1.655900E+01	  0.068296596	-4.897000E+00
243	  0.068496995	-5.909000E+00	  0.068496995	-1.684370E+02	  0.068496995	1.653100E+01	  0.068496995	-4.513000E+00
244	  0.068697393	-5.905000E+00	  0.068697393	-1.694720E+02	  0.068697393	1.649500E+01	  0.068697393	-4.108000E+00
245	  0.068897791	-5.899000E+00	  0.068897791	-1.705200E+02	  0.068897791	1.645700E+01	  0.068897791	-3.699000E+00
246	  0.069098189	-5.901000E+00	  0.069098189	-1.715170E+02	  0.069098189	1.644200E+01	  0.069098189	-3.308000E+00
247	  0.069298595	-5.901000E+00	  0.069298595	-1.725410E+02	  0.069298595	1.642200E+01	  0.069298595	-2.908000E+00
248	  0.069498993	-5.899000E+00	  0.069498993	-1.736000E+02	  0.069498993	1.640100E+01	  0.069498993	-2.495000E+00
249	  0.069699399	-5.900000E+00	  0.069699399	-1.746110E+02	  0.069699399	1.639000E+01	  0.069699399	-2.100000E+00
250	  0.069899797	-5.897000E+00	  0.069899797	-1.756080E+02	  0.069899797	1.637100E+01	  0.069899797	-1.711000E+00
251	  0.070100196	-5.894000E+00	  0.070100196	-1.766400E+02	  0.070100196	1.635400E+01	  0.070100196	-1.309000E+00
252	  0.070300601	-5.895000E+00	  0.070300601	-1.776510E+02	  0.070300601	1.635200E+01	  0.070300601	-9.150000E-01
253	  0.070501000	-5.894000E+00	  0.070501000	-1.786480E+02	  0.070501000	1.634500E+01	  0.070501000	-5.260000E-01
254	  0.070701398	-5.891000E+00	  0.070701398	-1.796770E+02	  0.070701398	1.633500E+01	  0.070701398	-1.250000E-01
255	  0.070901804	-5.892000E+00	  0.070901804	1.793390E+02	  0.070901804	1.633900E+01	  0.070901804	2.570000E-01
256	  0.071102202	-5.893000E+00	  0.071102202	1.783290E+02	  0.071102202	1.634300E+01	  0.071102202	6.510000E-01
257	  0.071302600	-5.890000E+00	  0.071302600	1.772910E+02	  0.071302600	1.634000E+01	  0.071302600	1.055000E+00
258	  0.071503006	-5.890000E+00	  0.071503006	1.763200E+02	  0.071503006	1.634600E+01	  0.071503006	1.434000E+00
259	  0.071703404	-5.889000E+00	  0.071703404	1.753320E+02	  0.071703404	1.635500E+01	  0.071703404	1.819000E+00
260	  0.071903802	-5.888000E+00	  0.071903802	1.743290E+02	  0.071903802	1.636400E+01	  0.071903802	2.211000E+00
261	  0.072104208	-5.893000E+00	  0.072104208	1.733660E+02	  0.072104208	1.638800E+01	  0.072104208	2.587000E+00
262	  0.072304606	-5.889000E+00	  0.072304606	1.724000E+02	  0.072304606	1.639500E+01	  0.072304606	2.965000E+00
263	  0.072505005	-5.891000E+00	  0.072505005	1.714430E+02	  0.072505005	1.641600E+01	  0.072505005	3.339000E+00
264	  0.072705410	-5.893000E+00	  0.072705410	1.704780E+02	  0.072705410	1.644200E+01	  0.072705410	3.716000E+00
265	  0.072905809	-5.893000E+00	  0.072905809	1.694930E+02	  0.072905809	1.646400E+01	  0.072905809	4.102000E+00
266	  0.073106214	-5.898000E+00	  0.073106214	1.685590E+02	  0.073106214	1.649900E+01	  0.073106214	4.467000E+00
267	  0.073306613	-5.896000E+00	  0.073306613	1.676030E+02	  0.073306613	1.652000E+01	  0.073306613	4.843000E+00
268	  0.073507011	-5.901000E+00	  0.073507011	1.666860E+02	  0.073507011	1.656000E+01	  0.073507011	5.203000E+00
269	  0.073707417	-5.903000E+00	  0.073707417	1.657420E+02	  0.073707417	1.659400E+01	  0.073707417	5.574000E+00
270	  0.073907815	-5.906000E+00	  0.073907815	1.647990E+02	  0.073907815	1.663300E+01	  0.073907815	5.944000E+00
271	  0.074108213	-5.910000E+00	  0.074108213	1.639030E+02	  0.074108213	1.667500E+01	  0.074108213	6.297000E+00
272	  0.074308619	-5.916000E+00	  0.074308619	1.629620E+02	  0.074308619	1.672700E+01	  0.074308619	6.667000E+00
273	  0.074509017	-5.923000E+00	  0.074509017	1.620490E+02	  0.074509017	1.678100E+01	  0.074509017	7.026000E+00
274	  0.074709415	-5.928000E+00	  0.074709415	1.611420E+02	  0.074709415	1.683400E+01	  0.074709415	7.384000E+00
275	  0.074909821	-5.940000E+00	  0.074909821	1.602050E+02	  0.074909821	1.690600E+01	  0.074909821	7.752000E+00
276	  0.075110219	-5.947000E+00	  0.075110219	1.592950E+02	  0.075110219	1.696700E+01	  0.075110219	8.112000E+00
277	  0.075310618	-5.954000E+00	  0.075310618	1.583870E+02	  0.075310618	1.703100E+01	  0.075310618	8.470000E+00
278	  0.075511023	-5.961000E+00	  0.075511023	1.574770E+02	  0.075511023	1.709600E+01	  0.075511023	8.831000E+00
279	  0.075711422	-5.967000E+00	  0.075711422	1.565910E+02	  0.075711422	1.716000E+01	  0.075711422	9.183000E+00
280	  0.075911827	-5.976000E+00	  0.075911827	1.556810E+02	  0.075911827	1.723400E+01	  0.075911827	9.543000E+00
281	  0.076112226	-5.987000E+00	  0.076112226	1.547610E+02	  0.076112226	1.731700E+01	  0.076112226	9.908000E+00
282	  0.076312624	-5.998000E+00	  0.076312624	1.538340E+02	  0.076312624	1.740400E+01	  0.076312624	1.027500E+01
283	  0.076513030	-6.009000E+00	  0.076513030	1.529210E+02	  0.076513030	1.749000E+01	  0.076513030	1.063800E+01
284	  0.076713428	-6.019000E+00	  0.076713428	1.520220E+02	  0.076713428	1.757600E+01	  0.076713428	1.099600E+01
285	  0.076913826	-6.030000E+00	  0.076913826	1.510950E+02	  0.076913826	1.766900E+01	  0.076913826	1.136500E+01
286	  0.077114232	-6.043000E+00	  0.077114232	1.501920E+02	  0.077114232	1.776800E+01	  0.077114232	1.172500E+01
287	  0.077314630	-6.055000E+00	  0.077314630	1.493010E+02	  0.077314630	1.786800E+01	  0.077314630	1.208000E+01
288	  0.077515028	-6.067000E+00	  0.077515028	1.483950E+02	  0.077515028	1.796800E+01	  0.077515028	1.244300E+01
289	  0.077715434	-6.078000E+00	  0.077715434	1.475000E+02	  0.077715434	1.807000E+01	  0.077715434	1.280100E+01
290	  0.077915832	-6.086000E+00	  0.077915832	1.466110E+02	  0.077915832	1.816400E+01	  0.077915832	1.316000E+01
291	  0.078116231	-6.100000E+00	  0.078116231	1.457180E+02	  0.078116231	1.827600E+01	  0.078116231	1.351900E+01
292	  0.078316636	-6.112000E+00	  0.078316636	1.447930E+02	  0.078316636	1.839200E+01	  0.078316636	1.389100E+01
293	  0.078517035	-6.126000E+00	  0.078517035	1.438990E+02	  0.078517035	1.850900E+01	  0.078517035	1.425100E+01
294	  0.078717433	-6.142000E+00	  0.078717433	1.430100E+02	  0.078717433	1.863600E+01	  0.078717433	1.460700E+01
295	  0.078917839	-6.150000E+00	  0.078917839	1.421370E+02	  0.078917839	1.874200E+01	  0.078917839	1.496400E+01
296	  0.079118237	-6.166000E+00	  0.079118237	1.412900E+02	  0.079118237	1.887100E+01	  0.079118237	1.530400E+01
297	  0.079318643	-6.180000E+00	  0.079318643	1.404460E+02	  0.079318643	1.899400E+01	  0.079318643	1.564600E+01
298	  0.079519041	-6.191000E+00	  0.079519041	1.395630E+02	  0.079519041	1.911800E+01	  0.079519041	1.600600E+01
299	  0.079719439	-6.208000E+00	  0.079719439	1.387220E+02	  0.079719439	1.925700E+01	  0.079719439	1.634500E+01
300	  0.079919845	-6.223000E+00	  0.079919845	1.378480E+02	  0.079919845	1.939600E+01	  0.079919845	1.670000E+01
301	  0.080120243	-6.233000E+00	  0.080120243	1.369880E+02	  0.080120243	1.952200E+01	  0.080120243	1.705300E+01
302	  0.080320641	-6.251000E+00	  0.080320641	1.361600E+02	  0.080320641	1.966800E+01	  0.080320641	1.738800E+01
303	  0.080521047	-6.268000E+00	  0.080521047	1.353170E+02	  0.080521047	1.981900E+01	  0.080521047	1.773000E+01
304	  0.080721445	-6.286000E+00	  0.080721445	1.344780E+02	  0.080721445	1.997200E+01	  0.080721445	1.807100E+01
305	  0.080921844	-6.301000E+00	  0.080921844	1.336640E+02	  0.080921844	2.011900E+01	  0.080921844	1.840300E+01
306	  0.081122249	-6.321000E+00	  0.081122249	1.328530E+02	  0.081122249	2.028000E+01	  0.081122249	1.873100E+01
307	  0.081322648	-6.342000E+00	  0.081322648	1.320480E+02	  0.081322648	2.044700E+01	  0.081322648	1.905600E+01
308	  0.081523046	-6.358000E+00	  0.081523046	1.312120E+02	  0.081523046	2.060900E+01	  0.081523046	1.939800E+01
309	  0.081723452	-6.375000E+00	  0.081723452	1.304070E+02	  0.081723452	2.076900E+01	  0.081723452	1.972700E+01
310	  0.081923850	-6.395000E+00	  0.081923850	1.295890E+02	  0.081923850	2.094600E+01	  0.081923850	2.005900E+01
311	  0.082124248	-6.414000E+00	  0.082124248	1.288100E+02	  0.082124248	2.111500E+01	  0.082124248	2.037600E+01
312	  0.082324654	-6.433000E+00	  0.082324654	1.280030E+02	  0.082324654	2.129200E+01	  0.082324654	2.070500E+01
313	  0.082525052	-6.455000E+00	  0.082525052	1.272300E+02	  0.082525052	2.147500E+01	  0.082525052	2.101700E+01
314	  0.082725458	-6.480000E+00	  0.082725458	1.264610E+02	  0.082725458	2.166900E+01	  0.082725458	2.132400E+01
315	  0.082925856	-6.505000E+00	  0.082925856	1.256710E+02	  0.082925856	2.186900E+01	  0.082925856	2.164000E+01
316	  0.083126254	-6.527000E+00	  0.083126254	1.248400E+02	  0.083126254	2.207300E+01	  0.083126254	2.197700E+01
317	  0.083326660	-6.552000E+00	  0.083326660	1.240830E+02	  0.083326660	2.227300E+01	  0.083326660	2.227900E+01
318	  0.083527058	-6.576000E+00	  0.083527058	1.233020E+02	  0.083527058	2.248000E+01	  0.083527058	2.259200E+01
319	  0.083727457	-6.607000E+00	  0.083727457	1.225140E+02	  0.083727457	2.270900E+01	  0.083727457	2.290100E+01
320	  0.083927862	-6.636000E+00	  0.083927862	1.217170E+02	  0.083927862	2.293900E+01	  0.083927862	2.321500E+01
321	  0.084128261	-6.659000E+00	  0.084128261	1.209610E+02	  0.084128261	2.314900E+01	  0.084128261	2.351800E+01
322	  0.084328659	-6.687000E+00	  0.084328659	1.202240E+02	  0.084328659	2.337200E+01	  0.084328659	2.380600E+01
323	  0.084529065	-6.711000E+00	  0.084529065	1.194640E+02	  0.084529065	2.359200E+01	  0.084529065	2.410900E+01
324	  0.084729463	-6.742000E+00	  0.084729463	1.187020E+02	  0.084729463	2.383300E+01	  0.084729463	2.440500E+01
325	  0.084929854	-6.771000E+00	  0.084929854	1.179150E+02	  0.084929854	2.408100E+01	  0.084929854	2.471200E+01
326	  0.085130259	-6.797000E+00	  0.085130259	1.171600E+02	  0.085130259	2.431400E+01	  0.085130259	2.501100E+01
327	  0.085330658	-6.822000E+00	  0.085330658	1.164280E+02	  0.085330658	2.454500E+01	  0.085330658	2.529900E+01
328	  0.085531056	-6.855000E+00	  0.085531056	1.156980E+02	  0.085531056	2.480200E+01	  0.085531056	2.557500E+01
329	  0.085731462	-6.885000E+00	  0.085731462	1.149730E+02	  0.085731462	2.505100E+01	  0.085731462	2.585200E+01
330	  0.085931860	-6.912000E+00	  0.085931860	1.142610E+02	  0.085931860	2.529100E+01	  0.085931860	2.612800E+01
331	  0.086132258	-6.941000E+00	  0.086132258	1.135990E+02	  0.086132258	2.553200E+01	  0.086132258	2.637600E+01
332	  0.086332664	-6.970000E+00	  0.086332664	1.129410E+02	  0.086332664	2.577200E+01	  0.086332664	2.662400E+01
333	  0.086533062	-6.997000E+00	  0.086533062	1.122140E+02	  0.086533062	2.602900E+01	  0.086533062	2.690300E+01
334	  0.086733460	-7.023000E+00	  0.086733460	1.115810E+02	  0.086733460	2.626000E+01	  0.086733460	2.714200E+01
335	  0.086933866	-7.046000E+00	  0.086933866	1.109350E+02	  0.086933866	2.649100E+01	  0.086933866	2.739100E+01
336	  0.087134264	-7.072000E+00	  0.087134264	1.102780E+02	  0.087134264	2.673300E+01	  0.087134264	2.764000E+01
337	  0.087334670	-7.093000E+00	  0.087334670	1.096710E+02	  0.087334670	2.695400E+01	  0.087334670	2.787400E+01
338	  0.087535068	-7.116000E+00	  0.087535068	1.090470E+02	  0.087535068	2.718700E+01	  0.087535068	2.811100E+01
339	  0.087735467	-7.127000E+00	  0.087735467	1.084550E+02	  0.087735467	2.737700E+01	  0.087735467	2.835600E+01
340	  0.087935872	-7.146000E+00	  0.087935872	1.078040E+02	  0.087935872	2.761200E+01	  0.087935872	2.861200E+01
341	  0.088136271	-7.158000E+00	  0.088136271	1.071770E+02	  0.088136271	2.782200E+01	  0.088136271	2.887000E+01
342	  0.088336669	-7.168000E+00	  0.088336669	1.065110E+02	  0.088336669	2.803800E+01	  0.088336669	2.915000E+01
343	  0.088537075	-7.178000E+00	  0.088537075	1.058490E+02	  0.088537075	2.825900E+01	  0.088537075	2.942600E+01
344	  0.088737473	-7.191000E+00	  0.088737473	1.051510E+02	  0.088737473	2.850200E+01	  0.088737473	2.971400E+01
345	  0.088937871	-7.201000E+00	  0.088937871	1.044560E+02	  0.088937871	2.874000E+01	  0.088937871	3.000600E+01
346	  0.089138277	-7.214000E+00	  0.089138277	1.037660E+02	  0.089138277	2.898600E+01	  0.089138277	3.029200E+01
347	  0.089338675	-7.229000E+00	  0.089338675	1.030630E+02	  0.089338675	2.924900E+01	  0.089338675	3.057700E+01
348	  0.089539073	-7.252000E+00	  0.089539073	1.023590E+02	  0.089539073	2.953800E+01	  0.089539073	3.084700E+01
349	  0.089739479	-7.267000E+00	  0.089739479	1.016350E+02	  0.089739479	2.981500E+01	  0.089739479	3.114100E+01
350	  0.089939877	-7.289000E+00	  0.089939877	1.009420E+02	  0.089939877	3.011000E+01	  0.089939877	3.140400E+01
351	  0.090140276	-7.310000E+00	  0.090140276	1.002140E+02	  0.090140276	3.041400E+01	  0.090140276	3.168600E+01
352	  0.090340681	-7.341000E+00	  0.090340681	9.952500E+01	  0.090340681	3.073800E+01	  0.090340681	3.192700E+01
353	  0.090541080	-7.358000E+00	  0.090541080	9.880600E+01	  0.090541080	3.103700E+01	  0.090541080	3.221200E+01
354	  0.090741485	-7.389000E+00	  0.090741485	9.815100E+01	  0.090741485	3.136100E+01	  0.090741485	3.243200E+01
355	  0.090941884	-7.415000E+00	  0.090941884	9.746200E+01	  0.090941884	3.168400E+01	  0.090941884	3.268000E+01
356	  0.091142282	-7.450000E+00	  0.091142282	9.679100E+01	  0.091142282	3.203200E+01	  0.091142282	3.289600E+01
357	  0.091342688	-7.478000E+00	  0.091342688	9.610800E+01	  0.091342688	3.236800E+01	  0.091342688	3.313100E+01
358	  0.091543086	-7.504000E+00	  0.091543086	9.545800E+01	  0.091543086	3.268900E+01	  0.091543086	3.335500E+01
359	  0.091743484	-7.541000E+00	  0.091743484	9.479400E+01	  0.091743484	3.305100E+01	  0.091743484	3.355700E+01
360	  0.091943890	-7.565000E+00	  0.091943890	9.413400E+01	  0.091943890	3.337900E+01	  0.091943890	3.378700E+01
361	  0.092144288	-7.601000E+00	  0.092144288	9.349200E+01	  0.092144288	3.373800E+01	  0.092144288	3.397600E+01
362	  0.092344686	-7.627000E+00	  0.092344686	9.281300E+01	  0.092344686	3.408900E+01	  0.092344686	3.420100E+01
363	  0.092545092	-7.663000E+00	  0.092545092	9.222700E+01	  0.092545092	3.443400E+01	  0.092545092	3.436000E+01
364	  0.092745490	-7.696000E+00	  0.092745490	9.160100E+01	  0.092745490	3.478600E+01	  0.092745490	3.454400E+01
365	  0.092945889	-7.732000E+00	  0.092945889	9.102000E+01	  0.092945889	3.513500E+01	  0.092945889	3.469400E+01
366	  0.093146294	-7.761000E+00	  0.093146294	9.036100E+01	  0.093146294	3.550100E+01	  0.093146294	3.489400E+01
367	  0.093346693	-7.794000E+00	  0.093346693	8.981800E+01	  0.093346693	3.583100E+01	  0.093346693	3.503200E+01
368	  0.093547091	-7.828000E+00	  0.093547091	8.924000E+01	  0.093547091	3.618100E+01	  0.093547091	3.517900E+01
369	  0.093747497	-7.864000E+00	  0.093747497	8.862300E+01	  0.093747497	3.655600E+01	  0.093747497	3.533400E+01
370	  0.093947895	-7.898000E+00	  0.093947895	8.802700E+01	  0.093947895	3.692100E+01	  0.093947895	3.548200E+01
371	  0.094148301	-7.936000E+00	  0.094148301	8.747500E+01	  0.094148301	3.728000E+01	  0.094148301	3.559600E+01
372	  0.094348699	-7.969000E+00	  0.094348699	8.693100E+01	  0.094348699	3.762200E+01	  0.094348699	3.572100E+01
373	  0.094549097	-8.011000E+00	  0.094549097	8.635900E+01	  0.094549097	3.800800E+01	  0.094549097	3.582200E+01
374	  0.094749503	-8.042000E+00	  0.094749503	8.583200E+01	  0.094749503	3.834300E+01	  0.094749503	3.593900E+01
375	  0.094949901	-8.075000E+00	  0.094949901	8.528700E+01	  0.094949901	3.869500E+01	  0.094949901	3.605400E+01
376	  0.095150299	-8.117000E+00	  0.095150299	8.473200E+01	  0.095150299	3.907700E+01	  0.095150299	3.613900E+01
377	  0.095350705	-8.153000E+00	  0.095350705	8.416400E+01	  0.095350705	3.945300E+01	  0.095350705	3.624600E+01
378	  0.095551103	-8.190000E+00	  0.095551103	8.362900E+01	  0.095551103	3.981600E+01	  0.095551103	3.633600E+01
379	  0.095751502	-8.223000E+00	  0.095751502	8.310900E+01	  0.095751502	4.016600E+01	  0.095751502	3.642600E+01
380	  0.095951907	-8.264000E+00	  0.095951907	8.258800E+01	  0.095951907	4.053600E+01	  0.095951907	3.648800E+01
381	  0.096152306	-8.298000E+00	  0.096152306	8.204800E+01	  0.096152306	4.090200E+01	  0.096152306	3.657700E+01
382	  0.096352704	-8.334000E+00	  0.096352704	8.154900E+01	  0.096352704	4.125400E+01	  0.096352704	3.663800E+01
383	  0.096553110	-8.367000E+00	  0.096553110	8.105500E+01	  0.096553110	4.159700E+01	  0.096553110	3.670600E+01
384	  0.096753508	-8.402000E+00	  0.096753508	8.055300E+01	  0.096753508	4.194900E+01	  0.096753508	3.676900E+01
385	  0.096953906	-8.440000E+00	  0.096953906	8.005800E+01	  0.096953906	4.230800E+01	  0.096953906	3.681300E+01
386	  0.097154312	-8.474000E+00	  0.097154312	7.956500E+01	  0.097154312	4.265700E+01	  0.097154312	3.686700E+01
387	  0.097354710	-8.509000E+00	  0.097354710	7.906000E+01	  0.097354710	4.301900E+01	  0.097354710	3.691800E+01
388	  0.097555116	-8.544000E+00	  0.097555116	7.859500E+01	  0.097555116	4.335900E+01	  0.097555116	3.694900E+01
389	  0.097755514	-8.581000E+00	  0.097755514	7.814100E+01	  0.097755514	4.369700E+01	  0.097755514	3.697100E+01
390	  0.097955912	-8.610000E+00	  0.097955912	7.768300E+01	  0.097955912	4.402000E+01	  0.097955912	3.701800E+01
391	  0.098156318	-8.643000E+00	  0.098156318	7.725300E+01	  0.098156318	4.434000E+01	  0.098156318	3.703600E+01
392	  0.098356716	-8.673000E+00	  0.098356716	7.680800E+01	  0.098356716	4.466000E+01	  0.098356716	3.707100E+01
393	  0.098557115	-8.702000E+00	  0.098557115	7.637700E+01	  0.098557115	4.497400E+01	  0.098557115	3.710000E+01
394	  0.098757520	-8.735000E+00	  0.098757520	7.591200E+01	  0.098757520	4.531700E+01	  0.098757520	3.712000E+01
395	  0.098957919	-8.762000E+00	  0.098957919	7.550300E+01	  0.098957919	4.561300E+01	  0.098957919	3.714500E+01
396	  0.099158317	-8.788000E+00	  0.099158317	7.508100E+01	  0.099158317	4.591800E+01	  0.099158317	3.717400E+01
397	  0.099358723	-8.812000E+00	  0.099358723	7.466800E+01	  0.099358723	4.621300E+01	  0.099358723	3.720600E+01
398	  0.099559121	-8.840000E+00	  0.099559121	7.427300E+01	  0.099559121	4.650600E+01	  0.099559121	3.721700E+01
399	  0.099759519	-8.866000E+00	  0.099759519	7.387500E+01	  0.099759519	4.679800E+01	  0.099759519	3.723300E+01
400	  0.099959925	-8.890000E+00	  0.099959925	7.349700E+01	  0.099959925	4.707600E+01	  0.099959925	3.724400E+01
401	  0.100160323	-8.907000E+00	  0.100160323	7.315400E+01	  0.100160323	4.731900E+01	  0.100160323	3.727600E+01
402	  0.100360721	-8.929000E+00	  0.100360721	7.277300E+01	  0.100360721	4.759700E+01	  0.100360721	3.729400E+01
403	  0.100561127	-8.954000E+00	  0.100561127	7.236900E+01	  0.100561127	4.789300E+01	  0.100561127	3.730700E+01
404	  0.100761525	-8.966000E+00	  0.100761525	7.204700E+01	  0.100761525	4.811600E+01	  0.100761525	3.734700E+01
405	  0.100961931	-8.989000E+00	  0.100961931	7.174100E+01	  0.100961931	4.835000E+01	  0.100961931	3.733500E+01
406	  0.101162329	-8.999000E+00	  0.101162329	7.141400E+01	  0.101162329	4.857400E+01	  0.101162329	3.738200E+01
407	  0.101362728	-9.022000E+00	  0.101362728	7.104800E+01	  0.101362728	4.884800E+01	  0.101362728	3.738300E+01
408	  0.101563133	-9.044000E+00	  0.101563133	7.074600E+01	  0.101563133	4.907800E+01	  0.101563133	3.737000E+01
409	  0.101763532	-9.050000E+00	  0.101763532	7.040200E+01	  0.101763532	4.931000E+01	  0.101763532	3.743100E+01
410	  0.101963930	-9.065000E+00	  0.101963930	7.006100E+01	  0.101963930	4.955600E+01	  0.101963930	3.745300E+01
411	  0.102164328	-9.083000E+00	  0.102164328	6.971000E+01	  0.102164328	4.981400E+01	  0.102164328	3.746400E+01
412	  0.102364726	-9.097000E+00	  0.102364726	6.940500E+01	  0.102364726	5.003500E+01	  0.102364726	3.748200E+01
413	  0.102565125	-9.099000E+00	  0.102565125	6.903600E+01	  0.102565125	5.028200E+01	  0.102565125	3.756000E+01
414	  0.102765530	-9.116000E+00	  0.102765530	6.877000E+01	  0.102765530	5.048300E+01	  0.102765530	3.755200E+01
415	  0.102965929	-9.116000E+00	  0.102965929	6.836600E+01	  0.102965929	5.075300E+01	  0.102965929	3.764400E+01
416	  0.103166327	-9.127000E+00	  0.103166327	6.806300E+01	  0.103166327	5.097200E+01	  0.103166327	3.766700E+01
417	  0.103366733	-9.123000E+00	  0.103366733	6.771300E+01	  0.103366733	5.120100E+01	  0.103366733	3.776500E+01
418	  0.103567131	-9.132000E+00	  0.103567131	6.736000E+01	  0.103567131	5.145300E+01	  0.103567131	3.780600E+01
419	  0.103767529	-9.131000E+00	  0.103767529	6.705200E+01	  0.103767529	5.166200E+01	  0.103767529	3.787600E+01
420	  0.103967935	-9.137000E+00	  0.103967935	6.663300E+01	  0.103967935	5.195700E+01	  0.103967935	3.794400E+01
421	  0.104168333	-9.137000E+00	  0.104168333	6.636200E+01	  0.104168333	5.214500E+01	  0.104168333	3.800100E+01
422	  0.104368731	-9.134000E+00	  0.104368731	6.592000E+01	  0.104368731	5.244700E+01	  0.104368731	3.810800E+01
423	  0.104569137	-9.132000E+00	  0.104569137	6.555900E+01	  0.104569137	5.269800E+01	  0.104569137	3.819100E+01
424	  0.104769535	-9.131000E+00	  0.104769535	6.522100E+01	  0.104769535	5.293500E+01	  0.104769535	3.826600E+01
425	  0.104969934	-9.119000E+00	  0.104969934	6.478700E+01	  0.104969934	5.322700E+01	  0.104969934	3.841000E+01
426	  0.105170339	-9.112000E+00	  0.105170339	6.443300E+01	  0.105170339	5.347100E+01	  0.105170339	3.851100E+01
427	  0.105370738	-9.099000E+00	  0.105370738	6.398700E+01	  0.105370738	5.377600E+01	  0.105370738	3.866400E+01
428	  0.105571143	-9.090000E+00	  0.105571143	6.360600E+01	  0.105571143	5.404300E+01	  0.105571143	3.877700E+01
429	  0.105771542	-9.076000E+00	  0.105771542	6.313200E+01	  0.105771542	5.437400E+01	  0.105771542	3.893400E+01
430	  0.105971940	-9.070000E+00	  0.105971940	6.274200E+01	  0.105971940	5.465600E+01	  0.105971940	3.903700E+01
431	  0.106172346	-9.051000E+00	  0.106172346	6.230500E+01	  0.106172346	5.496100E+01	  0.106172346	3.920600E+01
432	  0.106372744	-9.035000E+00	  0.106372744	6.183700E+01	  0.106372744	5.529600E+01	  0.106372744	3.936700E+01
433	  0.106573142	-9.020000E+00	  0.106573142	6.137300E+01	  0.106573142	5.563400E+01	  0.106573142	3.952300E+01
434	  0.106773548	-8.996000E+00	  0.106773548	6.089900E+01	  0.106773548	5.597400E+01	  0.106773548	3.972300E+01
435	  0.106973946	-8.982000E+00	  0.106973946	6.038400E+01	  0.106973946	5.636000E+01	  0.106973946	3.988300E+01
436	  0.107174344	-8.954000E+00	  0.107174344	5.991700E+01	  0.107174344	5.670000E+01	  0.107174344	4.010000E+01
437	  0.107374750	-8.937000E+00	  0.107374750	5.940000E+01	  0.107374750	5.709500E+01	  0.107374750	4.026800E+01
438	  0.107575148	-8.908000E+00	  0.107575148	5.888100E+01	  0.107575148	5.748600E+01	  0.107575148	4.049800E+01
439	  0.107775547	-8.886000E+00	  0.107775547	5.836800E+01	  0.107775547	5.788400E+01	  0.107775547	4.069100E+01
440	  0.107975952	-8.864000E+00	  0.107975952	5.785500E+01	  0.107975952	5.828900E+01	  0.107975952	4.088300E+01
441	  0.108176351	-8.838000E+00	  0.108176351	5.731600E+01	  0.108176351	5.871700E+01	  0.108176351	4.109500E+01
442	  0.108376749	-8.817000E+00	  0.108376749	5.678800E+01	  0.108376749	5.914700E+01	  0.108376749	4.128200E+01
443	  0.108577155	-8.792000E+00	  0.108577155	5.624900E+01	  0.108577155	5.959000E+01	  0.108577155	4.148600E+01
444	  0.108777553	-8.771000E+00	  0.108777553	5.565100E+01	  0.108777553	6.009300E+01	  0.108777553	4.167800E+01
445	  0.108977959	-8.748000E+00	  0.108977959	5.506900E+01	  0.108977959	6.059000E+01	  0.108977959	4.186800E+01
446	  0.109178357	-8.728000E+00	  0.109178357	5.444200E+01	  0.109178357	6.113500E+01	  0.109178357	4.204700E+01
447	  0.109378755	-8.705000E+00	  0.109378755	5.383900E+01	  0.109378755	6.166600E+01	  0.109378755	4.223900E+01
448	  0.109579161	-8.688000E+00	  0.109579161	5.323300E+01	  0.109579161	6.221200E+01	  0.109579161	4.238800E+01
449	  0.109779559	-8.665000E+00	  0.109779559	5.258300E+01	  0.109779559	6.280400E+01	  0.109779559	4.257500E+01
450	  0.109979957	-8.641000E+00	  0.109979957	5.196300E+01	  0.109979957	6.337700E+01	  0.109979957	4.276100E+01
451	  0.110180363	-8.632000E+00	  0.110180363	5.127800E+01	  0.110180363	6.402600E+01	  0.110180363	4.285200E+01
452	  0.110380761	-8.623000E+00	  0.110380761	5.058400E+01	  0.110380761	6.469300E+01	  0.110380761	4.293300E+01
453	  0.110581160	-8.604000E+00	  0.110581160	4.990500E+01	  0.110581160	6.535400E+01	  0.110581160	4.306800E+01
454	  0.110781565	-8.592000E+00	  0.110781565	4.921700E+01	  0.110781565	6.603200E+01	  0.110781565	4.315400E+01
455	  0.110981964	-8.591000E+00	  0.110981964	4.851600E+01	  0.110981964	6.673400E+01	  0.110981964	4.315100E+01
456	  0.111182362	-8.578000E+00	  0.111182362	4.782100E+01	  0.111182362	6.743900E+01	  0.111182362	4.322600E+01
457	  0.111382768	-8.568000E+00	  0.111382768	4.713300E+01	  0.111382768	6.814600E+01	  0.111382768	4.326200E+01
458	  0.111583166	-8.564000E+00	  0.111583166	4.637300E+01	  0.111583166	6.893300E+01	  0.111583166	4.324800E+01
459	  0.111783572	-8.559000E+00	  0.111783572	4.564300E+01	  0.111783572	6.969900E+01	  0.111783572	4.322500E+01
460	  0.111983970	-8.558000E+00	  0.111983970	4.492200E+01	  0.111983970	7.046200E+01	  0.111983970	4.316800E+01
461	  0.112184368	-8.551000E+00	  0.112184368	4.411200E+01	  0.112184368	7.133200E+01	  0.112184368	4.311800E+01
462	  0.112384774	-8.550000E+00	  0.112384774	4.336500E+01	  0.112384774	7.213900E+01	  0.112384774	4.302800E+01
463	  0.112585172	-8.552000E+00	  0.112585172	4.258000E+01	  0.112585172	7.299100E+01	  0.112585172	4.288700E+01
464	  0.112785570	-8.559000E+00	  0.112785570	4.179200E+01	  0.112785570	7.384600E+01	  0.112785570	4.268800E+01
465	  0.112985976	-8.557000E+00	  0.112985976	4.100200E+01	  0.112985976	7.472200E+01	  0.112985976	4.253700E+01
466	  0.113186374	-8.562000E+00	  0.113186374	4.023600E+01	  0.113186374	7.556600E+01	  0.113186374	4.231700E+01
467	  0.113386773	-8.568000E+00	  0.113386773	3.940900E+01	  0.113386773	7.648300E+01	  0.113386773	4.206300E+01
468	  0.113587178	-8.569000E+00	  0.113587178	3.858200E+01	  0.113587178	7.741300E+01	  0.113587178	4.181400E+01
469	  0.113787577	-8.578000E+00	  0.113787577	3.775500E+01	  0.113787577	7.833100E+01	  0.113787577	4.148300E+01
470	  0.113987975	-8.585000E+00	  0.113987975	3.697100E+01	  0.113987975	7.920500E+01	  0.113987975	4.115700E+01
471	  0.114188381	-8.590000E+00	  0.114188381	3.609600E+01	  0.114188381	8.018800E+01	  0.114188381	4.078200E+01
472	  0.114388779	-8.603000E+00	  0.114388779	3.528200E+01	  0.114388779	8.108500E+01	  0.114388779	4.035400E+01
473	  0.114589177	-8.607000E+00	  0.114589177	3.446800E+01	  0.114589177	8.200400E+01	  0.114589177	3.996400E+01
474	  0.114789583	-8.619000E+00	  0.114789583	3.358500E+01	  0.114789583	8.297300E+01	  0.114789583	3.944900E+01
475	  0.114989981	-8.630000E+00	  0.114989981	3.276300E+01	  0.114989981	8.387700E+01	  0.114989981	3.895200E+01
476	  0.115190387	-8.641000E+00	  0.115190387	3.186300E+01	  0.115190387	8.486000E+01	  0.115190387	3.837300E+01
477	  0.115390785	-8.650000E+00	  0.115390785	3.096900E+01	  0.115390785	8.584100E+01	  0.115390785	3.778900E+01
478	  0.115591183	-8.664000E+00	  0.115591183	3.009000E+01	  0.115591183	8.677700E+01	  0.115591183	3.714200E+01
479	  0.115791589	-8.683000E+00	  0.115791589	2.918500E+01	  0.115791589	8.770600E+01	  0.115791589	3.640500E+01
480	  0.115991987	-8.693000E+00	  0.115991987	2.825300E+01	  0.115991987	8.869500E+01	  0.115991987	3.568600E+01
481	  0.116192386	-8.704000E+00	  0.116192386	2.737800E+01	  0.116192386	8.960300E+01	  0.116192386	3.496100E+01
482	  0.116392791	-8.729000E+00	  0.116392791	2.638100E+01	  0.116392791	9.055900E+01	  0.116392791	3.401600E+01
483	  0.116593190	-8.751000E+00	  0.116593190	2.541800E+01	  0.116593190	9.146500E+01	  0.116593190	3.307600E+01
484	  0.116793588	-8.772000E+00	  0.116793588	2.439000E+01	  0.116793588	9.242100E+01	  0.116793588	3.205200E+01
485	  0.116993994	-8.798000E+00	  0.116993994	2.343500E+01	  0.116993994	9.324800E+01	  0.116993994	3.102900E+01
486	  0.117194392	-8.827000E+00	  0.117194392	2.240700E+01	  0.117194392	9.408900E+01	  0.117194392	2.987400E+01
487	  0.117394790	-8.860000E+00	  0.117394790	2.139600E+01	  0.117394790	9.485300E+01	  0.117394790	2.868000E+01
488	  0.117595196	-8.899000E+00	  0.117595196	2.032400E+01	  0.117595196	9.559400E+01	  0.117595196	2.736100E+01
489	  0.117795594	-8.937000E+00	  0.117795594	1.926800E+01	  0.117795594	9.627500E+01	  0.117795594	2.603200E+01
490	  0.117995992	-8.976000E+00	  0.117995992	1.818300E+01	  0.117995992	9.692800E+01	  0.117995992	2.464200E+01
491	  0.118196398	-9.019000E+00	  0.118196398	1.706700E+01	  0.118196398	9.751800E+01	  0.118196398	2.316900E+01
492	  0.118396796	-9.074000E+00	  0.118396796	1.593800E+01	  0.118396796	9.796200E+01	  0.118396796	2.159900E+01
493	  0.118597202	-9.127000E+00	  0.118597202	1.480900E+01	  0.118597202	9.835600E+01	  0.118597202	2.002700E+01
494	  0.118797600	-9.181000E+00	  0.118797600	1.364700E+01	  0.118797600	9.870400E+01	  0.118797600	1.840800E+01
