! Anritsu VNA Master:             	Model: MS2036C/10/77
! SN:             	1601066
! /card0/usr/18may27.balun/5a.m4.txt
! Existing Calibration Information:
! TYPE:             	Current Settings	Active Cal Settings
! TIME:             	05/27/2018 05:25:42 PM	05/27/2018 05:09:13 PM
! INTERNAL TEMP:    	53.3 C	53.3 C
! # POINTS:         	500	500
! START FREQ:       	20.000 MHz	20.000 MHz
! STOP FREQ:        	120.000 MHz	120.000 MHz
! SOURCE POWER:     	High	High
! IFBW:             	50 Hz	50 Hz
! AVG FACTOR:       	  1 	  1 
! REF PLANE 1:      	0 mm	0 mm
! REF PLANE 2:      	0 mm	0 mm
! CAL TYPE:         	Full S11	Full S11
! CAL METHOD:       	SOLT	SOLT
! CAL LINE TYPE:    	Coax	Coax
! DUT PORT 1:       	K-Conn(M)	K-Conn(M)
! DUT PORT 2:       	K-Conn(M)	K-Conn(M)
! CAL STATUS:       	OK: Accuracy High	--
! PROP-V:       	0.700
! CABLE LOSS:       	0.000 dB/m
! REF IMPEDANCE:       	50.0
! Trace Specific Parameters:	TR1	TR2	TR3	TR4
! TRACE.#.Y (GRAPH TYPE)	LOG MAG	PHASE	REAL IMPEDANCE	IMAGINARY IMPEDANCE
! TRACE.#.X 	FREQ.GHZ	FREQ.GHZ	FREQ.GHZ	FREQ.GHZ
! S-PARAMETER	S11	S11	S11	S11
! SMOOTH/APERTURE %	0	0	0	0
! WINDOW	NSL	NSL	NSL	NSL
! GATING	OFF	OFF	OFF	OFF
! FGTD	OFF	OFF	OFF	OFF
Marker Information per Trace:	TR1	TR2	TR3	TR4
!MK1	--	--	--	"MK1 TR4:  70.100 200 MHz,Z:(16.429 ohm, 0.274 ohm)"
!MK2	--	--	--	--
!MK3	--	--	--	--
!MK4	--	--	--	--
!MK5	--	--	--	--
!MK6	--	--	--	--
!MK7	--	--	--	--
!MK8	--	--	--	--
PNT	TR1.FREQ.GHZ	TR1.LOG MAG.dB	TR2.FREQ.GHZ	TR2.PHASE.deg	TR3.FREQ.GHZ	TR3.REAL IMPEDANCE.ohm	TR4.FREQ.GHZ	TR4.IMAGINARY IMPEDANCE.ohm
1	  0.020000000	-6.810000E-01	  0.020000000	-1.263970E+02	  0.020000000	2.459000E+00	  0.020000000	-2.520900E+01
2	  0.020200402	-6.820000E-01	  0.020200402	-1.278510E+02	  0.020200402	2.431000E+00	  0.020200402	-2.442000E+01
3	  0.020400802	-6.780000E-01	  0.020400802	-1.292930E+02	  0.020400802	2.389000E+00	  0.020400802	-2.364700E+01
4	  0.020601204	-6.790000E-01	  0.020601204	-1.307130E+02	  0.020601204	2.366000E+00	  0.020601204	-2.289500E+01
5	  0.020801604	-6.830000E-01	  0.020801604	-1.321680E+02	  0.020801604	2.353000E+00	  0.020801604	-2.213200E+01
6	  0.021002004	-6.890000E-01	  0.021002004	-1.336590E+02	  0.021002004	2.345000E+00	  0.021002004	-2.135900E+01
7	  0.021202406	-6.970000E-01	  0.021202406	-1.351400E+02	  0.021202406	2.347000E+00	  0.021202406	-2.060000E+01
8	  0.021402806	-7.020000E-01	  0.021402806	-1.366270E+02	  0.021402806	2.340000E+00	  0.021402806	-1.984500E+01
9	  0.021603208	-7.080000E-01	  0.021603208	-1.381260E+02	  0.021603208	2.335000E+00	  0.021603208	-1.909300E+01
10	  0.021803608	-7.150000E-01	  0.021803608	-1.396170E+02	  0.021803608	2.335000E+00	  0.021803608	-1.835200E+01
11	  0.022004008	-7.210000E-01	  0.022004008	-1.411370E+02	  0.022004008	2.332000E+00	  0.022004008	-1.760400E+01
12	  0.022204408	-7.250000E-01	  0.022204408	-1.426810E+02	  0.022204408	2.323000E+00	  0.022204408	-1.685100E+01
13	  0.022404809	-7.270000E-01	  0.022404809	-1.442280E+02	  0.022404809	2.309000E+00	  0.022404809	-1.610400E+01
14	  0.022605211	-7.290000E-01	  0.022605211	-1.457660E+02	  0.022605211	2.298000E+00	  0.022605211	-1.536800E+01
15	  0.022805611	-7.310000E-01	  0.022805611	-1.473020E+02	  0.022805611	2.285000E+00	  0.022805611	-1.463800E+01
16	  0.023006011	-7.330000E-01	  0.023006011	-1.488380E+02	  0.023006011	2.272000E+00	  0.023006011	-1.391500E+01
17	  0.023206413	-7.420000E-01	  0.023206413	-1.504060E+02	  0.023206413	2.283000E+00	  0.023206413	-1.318100E+01
18	  0.023406813	-7.510000E-01	  0.023406813	-1.519850E+02	  0.023406813	2.294000E+00	  0.023406813	-1.244800E+01
19	  0.023607215	-7.570000E-01	  0.023607215	-1.535760E+02	  0.023607215	2.299000E+00	  0.023607215	-1.171400E+01
20	  0.023807615	-7.660000E-01	  0.023807615	-1.551820E+02	  0.023807615	2.310000E+00	  0.023807615	-1.097900E+01
21	  0.024008015	-7.750000E-01	  0.024008015	-1.567770E+02	  0.024008015	2.323000E+00	  0.024008015	-1.025200E+01
22	  0.024208417	-7.840000E-01	  0.024208417	-1.583760E+02	  0.024208417	2.339000E+00	  0.024208417	-9.528000E+00
23	  0.024408817	-7.950000E-01	  0.024408817	-1.599980E+02	  0.024408817	2.357000E+00	  0.024408817	-8.798000E+00
24	  0.024609219	-8.060000E-01	  0.024609219	-1.616380E+02	  0.024609219	2.379000E+00	  0.024609219	-8.062000E+00
25	  0.024809619	-8.140000E-01	  0.024809619	-1.632960E+02	  0.024809619	2.392000E+00	  0.024809619	-7.323000E+00
26	  0.025010020	-8.180000E-01	  0.025010020	-1.649490E+02	  0.025010020	2.396000E+00	  0.025010020	-6.590000E+00
27	  0.025210422	-8.270000E-01	  0.025210422	-1.665930E+02	  0.025210422	2.413000E+00	  0.025210422	-5.862000E+00
28	  0.025410822	-8.370000E-01	  0.025410822	-1.682570E+02	  0.025410822	2.433000E+00	  0.025410822	-5.129000E+00
29	  0.025611224	-8.460000E-01	  0.025611224	-1.699180E+02	  0.025611224	2.453000E+00	  0.025611224	-4.399000E+00
30	  0.025811624	-8.570000E-01	  0.025811624	-1.715800E+02	  0.025811624	2.479000E+00	  0.025811624	-3.671000E+00
31	  0.026012026	-8.670000E-01	  0.026012026	-1.732670E+02	  0.026012026	2.503000E+00	  0.026012026	-2.933000E+00
32	  0.026212426	-8.830000E-01	  0.026212426	-1.749480E+02	  0.026212426	2.544000E+00	  0.026212426	-2.199000E+00
33	  0.026412826	-9.000000E-01	  0.026412826	-1.766400E+02	  0.026412826	2.592000E+00	  0.026412826	-1.462000E+00
34	  0.026613226	-9.190000E-01	  0.026613226	-1.783490E+02	  0.026613226	2.645000E+00	  0.026613226	-7.180000E-01
35	  0.026813626	-9.370000E-01	  0.026813626	1.799260E+02	  0.026813626	2.694000E+00	  0.026813626	3.200000E-02
36	  0.027014028	-9.530000E-01	  0.027014028	1.782050E+02	  0.027014028	2.743000E+00	  0.027014028	7.800000E-01
37	  0.027214428	-9.710000E-01	  0.027214428	1.764800E+02	  0.027214428	2.795000E+00	  0.027214428	1.531000E+00
38	  0.027414829	-9.880000E-01	  0.027414829	1.747440E+02	  0.027414829	2.848000E+00	  0.027414829	2.287000E+00
39	  0.027615231	-1.006000E+00	  0.027615231	1.730060E+02	  0.027615231	2.904000E+00	  0.027615231	3.045000E+00
40	  0.027815631	-1.031000E+00	  0.027815631	1.712420E+02	  0.027815631	2.981000E+00	  0.027815631	3.815000E+00
41	  0.028016033	-1.053000E+00	  0.028016033	1.694370E+02	  0.028016033	3.053000E+00	  0.028016033	4.604000E+00
42	  0.028216433	-1.074000E+00	  0.028216433	1.676230E+02	  0.028216433	3.124000E+00	  0.028216433	5.400000E+00
43	  0.028416833	-1.098000E+00	  0.028416833	1.658060E+02	  0.028416833	3.207000E+00	  0.028416833	6.199000E+00
44	  0.028617235	-1.124000E+00	  0.028617235	1.640010E+02	  0.028617235	3.296000E+00	  0.028617235	6.996000E+00
45	  0.028817635	-1.150000E+00	  0.028817635	1.621660E+02	  0.028817635	3.388000E+00	  0.028817635	7.809000E+00
46	  0.029018037	-1.179000E+00	  0.029018037	1.603010E+02	  0.029018037	3.491000E+00	  0.029018037	8.639000E+00
47	  0.029218437	-1.205000E+00	  0.029218437	1.584050E+02	  0.029218437	3.588000E+00	  0.029218437	9.488000E+00
48	  0.029418837	-1.229000E+00	  0.029418837	1.565360E+02	  0.029418837	3.683000E+00	  0.029418837	1.032900E+01
49	  0.029619239	-1.251000E+00	  0.029619239	1.546880E+02	  0.029619239	3.777000E+00	  0.029619239	1.116600E+01
50	  0.029819639	-1.277000E+00	  0.029819639	1.528420E+02	  0.029819639	3.884000E+00	  0.029819639	1.200700E+01
51	  0.030020041	-1.302000E+00	  0.030020041	1.509930E+02	  0.030020041	3.989000E+00	  0.030020041	1.285600E+01
52	  0.030220442	-1.333000E+00	  0.030220442	1.491580E+02	  0.030220442	4.121000E+00	  0.030220442	1.370400E+01
53	  0.030420844	-1.369000E+00	  0.030420844	1.472940E+02	  0.030420844	4.268000E+00	  0.030420844	1.457200E+01
54	  0.030621244	-1.411000E+00	  0.030621244	1.454050E+02	  0.030621244	4.445000E+00	  0.030621244	1.545800E+01
55	  0.030821644	-1.447000E+00	  0.030821644	1.434660E+02	  0.030821644	4.606000E+00	  0.030821644	1.637700E+01
56	  0.031022044	-1.483000E+00	  0.031022044	1.415110E+02	  0.031022044	4.773000E+00	  0.031022044	1.731300E+01
57	  0.031222444	-1.510000E+00	  0.031222444	1.395560E+02	  0.031222444	4.920000E+00	  0.031222444	1.826000E+01
58	  0.031422846	-1.544000E+00	  0.031422846	1.375870E+02	  0.031422846	5.093000E+00	  0.031422846	1.922400E+01
59	  0.031623244	-1.573000E+00	  0.031623244	1.356160E+02	  0.031623244	5.262000E+00	  0.031623244	2.020200E+01
60	  0.031823646	-1.600000E+00	  0.031823646	1.336850E+02	  0.031823646	5.426000E+00	  0.031823646	2.117200E+01
61	  0.032024048	-1.625000E+00	  0.032024048	1.317480E+02	  0.032024048	5.589000E+00	  0.032024048	2.215900E+01
62	  0.032224450	-1.654000E+00	  0.032224450	1.298170E+02	  0.032224450	5.775000E+00	  0.032224450	2.315500E+01
63	  0.032424849	-1.688000E+00	  0.032424849	1.279040E+02	  0.032424849	5.986000E+00	  0.032424849	2.415400E+01
64	  0.032625251	-1.728000E+00	  0.032625251	1.259590E+02	  0.032625251	6.232000E+00	  0.032625251	2.518300E+01
65	  0.032825653	-1.772000E+00	  0.032825653	1.240100E+02	  0.032825653	6.500000E+00	  0.032825653	2.622800E+01
66	  0.033026051	-1.819000E+00	  0.033026051	1.220560E+02	  0.033026051	6.795000E+00	  0.033026051	2.729000E+01
67	  0.033226453	-1.870000E+00	  0.033226453	1.200600E+02	  0.033226453	7.119000E+00	  0.033226453	2.839100E+01
68	  0.033426855	-1.920000E+00	  0.033426855	1.180440E+02	  0.033426855	7.456000E+00	  0.033426855	2.952400E+01
69	  0.033627257	-1.966000E+00	  0.033627257	1.159750E+02	  0.033627257	7.801000E+00	  0.033627257	3.070800E+01
70	  0.033827655	-2.016000E+00	  0.033827655	1.138930E+02	  0.033827655	8.177000E+00	  0.033827655	3.192100E+01
71	  0.034028057	-2.065000E+00	  0.034028057	1.118100E+02	  0.034028057	8.575000E+00	  0.034028057	3.315900E+01
72	  0.034228459	-2.115000E+00	  0.034228459	1.097000E+02	  0.034228459	8.998000E+00	  0.034228459	3.443700E+01
73	  0.034428857	-2.163000E+00	  0.034428857	1.075860E+02	  0.034428857	9.438000E+00	  0.034428857	3.574700E+01
74	  0.034629259	-2.207000E+00	  0.034629259	1.055010E+02	  0.034629259	9.883000E+00	  0.034629259	3.706900E+01
75	  0.034829661	-2.246000E+00	  0.034829661	1.034220E+02	  0.034829661	1.033200E+01	  0.034829661	3.842200E+01
76	  0.035030060	-2.287000E+00	  0.035030060	1.013770E+02	  0.035030060	1.081200E+01	  0.035030060	3.978100E+01
77	  0.035230462	-2.335000E+00	  0.035230462	9.937700E+01	  0.035230462	1.134400E+01	  0.035230462	4.113300E+01
78	  0.035430863	-2.390000E+00	  0.035430863	9.736300E+01	  0.035430863	1.194600E+01	  0.035430863	4.251800E+01
79	  0.035631265	-2.451000E+00	  0.035631265	9.535000E+01	  0.035631265	1.261500E+01	  0.035631265	4.392500E+01
80	  0.035831664	-2.516000E+00	  0.035831664	9.328800E+01	  0.035831664	1.335700E+01	  0.035831664	4.539500E+01
81	  0.036032066	-2.580000E+00	  0.036032066	9.117800E+01	  0.036032066	1.415400E+01	  0.036032066	4.693700E+01
82	  0.036232468	-2.645000E+00	  0.036232468	8.903700E+01	  0.036232468	1.501600E+01	  0.036232468	4.853800E+01
83	  0.036432866	-2.710000E+00	  0.036432866	8.685000E+01	  0.036432866	1.595100E+01	  0.036432866	5.021800E+01
84	  0.036633268	-2.766000E+00	  0.036633268	8.467100E+01	  0.036633268	1.689900E+01	  0.036633268	5.195000E+01
85	  0.036833670	-2.821000E+00	  0.036833670	8.249500E+01	  0.036833670	1.791500E+01	  0.036833670	5.372900E+01
86	  0.037034072	-2.875000E+00	  0.037034072	8.031800E+01	  0.037034072	1.900300E+01	  0.037034072	5.555800E+01
87	  0.037234470	-2.930000E+00	  0.037234470	7.816800E+01	  0.037234470	2.016400E+01	  0.037234470	5.741100E+01
88	  0.037434869	-2.981000E+00	  0.037434869	7.604500E+01	  0.037434869	2.138500E+01	  0.037434869	5.929600E+01
89	  0.037635271	-3.036000E+00	  0.037635271	7.393300E+01	  0.037635271	2.272600E+01	  0.037635271	6.120600E+01
90	  0.037835669	-3.093000E+00	  0.037835669	7.181300E+01	  0.037835669	2.418700E+01	  0.037835669	6.316700E+01
91	  0.038036071	-3.157000E+00	  0.038036071	6.970400E+01	  0.038036071	2.580400E+01	  0.038036071	6.513800E+01
92	  0.038236473	-3.222000E+00	  0.038236473	6.757700E+01	  0.038236473	2.757500E+01	  0.038236473	6.716300E+01
93	  0.038436871	-3.291000E+00	  0.038436871	6.547200E+01	  0.038436871	2.950900E+01	  0.038436871	6.918000E+01
94	  0.038637273	-3.362000E+00	  0.038637273	6.330600E+01	  0.038637273	3.166300E+01	  0.038637273	7.128500E+01
95	  0.038837675	-3.434000E+00	  0.038837675	6.111700E+01	  0.038837675	3.403300E+01	  0.038837675	7.343400E+01
96	  0.039038073	-3.505000E+00	  0.039038073	5.889700E+01	  0.039038073	3.663200E+01	  0.039038073	7.564000E+01
97	  0.039238475	-3.568000E+00	  0.039238475	5.664000E+01	  0.039238475	3.943700E+01	  0.039238475	7.795400E+01
98	  0.039438877	-3.624000E+00	  0.039438877	5.442100E+01	  0.039438877	4.239700E+01	  0.039438877	8.028400E+01
99	  0.039639279	-3.679000E+00	  0.039639279	5.225100E+01	  0.039639279	4.556200E+01	  0.039639279	8.255900E+01
100	  0.039839678	-3.727000E+00	  0.039839678	5.010000E+01	  0.039839678	4.894000E+01	  0.039839678	8.484800E+01
101	  0.040040080	-3.779000E+00	  0.040040080	4.799000E+01	  0.040040080	5.258700E+01	  0.040040080	8.701900E+01
102	  0.040240481	-3.837000E+00	  0.040240481	4.593100E+01	  0.040240481	5.651900E+01	  0.040240481	8.899800E+01
103	  0.040440880	-3.899000E+00	  0.040440880	4.385000E+01	  0.040440880	6.086100E+01	  0.040440880	9.084100E+01
104	  0.040641282	-3.963000E+00	  0.040641282	4.174500E+01	  0.040641282	6.563300E+01	  0.040641282	9.251800E+01
105	  0.040841684	-4.032000E+00	  0.040841684	3.964700E+01	  0.040841684	7.080700E+01	  0.040841684	9.390700E+01
106	  0.041042086	-4.100000E+00	  0.041042086	3.752500E+01	  0.041042086	7.642900E+01	  0.041042086	9.504900E+01
107	  0.041242484	-4.166000E+00	  0.041242484	3.540400E+01	  0.041242484	8.244800E+01	  0.041242484	9.585400E+01
108	  0.041442886	-4.233000E+00	  0.041442886	3.328000E+01	  0.041442886	8.888400E+01	  0.041442886	9.622500E+01
109	  0.041643288	-4.294000E+00	  0.041643288	3.115100E+01	  0.041643288	9.571300E+01	  0.041643288	9.617000E+01
110	  0.041843686	-4.358000E+00	  0.041843686	2.898800E+01	  0.041843686	1.030370E+02	  0.041843686	9.545700E+01
111	  0.042044088	-4.418000E+00	  0.042044088	2.683900E+01	  0.042044088	1.106430E+02	  0.042044088	9.409200E+01
112	  0.042244490	-4.478000E+00	  0.042244490	2.472600E+01	  0.042244490	1.183680E+02	  0.042244490	9.190900E+01
113	  0.042444889	-4.536000E+00	  0.042444889	2.261500E+01	  0.042444889	1.262260E+02	  0.042444889	8.883600E+01
114	  0.042645290	-4.593000E+00	  0.042645290	2.049800E+01	  0.042645290	1.341320E+02	  0.042645290	8.480400E+01
115	  0.042845692	-4.651000E+00	  0.042845692	1.839200E+01	  0.042845692	1.418380E+02	  0.042845692	7.970400E+01
116	  0.043046094	-4.709000E+00	  0.043046094	1.627200E+01	  0.043046094	1.492290E+02	  0.043046094	7.346100E+01
117	  0.043246493	-4.767000E+00	  0.043246493	1.415700E+01	  0.043246493	1.560640E+02	  0.043246493	6.617700E+01
118	  0.043446895	-4.821000E+00	  0.043446895	1.205000E+01	  0.043446895	1.621470E+02	  0.043446895	5.796400E+01
119	  0.043647297	-4.879000E+00	  0.043647297	9.939000E+00	  0.043647297	1.671670E+02	  0.043647297	4.875600E+01
120	  0.043847695	-4.934000E+00	  0.043847695	7.849000E+00	  0.043847695	1.710560E+02	  0.043847695	3.898800E+01
121	  0.044048097	-4.987000E+00	  0.044048097	5.754000E+00	  0.044048097	1.737440E+02	  0.044048097	2.873400E+01
122	  0.044248499	-5.036000E+00	  0.044248499	3.683000E+00	  0.044248499	1.751630E+02	  0.044248499	1.835900E+01
123	  0.044448901	-5.084000E+00	  0.044448901	1.578000E+00	  0.044448901	1.753170E+02	  0.044448901	7.800000E+00
124	  0.044649299	-5.131000E+00	  0.044649299	-4.570000E-01	  0.044649299	1.741380E+02	  0.044649299	-2.222000E+00
125	  0.044849701	-5.175000E+00	  0.044849701	-2.460000E+00	  0.044849701	1.718900E+02	  0.044849701	-1.167900E+01
126	  0.045050103	-5.223000E+00	  0.045050103	-4.475000E+00	  0.045050103	1.685010E+02	  0.045050103	-2.059600E+01
127	  0.045250501	-5.272000E+00	  0.045250501	-6.461000E+00	  0.045250501	1.642670E+02	  0.045250501	-2.866100E+01
128	  0.045450903	-5.316000E+00	  0.045450903	-8.458000E+00	  0.045450903	1.594630E+02	  0.045450903	-3.602900E+01
129	  0.045651305	-5.361000E+00	  0.045651305	-1.046900E+01	  0.045651305	1.540750E+02	  0.045651305	-4.259900E+01
130	  0.045851704	-5.407000E+00	  0.045851704	-1.244300E+01	  0.045851704	1.483690E+02	  0.045851704	-4.818300E+01
131	  0.046052106	-5.449000E+00	  0.046052106	-1.439600E+01	  0.046052106	1.425590E+02	  0.046052106	-5.294700E+01
132	  0.046252504	-5.494000E+00	  0.046252504	-1.635400E+01	  0.046252504	1.365950E+02	  0.046252504	-5.692800E+01
133	  0.046452906	-5.538000E+00	  0.046452906	-1.828300E+01	  0.046452906	1.307250E+02	  0.046452906	-6.015900E+01
134	  0.046653304	-5.581000E+00	  0.046653304	-2.019700E+01	  0.046653304	1.249750E+02	  0.046653304	-6.274400E+01
135	  0.046853706	-5.624000E+00	  0.046853706	-2.212400E+01	  0.046853706	1.193150E+02	  0.046853706	-6.477000E+01
136	  0.047054108	-5.667000E+00	  0.047054108	-2.405100E+01	  0.047054108	1.138400E+02	  0.047054108	-6.630200E+01
137	  0.047254506	-5.709000E+00	  0.047254506	-2.596200E+01	  0.047254506	1.086200E+02	  0.047254506	-6.738500E+01
138	  0.047454908	-5.750000E+00	  0.047454908	-2.788900E+01	  0.047454908	1.035850E+02	  0.047454908	-6.810100E+01
139	  0.047655310	-5.790000E+00	  0.047655310	-2.978600E+01	  0.047655310	9.886500E+01	  0.047655310	-6.848300E+01
140	  0.047855709	-5.831000E+00	  0.047855709	-3.168300E+01	  0.047855709	9.438000E+01	  0.047855709	-6.856300E+01
141	  0.048056111	-5.871000E+00	  0.048056111	-3.359200E+01	  0.048056111	9.010800E+01	  0.048056111	-6.842400E+01
142	  0.048256513	-5.903000E+00	  0.048256513	-3.548900E+01	  0.048256513	8.610200E+01	  0.048256513	-6.817600E+01
143	  0.048456915	-5.938000E+00	  0.048456915	-3.737200E+01	  0.048456915	8.234200E+01	  0.048456915	-6.770900E+01
144	  0.048657313	-5.967000E+00	  0.048657313	-3.927800E+01	  0.048657313	7.874800E+01	  0.048657313	-6.715000E+01
145	  0.048857715	-5.991000E+00	  0.048857715	-4.110800E+01	  0.048857715	7.548200E+01	  0.048857715	-6.654400E+01
146	  0.049058117	-6.015000E+00	  0.049058117	-4.292400E+01	  0.049058117	7.241800E+01	  0.049058117	-6.582800E+01
147	  0.049258515	-6.040000E+00	  0.049258515	-4.466600E+01	  0.049258515	6.964300E+01	  0.049258515	-6.503300E+01
148	  0.049458917	-6.061000E+00	  0.049458917	-4.638900E+01	  0.049458917	6.703500E+01	  0.049458917	-6.421100E+01
149	  0.049659319	-6.086000E+00	  0.049659319	-4.810300E+01	  0.049659319	6.459200E+01	  0.049659319	-6.329700E+01
150	  0.049859721	-6.113000E+00	  0.049859721	-4.981800E+01	  0.049859721	6.228000E+01	  0.049859721	-6.233100E+01
151	  0.050060119	-6.141000E+00	  0.050060119	-5.153600E+01	  0.050060119	6.009400E+01	  0.050060119	-6.131300E+01
152	  0.050260521	-6.170000E+00	  0.050260521	-5.324300E+01	  0.050260521	5.804500E+01	  0.050260521	-6.026800E+01
153	  0.050460923	-6.190000E+00	  0.050460923	-5.493900E+01	  0.050460923	5.609100E+01	  0.050460923	-5.927400E+01
154	  0.050661322	-6.207000E+00	  0.050661322	-5.660700E+01	  0.050661322	5.426000E+01	  0.050661322	-5.830000E+01
155	  0.050861724	-6.223000E+00	  0.050861724	-5.831100E+01	  0.050861724	5.248200E+01	  0.050861724	-5.729200E+01
156	  0.051062126	-6.233000E+00	  0.051062126	-5.997500E+01	  0.051062126	5.080900E+01	  0.051062126	-5.634200E+01
157	  0.051262524	-6.244000E+00	  0.051262524	-6.159400E+01	  0.051262524	4.927300E+01	  0.051262524	-5.538400E+01
158	  0.051462926	-6.251000E+00	  0.051462926	-6.320800E+01	  0.051462926	4.779700E+01	  0.051462926	-5.445100E+01
159	  0.051663328	-6.267000E+00	  0.051663328	-6.477400E+01	  0.051663328	4.646400E+01	  0.051663328	-5.348700E+01
160	  0.051863730	-6.277000E+00	  0.051863730	-6.634500E+01	  0.051863730	4.516900E+01	  0.051863730	-5.255000E+01
161	  0.052064128	-6.287000E+00	  0.052064128	-6.789800E+01	  0.052064128	4.395000E+01	  0.052064128	-5.162000E+01
162	  0.052264530	-6.299000E+00	  0.052264530	-6.945200E+01	  0.052264530	4.279000E+01	  0.052264530	-5.068300E+01
163	  0.052464932	-6.306000E+00	  0.052464932	-7.103100E+01	  0.052464932	4.164700E+01	  0.052464932	-4.975600E+01
164	  0.052665330	-6.313000E+00	  0.052665330	-7.262200E+01	  0.052665330	4.054900E+01	  0.052665330	-4.882300E+01
165	  0.052865732	-6.317000E+00	  0.052865732	-7.417800E+01	  0.052865732	3.951000E+01	  0.052865732	-4.792700E+01
166	  0.053066134	-6.325000E+00	  0.053066134	-7.574100E+01	  0.053066134	3.853000E+01	  0.053066134	-4.701100E+01
167	  0.053266536	-6.330000E+00	  0.053266536	-7.730900E+01	  0.053266536	3.757700E+01	  0.053266536	-4.611100E+01
168	  0.053466935	-6.327000E+00	  0.053466935	-7.887500E+01	  0.053466935	3.664100E+01	  0.053466935	-4.524400E+01
169	  0.053667337	-6.321000E+00	  0.053667337	-8.044500E+01	  0.053667337	3.573000E+01	  0.053667337	-4.439000E+01
170	  0.053867739	-6.310000E+00	  0.053867739	-8.197300E+01	  0.053867739	3.486100E+01	  0.053867739	-4.358000E+01
171	  0.054068137	-6.303000E+00	  0.054068137	-8.345300E+01	  0.054068137	3.406600E+01	  0.054068137	-4.278400E+01
172	  0.054268539	-6.294000E+00	  0.054268539	-8.495400E+01	  0.054268539	3.328800E+01	  0.054268539	-4.198200E+01
173	  0.054468941	-6.292000E+00	  0.054468941	-8.638700E+01	  0.054468941	3.259300E+01	  0.054468941	-4.120400E+01
174	  0.054669339	-6.288000E+00	  0.054669339	-8.781500E+01	  0.054669339	3.192400E+01	  0.054669339	-4.043600E+01
175	  0.054869737	-6.287000E+00	  0.054869737	-8.926600E+01	  0.054869737	3.128000E+01	  0.054869737	-3.965100E+01
176	  0.055070139	-6.287000E+00	  0.055070139	-9.072900E+01	  0.055070139	3.065600E+01	  0.055070139	-3.886600E+01
177	  0.055270538	-6.285000E+00	  0.055270538	-9.218400E+01	  0.055270538	3.005800E+01	  0.055270538	-3.809300E+01
178	  0.055470940	-6.287000E+00	  0.055470940	-9.365700E+01	  0.055470940	2.948700E+01	  0.055470940	-3.730900E+01
179	  0.055671342	-6.285000E+00	  0.055671342	-9.513000E+01	  0.055671342	2.892800E+01	  0.055671342	-3.653900E+01
180	  0.055871744	-6.284000E+00	  0.055871744	-9.659100E+01	  0.055871744	2.839500E+01	  0.055871744	-3.578000E+01
181	  0.056072142	-6.281000E+00	  0.056072142	-9.807600E+01	  0.056072142	2.786700E+01	  0.056072142	-3.502000E+01
182	  0.056272544	-6.274000E+00	  0.056272544	-9.952700E+01	  0.056272544	2.735800E+01	  0.056272544	-3.429200E+01
183	  0.056472946	-6.266000E+00	  0.056472946	-1.009620E+02	  0.056472946	2.687000E+01	  0.056472946	-3.357800E+01
184	  0.056673344	-6.262000E+00	  0.056673344	-1.023950E+02	  0.056673344	2.641400E+01	  0.056673344	-3.286300E+01
185	  0.056873746	-6.256000E+00	  0.056873746	-1.038020E+02	  0.056873746	2.597900E+01	  0.056873746	-3.216800E+01
186	  0.057074148	-6.247000E+00	  0.057074148	-1.051710E+02	  0.057074148	2.555700E+01	  0.057074148	-3.150400E+01
187	  0.057274550	-6.244000E+00	  0.057274550	-1.065650E+02	  0.057274550	2.516100E+01	  0.057274550	-3.082200E+01
188	  0.057474948	-6.240000E+00	  0.057474948	-1.079250E+02	  0.057474948	2.478800E+01	  0.057474948	-3.016200E+01
189	  0.057675350	-6.235000E+00	  0.057675350	-1.093300E+02	  0.057675350	2.441300E+01	  0.057675350	-2.948800E+01
190	  0.057875752	-6.235000E+00	  0.057875752	-1.107210E+02	  0.057875752	2.406800E+01	  0.057875752	-2.881800E+01
191	  0.058076151	-6.225000E+00	  0.058076151	-1.121120E+02	  0.058076151	2.370700E+01	  0.058076151	-2.816800E+01
192	  0.058276553	-6.220000E+00	  0.058276553	-1.134650E+02	  0.058276553	2.338100E+01	  0.058276553	-2.753300E+01
193	  0.058476955	-6.209000E+00	  0.058476955	-1.148290E+02	  0.058476955	2.304700E+01	  0.058476955	-2.690500E+01
194	  0.058677353	-6.191000E+00	  0.058677353	-1.161880E+02	  0.058677353	2.270100E+01	  0.058677353	-2.629500E+01
195	  0.058877755	-6.181000E+00	  0.058877755	-1.174850E+02	  0.058877755	2.240400E+01	  0.058877755	-2.570400E+01
196	  0.059078157	-6.166000E+00	  0.059078157	-1.187960E+02	  0.059078157	2.210200E+01	  0.059078157	-2.511700E+01
197	  0.059278559	-6.150000E+00	  0.059278559	-1.200600E+02	  0.059278559	2.181100E+01	  0.059278559	-2.455600E+01
198	  0.059478957	-6.143000E+00	  0.059478957	-1.212670E+02	  0.059478957	2.156700E+01	  0.059478957	-2.401300E+01
199	  0.059679359	-6.135000E+00	  0.059679359	-1.224720E+02	  0.059679359	2.132900E+01	  0.059679359	-2.347500E+01
200	  0.059879761	-6.129000E+00	  0.059879761	-1.237180E+02	  0.059879761	2.109700E+01	  0.059879761	-2.291900E+01
201	  0.060080159	-6.120000E+00	  0.060080159	-1.248800E+02	  0.060080159	2.087900E+01	  0.060080159	-2.240600E+01
202	  0.060280561	-6.120000E+00	  0.060280561	-1.260970E+02	  0.060280561	2.068400E+01	  0.060280561	-2.186300E+01
203	  0.060480963	-6.116000E+00	  0.060480963	-1.273490E+02	  0.060480963	2.047800E+01	  0.060480963	-2.131200E+01
204	  0.060681365	-6.116000E+00	  0.060681365	-1.285560E+02	  0.060681365	2.029600E+01	  0.060681365	-2.077900E+01
205	  0.060881764	-6.114000E+00	  0.060881764	-1.297940E+02	  0.060881764	2.011200E+01	  0.060881764	-2.023800E+01
206	  0.061082166	-6.113000E+00	  0.061082166	-1.309960E+02	  0.061082166	1.994200E+01	  0.061082166	-1.971500E+01
207	  0.061282568	-6.113000E+00	  0.061282568	-1.322340E+02	  0.061282568	1.977500E+01	  0.061282568	-1.917800E+01
208	  0.061482966	-6.107000E+00	  0.061482966	-1.334780E+02	  0.061482966	1.959600E+01	  0.061482966	-1.864700E+01
209	  0.061683368	-6.105000E+00	  0.061683368	-1.347030E+02	  0.061683368	1.943800E+01	  0.061683368	-1.812300E+01
210	  0.061883770	-6.101000E+00	  0.061883770	-1.359240E+02	  0.061883770	1.927700E+01	  0.061883770	-1.760600E+01
211	  0.062084168	-6.102000E+00	  0.062084168	-1.371730E+02	  0.062084168	1.913400E+01	  0.062084168	-1.707500E+01
212	  0.062284570	-6.100000E+00	  0.062284570	-1.383960E+02	  0.062284570	1.899300E+01	  0.062284570	-1.656000E+01
213	  0.062484972	-6.088000E+00	  0.062484972	-1.395490E+02	  0.062484972	1.883500E+01	  0.062484972	-1.608400E+01
214	  0.062685370	-6.081000E+00	  0.062685370	-1.407660E+02	  0.062685370	1.868900E+01	  0.062685370	-1.557900E+01
215	  0.062885776	-6.075000E+00	  0.062885776	-1.419860E+02	  0.062885776	1.855300E+01	  0.062885776	-1.507400E+01
216	  0.063086174	-6.072000E+00	  0.063086174	-1.432330E+02	  0.063086174	1.842400E+01	  0.063086174	-1.455900E+01
217	  0.063286573	-6.065000E+00	  0.063286573	-1.444120E+02	  0.063286573	1.829700E+01	  0.063286573	-1.407600E+01
218	  0.063486971	-6.055000E+00	  0.063486971	-1.456490E+02	  0.063486971	1.816000E+01	  0.063486971	-1.357200E+01
219	  0.063687377	-6.044000E+00	  0.063687377	-1.468030E+02	  0.063687377	1.803400E+01	  0.063687377	-1.310500E+01
220	  0.063887775	-6.028000E+00	  0.063887775	-1.480140E+02	  0.063887775	1.789400E+01	  0.063887775	-1.261800E+01
221	  0.064088173	-6.015000E+00	  0.064088173	-1.491800E+02	  0.064088173	1.776900E+01	  0.064088173	-1.215000E+01
222	  0.064288579	-6.006000E+00	  0.064288579	-1.502940E+02	  0.064288579	1.766200E+01	  0.064288579	-1.170100E+01
223	  0.064488977	-5.993000E+00	  0.064488977	-1.513700E+02	  0.064488977	1.755200E+01	  0.064488977	-1.127100E+01
224	  0.064689375	-5.982000E+00	  0.064689375	-1.524730E+02	  0.064689375	1.744700E+01	  0.064689375	-1.083000E+01
225	  0.064889781	-5.975000E+00	  0.064889781	-1.535090E+02	  0.064889781	1.736100E+01	  0.064889781	-1.041600E+01
226	  0.065090179	-5.965000E+00	  0.065090179	-1.545760E+02	  0.065090179	1.726900E+01	  0.065090179	-9.991000E+00
227	  0.065290578	-5.956000E+00	  0.065290578	-1.556530E+02	  0.065290578	1.718200E+01	  0.065290578	-9.562000E+00
228	  0.065490983	-5.955000E+00	  0.065490983	-1.566690E+02	  0.065490983	1.712300E+01	  0.065490983	-9.156000E+00
229	  0.065691382	-5.952000E+00	  0.065691382	-1.577090E+02	  0.065691382	1.706000E+01	  0.065691382	-8.741000E+00
230	  0.065891780	-5.954000E+00	  0.065891780	-1.587520E+02	  0.065891780	1.701200E+01	  0.065891780	-8.325000E+00
231	  0.066092186	-5.954000E+00	  0.066092186	-1.597840E+02	  0.066092186	1.696200E+01	  0.066092186	-7.915000E+00
232	  0.066292584	-5.952000E+00	  0.066292584	-1.608250E+02	  0.066292584	1.691000E+01	  0.066292584	-7.503000E+00
233	  0.066492982	-5.954000E+00	  0.066492982	-1.618600E+02	  0.066492982	1.687000E+01	  0.066492982	-7.093000E+00
234	  0.066693388	-5.957000E+00	  0.066693388	-1.629240E+02	  0.066693388	1.683500E+01	  0.066693388	-6.672000E+00
235	  0.066893786	-5.958000E+00	  0.066893786	-1.640060E+02	  0.066893786	1.679800E+01	  0.066893786	-6.245000E+00
236	  0.067094192	-5.965000E+00	  0.067094192	-1.650600E+02	  0.067094192	1.677700E+01	  0.067094192	-5.828000E+00
237	  0.067294590	-5.968000E+00	  0.067294590	-1.661020E+02	  0.067294590	1.675200E+01	  0.067294590	-5.418000E+00
238	  0.067494988	-5.972000E+00	  0.067494988	-1.671780E+02	  0.067494988	1.672800E+01	  0.067494988	-4.996000E+00
239	  0.067695394	-5.973000E+00	  0.067695394	-1.682860E+02	  0.067695394	1.670000E+01	  0.067695394	-4.562000E+00
240	  0.067895792	-5.973000E+00	  0.067895792	-1.693530E+02	  0.067895792	1.667500E+01	  0.067895792	-4.144000E+00
241	  0.068096191	-5.971000E+00	  0.068096191	-1.704370E+02	  0.068096191	1.664300E+01	  0.068096191	-3.721000E+00
242	  0.068296596	-5.973000E+00	  0.068296596	-1.715050E+02	  0.068296596	1.662800E+01	  0.068296596	-3.304000E+00
243	  0.068496995	-5.973000E+00	  0.068496995	-1.725540E+02	  0.068496995	1.660800E+01	  0.068496995	-2.895000E+00
244	  0.068697393	-5.968000E+00	  0.068697393	-1.736390E+02	  0.068697393	1.657800E+01	  0.068697393	-2.473000E+00
245	  0.068897791	-5.958000E+00	  0.068897791	-1.747090E+02	  0.068897791	1.654000E+01	  0.068897791	-2.057000E+00
246	  0.069098189	-5.953000E+00	  0.069098189	-1.757300E+02	  0.069098189	1.651500E+01	  0.069098189	-1.660000E+00
247	  0.069298595	-5.948000E+00	  0.069298595	-1.767790E+02	  0.069298595	1.649400E+01	  0.069298595	-1.252000E+00
248	  0.069498993	-5.944000E+00	  0.069498993	-1.777890E+02	  0.069498993	1.647800E+01	  0.069498993	-8.590000E-01
249	  0.069699399	-5.938000E+00	  0.069699399	-1.787760E+02	  0.069699399	1.645800E+01	  0.069699399	-4.760000E-01
250	  0.069899797	-5.929000E+00	  0.069899797	-1.797570E+02	  0.069899797	1.643300E+01	  0.069899797	-9.400000E-02
251	  0.070100196	-5.927000E+00	  0.070100196	1.792960E+02	  0.070100196	1.642900E+01	  0.070100196	2.730000E-01
252	  0.070300601	-5.923000E+00	  0.070300601	1.783600E+02	  0.070300601	1.642000E+01	  0.070300601	6.380000E-01
253	  0.070501000	-5.917000E+00	  0.070501000	1.774070E+02	  0.070501000	1.641000E+01	  0.070501000	1.009000E+00
254	  0.070701398	-5.919000E+00	  0.070701398	1.764850E+02	  0.070701398	1.642100E+01	  0.070701398	1.368000E+00
255	  0.070901804	-5.919000E+00	  0.070901804	1.755770E+02	  0.070901804	1.642800E+01	  0.070901804	1.722000E+00
256	  0.071102202	-5.922000E+00	  0.071102202	1.746790E+02	  0.071102202	1.644700E+01	  0.071102202	2.072000E+00
257	  0.071302600	-5.923000E+00	  0.071302600	1.737720E+02	  0.071302600	1.646000E+01	  0.071302600	2.425000E+00
258	  0.071503006	-5.930000E+00	  0.071503006	1.728350E+02	  0.071503006	1.649200E+01	  0.071503006	2.790000E+00
259	  0.071703404	-5.934000E+00	  0.071703404	1.719530E+02	  0.071703404	1.651800E+01	  0.071703404	3.134000E+00
260	  0.071903802	-5.940000E+00	  0.071903802	1.709930E+02	  0.071903802	1.655300E+01	  0.071903802	3.508000E+00
261	  0.072104208	-5.951000E+00	  0.072104208	1.700790E+02	  0.072104208	1.660000E+01	  0.072104208	3.864000E+00
262	  0.072304606	-5.967000E+00	  0.072304606	1.691530E+02	  0.072304606	1.666400E+01	  0.072304606	4.223000E+00
263	  0.072505005	-5.975000E+00	  0.072505005	1.682280E+02	  0.072505005	1.670800E+01	  0.072505005	4.584000E+00
264	  0.072705410	-5.984000E+00	  0.072705410	1.672990E+02	  0.072705410	1.675600E+01	  0.072705410	4.946000E+00
265	  0.072905809	-5.995000E+00	  0.072905809	1.663210E+02	  0.072905809	1.681500E+01	  0.072905809	5.327000E+00
266	  0.073106214	-6.002000E+00	  0.073106214	1.653250E+02	  0.073106214	1.686400E+01	  0.073106214	5.716000E+00
267	  0.073306613	-6.016000E+00	  0.073306613	1.643870E+02	  0.073306613	1.693300E+01	  0.073306613	6.081000E+00
268	  0.073507011	-6.019000E+00	  0.073507011	1.633980E+02	  0.073507011	1.697900E+01	  0.073507011	6.469000E+00
269	  0.073707417	-6.022000E+00	  0.073707417	1.624300E+02	  0.073707417	1.702300E+01	  0.073707417	6.849000E+00
270	  0.073907815	-6.021000E+00	  0.073907815	1.614970E+02	  0.073907815	1.706200E+01	  0.073907815	7.217000E+00
271	  0.074108213	-6.022000E+00	  0.074108213	1.605060E+02	  0.074108213	1.710600E+01	  0.074108213	7.608000E+00
272	  0.074308619	-6.028000E+00	  0.074308619	1.595520E+02	  0.074308619	1.716800E+01	  0.074308619	7.984000E+00
273	  0.074509017	-6.029000E+00	  0.074509017	1.586310E+02	  0.074509017	1.721400E+01	  0.074509017	8.349000E+00
274	  0.074709415	-6.030000E+00	  0.074709415	1.576960E+02	  0.074709415	1.726400E+01	  0.074709415	8.720000E+00
275	  0.074909821	-6.031000E+00	  0.074909821	1.567970E+02	  0.074909821	1.731600E+01	  0.074909821	9.077000E+00
276	  0.075110219	-6.027000E+00	  0.075110219	1.559220E+02	  0.075110219	1.735500E+01	  0.075110219	9.428000E+00
277	  0.075310618	-6.028000E+00	  0.075310618	1.550060E+02	  0.075310618	1.741100E+01	  0.075310618	9.793000E+00
278	  0.075511023	-6.028000E+00	  0.075511023	1.541570E+02	  0.075511023	1.746300E+01	  0.075511023	1.013300E+01
279	  0.075711422	-6.030000E+00	  0.075711422	1.532900E+02	  0.075711422	1.752300E+01	  0.075711422	1.048100E+01
280	  0.075911827	-6.032000E+00	  0.075911827	1.524660E+02	  0.075911827	1.758000E+01	  0.075911827	1.081200E+01
281	  0.076112226	-6.034000E+00	  0.076112226	1.516300E+02	  0.076112226	1.764400E+01	  0.076112226	1.114800E+01
282	  0.076312624	-6.038000E+00	  0.076312624	1.508180E+02	  0.076312624	1.771000E+01	  0.076312624	1.147400E+01
283	  0.076513030	-6.043000E+00	  0.076513030	1.500000E+02	  0.076513030	1.778300E+01	  0.076513030	1.180300E+01
284	  0.076713428	-6.048000E+00	  0.076713428	1.491690E+02	  0.076713428	1.785700E+01	  0.076713428	1.213800E+01
285	  0.076913826	-6.055000E+00	  0.076913826	1.483810E+02	  0.076913826	1.793800E+01	  0.076913826	1.245400E+01
286	  0.077114232	-6.064000E+00	  0.077114232	1.475890E+02	  0.077114232	1.802500E+01	  0.077114232	1.277300E+01
287	  0.077314630	-6.079000E+00	  0.077314630	1.467540E+02	  0.077314630	1.813200E+01	  0.077314630	1.310600E+01
288	  0.077515028	-6.091000E+00	  0.077515028	1.459250E+02	  0.077515028	1.823400E+01	  0.077515028	1.343900E+01
289	  0.077715434	-6.105000E+00	  0.077715434	1.451430E+02	  0.077715434	1.834100E+01	  0.077715434	1.375100E+01
290	  0.077915832	-6.121000E+00	  0.077915832	1.443100E+02	  0.077915832	1.845800E+01	  0.077915832	1.408400E+01
291	  0.078116231	-6.135000E+00	  0.078116231	1.434780E+02	  0.078116231	1.857400E+01	  0.078116231	1.441800E+01
292	  0.078316636	-6.152000E+00	  0.078316636	1.426130E+02	  0.078316636	1.870100E+01	  0.078316636	1.476500E+01
293	  0.078517035	-6.166000E+00	  0.078517035	1.417310E+02	  0.078517035	1.882700E+01	  0.078517035	1.512100E+01
294	  0.078717433	-6.179000E+00	  0.078717433	1.408350E+02	  0.078717433	1.895200E+01	  0.078717433	1.548400E+01
295	  0.078917839	-6.187000E+00	  0.078917839	1.399900E+02	  0.078917839	1.906100E+01	  0.078917839	1.583100E+01
296	  0.079118237	-6.194000E+00	  0.079118237	1.391300E+02	  0.079118237	1.917300E+01	  0.079118237	1.618400E+01
297	  0.079318643	-6.204000E+00	  0.079318643	1.382930E+02	  0.079318643	1.929200E+01	  0.079318643	1.652800E+01
298	  0.079519041	-6.217000E+00	  0.079519041	1.374330E+02	  0.079519041	1.942700E+01	  0.079519041	1.687800E+01
299	  0.079719439	-6.228000E+00	  0.079719439	1.365570E+02	  0.079719439	1.955800E+01	  0.079719439	1.723900E+01
300	  0.079919845	-6.234000E+00	  0.079919845	1.357430E+02	  0.079919845	1.967200E+01	  0.079919845	1.757800E+01
301	  0.080120243	-6.249000E+00	  0.080120243	1.348970E+02	  0.080120243	1.981700E+01	  0.080120243	1.792400E+01
302	  0.080320641	-6.256000E+00	  0.080320641	1.340610E+02	  0.080320641	1.994200E+01	  0.080320641	1.827300E+01
303	  0.080521047	-6.265000E+00	  0.080521047	1.332780E+02	  0.080521047	2.006700E+01	  0.080521047	1.859800E+01
304	  0.080721445	-6.276000E+00	  0.080721445	1.324720E+02	  0.080721445	2.020500E+01	  0.080721445	1.893300E+01
305	  0.080921844	-6.285000E+00	  0.080921844	1.316560E+02	  0.080921844	2.034000E+01	  0.080921844	1.927500E+01
306	  0.081122249	-6.297000E+00	  0.081122249	1.308320E+02	  0.081122249	2.048900E+01	  0.081122249	1.961800E+01
307	  0.081322648	-6.299000E+00	  0.081322648	1.300750E+02	  0.081322648	2.060200E+01	  0.081322648	1.994100E+01
308	  0.081523046	-6.309000E+00	  0.081523046	1.292990E+02	  0.081523046	2.074400E+01	  0.081523046	2.026700E+01
309	  0.081723452	-6.324000E+00	  0.081723452	1.285190E+02	  0.081723452	2.090200E+01	  0.081723452	2.059100E+01
310	  0.081923850	-6.336000E+00	  0.081923850	1.278210E+02	  0.081923850	2.104300E+01	  0.081923850	2.088200E+01
311	  0.082124248	-6.355000E+00	  0.082124248	1.270370E+02	  0.082124248	2.122000E+01	  0.082124248	2.120400E+01
312	  0.082324654	-6.364000E+00	  0.082324654	1.263170E+02	  0.082324654	2.135800E+01	  0.082324654	2.151000E+01
313	  0.082525052	-6.380000E+00	  0.082525052	1.255760E+02	  0.082525052	2.152600E+01	  0.082525052	2.181700E+01
314	  0.082725458	-6.398000E+00	  0.082725458	1.248410E+02	  0.082725458	2.169900E+01	  0.082725458	2.212000E+01
315	  0.082925856	-6.422000E+00	  0.082925856	1.241110E+02	  0.082925856	2.189300E+01	  0.082925856	2.241400E+01
316	  0.083126254	-6.443000E+00	  0.083126254	1.233990E+02	  0.083126254	2.207700E+01	  0.083126254	2.270400E+01
317	  0.083326660	-6.466000E+00	  0.083326660	1.226300E+02	  0.083326660	2.228000E+01	  0.083326660	2.301700E+01
318	  0.083527058	-6.483000E+00	  0.083527058	1.218880E+02	  0.083527058	2.246500E+01	  0.083527058	2.332500E+01
319	  0.083727457	-6.507000E+00	  0.083727457	1.210800E+02	  0.083727457	2.268300E+01	  0.083727457	2.365500E+01
320	  0.083927862	-6.524000E+00	  0.083927862	1.203100E+02	  0.083927862	2.288000E+01	  0.083927862	2.397600E+01
321	  0.084128261	-6.545000E+00	  0.084128261	1.195150E+02	  0.084128261	2.309400E+01	  0.084128261	2.430400E+01
322	  0.084328659	-6.562000E+00	  0.084328659	1.187630E+02	  0.084328659	2.329500E+01	  0.084328659	2.461700E+01
323	  0.084529065	-6.585000E+00	  0.084529065	1.180240E+02	  0.084529065	2.351100E+01	  0.084529065	2.491800E+01
324	  0.084729463	-6.596000E+00	  0.084729463	1.172380E+02	  0.084729463	2.370500E+01	  0.084729463	2.525600E+01
325	  0.084929861	-6.613000E+00	  0.084929861	1.165090E+02	  0.084929861	2.391100E+01	  0.084929861	2.556000E+01
326	  0.085130267	-6.629000E+00	  0.085130267	1.157630E+02	  0.085130267	2.411900E+01	  0.085130267	2.587400E+01
327	  0.085330658	-6.648000E+00	  0.085330658	1.150340E+02	  0.085330658	2.433500E+01	  0.085330658	2.617600E+01
328	  0.085531056	-6.663000E+00	  0.085531056	1.143250E+02	  0.085531056	2.454200E+01	  0.085531056	2.647400E+01
329	  0.085731462	-6.684000E+00	  0.085731462	1.136330E+02	  0.085731462	2.476200E+01	  0.085731462	2.675700E+01
330	  0.085931860	-6.702000E+00	  0.085931860	1.129310E+02	  0.085931860	2.497900E+01	  0.085931860	2.704900E+01
331	  0.086132258	-6.718000E+00	  0.086132258	1.121910E+02	  0.086132258	2.520300E+01	  0.086132258	2.736100E+01
332	  0.086332664	-6.732000E+00	  0.086332664	1.115010E+02	  0.086332664	2.541400E+01	  0.086332664	2.765300E+01
333	  0.086533062	-6.750000E+00	  0.086533062	1.108280E+02	  0.086533062	2.563400E+01	  0.086533062	2.793200E+01
334	  0.086733460	-6.763000E+00	  0.086733460	1.101540E+02	  0.086733460	2.584500E+01	  0.086733460	2.821800E+01
335	  0.086933866	-6.778000E+00	  0.086933866	1.094750E+02	  0.086933866	2.606500E+01	  0.086933866	2.850400E+01
336	  0.087134264	-6.800000E+00	  0.087134264	1.088440E+02	  0.087134264	2.629800E+01	  0.087134264	2.875600E+01
337	  0.087334670	-6.814000E+00	  0.087334670	1.082040E+02	  0.087334670	2.650900E+01	  0.087334670	2.902700E+01
338	  0.087535068	-6.833000E+00	  0.087535068	1.075460E+02	  0.087535068	2.674600E+01	  0.087535068	2.929600E+01
339	  0.087735467	-6.852000E+00	  0.087735467	1.069250E+02	  0.087735467	2.697400E+01	  0.087735467	2.954900E+01
340	  0.087935872	-6.874000E+00	  0.087935872	1.062650E+02	  0.087935872	2.722800E+01	  0.087935872	2.981200E+01
341	  0.088136271	-6.900000E+00	  0.088136271	1.056540E+02	  0.088136271	2.747900E+01	  0.088136271	3.004700E+01
342	  0.088336669	-6.926000E+00	  0.088336669	1.050260E+02	  0.088336669	2.774400E+01	  0.088336669	3.028600E+01
343	  0.088537075	-6.957000E+00	  0.088537075	1.043550E+02	  0.088537075	2.803400E+01	  0.088537075	3.053600E+01
344	  0.088737473	-6.975000E+00	  0.088737473	1.036690E+02	  0.088737473	2.829600E+01	  0.088737473	3.081800E+01
345	  0.088937871	-7.004000E+00	  0.088937871	1.030150E+02	  0.088937871	2.858600E+01	  0.088937871	3.106100E+01
346	  0.089138277	-7.027000E+00	  0.089138277	1.022970E+02	  0.089138277	2.888300E+01	  0.089138277	3.134400E+01
347	  0.089338675	-7.048000E+00	  0.089338675	1.016200E+02	  0.089338675	2.916100E+01	  0.089338675	3.161400E+01
348	  0.089539073	-7.076000E+00	  0.089539073	1.009380E+02	  0.089539073	2.946800E+01	  0.089539073	3.186900E+01
349	  0.089739479	-7.094000E+00	  0.089739479	1.002300E+02	  0.089739479	2.975600E+01	  0.089739479	3.215800E+01
350	  0.089939877	-7.119000E+00	  0.089939877	9.955000E+01	  0.089939877	3.006200E+01	  0.089939877	3.241600E+01
351	  0.090140276	-7.136000E+00	  0.090140276	9.887600E+01	  0.090140276	3.034500E+01	  0.090140276	3.268900E+01
352	  0.090340681	-7.154000E+00	  0.090340681	9.818600E+01	  0.090340681	3.064400E+01	  0.090340681	3.296500E+01
353	  0.090541080	-7.179000E+00	  0.090541080	9.752600E+01	  0.090541080	3.095400E+01	  0.090541080	3.321100E+01
354	  0.090741485	-7.208000E+00	  0.090741485	9.684500E+01	  0.090741485	3.128900E+01	  0.090741485	3.345600E+01
355	  0.090941884	-7.231000E+00	  0.090941884	9.621600E+01	  0.090941884	3.158900E+01	  0.090941884	3.369100E+01
356	  0.091142282	-7.253000E+00	  0.091142282	9.555100E+01	  0.091142282	3.190600E+01	  0.091142282	3.394200E+01
357	  0.091342688	-7.280000E+00	  0.091342688	9.493400E+01	  0.091342688	3.222200E+01	  0.091342688	3.415800E+01
358	  0.091543086	-7.307000E+00	  0.091543086	9.426600E+01	  0.091543086	3.256200E+01	  0.091543086	3.439500E+01
359	  0.091743484	-7.334000E+00	  0.091743484	9.361200E+01	  0.091743484	3.290300E+01	  0.091743484	3.462300E+01
360	  0.091943890	-7.357000E+00	  0.091943890	9.301500E+01	  0.091943890	3.321000E+01	  0.091943890	3.483500E+01
361	  0.092144288	-7.385000E+00	  0.092144288	9.242000E+01	  0.092144288	3.353700E+01	  0.092144288	3.503000E+01
362	  0.092344686	-7.413000E+00	  0.092344686	9.182500E+01	  0.092344686	3.386600E+01	  0.092344686	3.522400E+01
363	  0.092545092	-7.437000E+00	  0.092545092	9.125400E+01	  0.092545092	3.417800E+01	  0.092545092	3.541600E+01
364	  0.092745490	-7.472000E+00	  0.092745490	9.064200E+01	  0.092745490	3.454300E+01	  0.092745490	3.559200E+01
365	  0.092945889	-7.502000E+00	  0.092945889	9.005000E+01	  0.092945889	3.488800E+01	  0.092945889	3.577100E+01
366	  0.093146294	-7.536000E+00	  0.093146294	8.950800E+01	  0.093146294	3.522600E+01	  0.093146294	3.591500E+01
367	  0.093346693	-7.572000E+00	  0.093346693	8.896200E+01	  0.093346693	3.557200E+01	  0.093346693	3.605300E+01
368	  0.093547091	-7.606000E+00	  0.093547091	8.840800E+01	  0.093547091	3.592300E+01	  0.093547091	3.619500E+01
369	  0.093747497	-7.647000E+00	  0.093747497	8.782600E+01	  0.093747497	3.630600E+01	  0.093747497	3.632700E+01
370	  0.093947895	-7.686000E+00	  0.093947895	8.721000E+01	  0.093947895	3.670500E+01	  0.093947895	3.647500E+01
371	  0.094148301	-7.722000E+00	  0.094148301	8.662700E+01	  0.094148301	3.708100E+01	  0.094148301	3.661500E+01
372	  0.094348699	-7.753000E+00	  0.094348699	8.604700E+01	  0.094348699	3.744400E+01	  0.094348699	3.676800E+01
373	  0.094549097	-7.792000E+00	  0.094549097	8.545900E+01	  0.094549097	3.784000E+01	  0.094549097	3.689300E+01
374	  0.094749503	-7.827000E+00	  0.094749503	8.487600E+01	  0.094749503	3.822300E+01	  0.094749503	3.702600E+01
375	  0.094949901	-7.852000E+00	  0.094949901	8.433000E+01	  0.094949901	3.856400E+01	  0.094949901	3.717200E+01
376	  0.095150299	-7.881000E+00	  0.095150299	8.376400E+01	  0.095150299	3.892800E+01	  0.095150299	3.731300E+01
377	  0.095350705	-7.907000E+00	  0.095350705	8.320700E+01	  0.095350705	3.928300E+01	  0.095350705	3.745500E+01
378	  0.095551103	-7.935000E+00	  0.095551103	8.270100E+01	  0.095551103	3.962000E+01	  0.095551103	3.756900E+01
379	  0.095751502	-7.960000E+00	  0.095751502	8.219000E+01	  0.095751502	3.995600E+01	  0.095751502	3.768800E+01
380	  0.095951907	-7.986000E+00	  0.095951907	8.168000E+01	  0.095951907	4.029400E+01	  0.095951907	3.780400E+01
381	  0.096152306	-8.015000E+00	  0.096152306	8.125000E+01	  0.096152306	4.060100E+01	  0.096152306	3.787300E+01
382	  0.096352704	-8.042000E+00	  0.096352704	8.078800E+01	  0.096352704	4.092000E+01	  0.096352704	3.796200E+01
383	  0.096553110	-8.071000E+00	  0.096553110	8.035100E+01	  0.096553110	4.123400E+01	  0.096553110	3.802900E+01
384	  0.096753508	-8.097000E+00	  0.096753508	7.989300E+01	  0.096753508	4.155300E+01	  0.096753508	3.811300E+01
385	  0.096953906	-8.124000E+00	  0.096953906	7.945500E+01	  0.096953906	4.186400E+01	  0.096953906	3.818500E+01
386	  0.097154312	-8.150000E+00	  0.097154312	7.905800E+01	  0.097154312	4.215300E+01	  0.097154312	3.824000E+01
387	  0.097354710	-8.183000E+00	  0.097354710	7.870800E+01	  0.097354710	4.243300E+01	  0.097354710	3.825100E+01
388	  0.097555116	-8.211000E+00	  0.097555116	7.828100E+01	  0.097555116	4.274500E+01	  0.097555116	3.830700E+01
389	  0.097755514	-8.240000E+00	  0.097755514	7.789600E+01	  0.097755514	4.303800E+01	  0.097755514	3.833800E+01
390	  0.097955912	-8.265000E+00	  0.097955912	7.754100E+01	  0.097955912	4.330300E+01	  0.097955912	3.837400E+01
391	  0.098156318	-8.301000E+00	  0.098156318	7.715400E+01	  0.098156318	4.361500E+01	  0.098156318	3.837600E+01
392	  0.098356716	-8.331000E+00	  0.098356716	7.679600E+01	  0.098356716	4.389600E+01	  0.098356716	3.839000E+01
393	  0.098557115	-8.367000E+00	  0.098557115	7.646300E+01	  0.098557115	4.417700E+01	  0.098557115	3.836600E+01
394	  0.098757520	-8.400000E+00	  0.098757520	7.608800E+01	  0.098757520	4.447500E+01	  0.098757520	3.837000E+01
395	  0.098957919	-8.429000E+00	  0.098957919	7.570300E+01	  0.098957919	4.477300E+01	  0.098957919	3.838800E+01
396	  0.099158317	-8.466000E+00	  0.099158317	7.527200E+01	  0.099158317	4.511600E+01	  0.099158317	3.838700E+01
397	  0.099358723	-8.497000E+00	  0.099358723	7.487300E+01	  0.099358723	4.542600E+01	  0.099358723	3.839700E+01
398	  0.099559121	-8.524000E+00	  0.099559121	7.440700E+01	  0.099559121	4.577000E+01	  0.099559121	3.844200E+01
399	  0.099759519	-8.548000E+00	  0.099759519	7.397900E+01	  0.099759519	4.608500E+01	  0.099759519	3.848500E+01
400	  0.099959925	-8.569000E+00	  0.099959925	7.355000E+01	  0.099959925	4.639700E+01	  0.099959925	3.853700E+01
401	  0.100160323	-8.576000E+00	  0.100160323	7.306300E+01	  0.100160323	4.671600E+01	  0.100160323	3.866600E+01
402	  0.100360721	-8.598000E+00	  0.100360721	7.262500E+01	  0.100360721	4.703900E+01	  0.100360721	3.870900E+01
403	  0.100561127	-8.596000E+00	  0.100561127	7.222400E+01	  0.100561127	4.729100E+01	  0.100561127	3.884300E+01
404	  0.100761525	-8.601000E+00	  0.100761525	7.177900E+01	  0.100761525	4.758700E+01	  0.100761525	3.896000E+01
405	  0.100961931	-8.596000E+00	  0.100961931	7.136300E+01	  0.100961931	4.784900E+01	  0.100961931	3.910500E+01
406	  0.101162329	-8.603000E+00	  0.101162329	7.096900E+01	  0.101162329	4.812000E+01	  0.101162329	3.919700E+01
407	  0.101362728	-8.582000E+00	  0.101362728	7.056200E+01	  0.101362728	4.834800E+01	  0.101362728	3.941100E+01
408	  0.101563133	-8.577000E+00	  0.101563133	7.027000E+01	  0.101563133	4.853200E+01	  0.101563133	3.952000E+01
409	  0.101763532	-8.569000E+00	  0.101763532	6.983800E+01	  0.101763532	4.880900E+01	  0.101763532	3.968000E+01
410	  0.101963930	-8.565000E+00	  0.101963930	6.954200E+01	  0.101963930	4.900100E+01	  0.101963930	3.978600E+01
411	  0.102164336	-8.547000E+00	  0.102164336	6.921400E+01	  0.102164336	4.919200E+01	  0.102164336	3.996200E+01
412	  0.102364734	-8.528000E+00	  0.102364734	6.891400E+01	  0.102364734	4.936000E+01	  0.102364734	4.013900E+01
413	  0.102565132	-8.528000E+00	  0.102565132	6.866500E+01	  0.102565132	4.953400E+01	  0.102565132	4.021000E+01
414	  0.102765530	-8.507000E+00	  0.102765530	6.828900E+01	  0.102765530	4.975600E+01	  0.102765530	4.041600E+01
415	  0.102965929	-8.516000E+00	  0.102965929	6.800100E+01	  0.102965929	4.997600E+01	  0.102965929	4.045600E+01
416	  0.103166327	-8.494000E+00	  0.103166327	6.766700E+01	  0.103166327	5.017100E+01	  0.103166327	4.065500E+01
417	  0.103366733	-8.481000E+00	  0.103366733	6.735400E+01	  0.103366733	5.037100E+01	  0.103366733	4.080400E+01
418	  0.103567131	-8.479000E+00	  0.103567131	6.705700E+01	  0.103567131	5.058100E+01	  0.103567131	4.089800E+01
419	  0.103767529	-8.481000E+00	  0.103767529	6.665900E+01	  0.103767529	5.087200E+01	  0.103767529	4.100300E+01
420	  0.103967935	-8.486000E+00	  0.103967935	6.640500E+01	  0.103967935	5.106700E+01	  0.103967935	4.105000E+01
421	  0.104168333	-8.487000E+00	  0.104168333	6.603900E+01	  0.104168333	5.133800E+01	  0.104168333	4.114200E+01
422	  0.104368731	-8.496000E+00	  0.104368731	6.556300E+01	  0.104368731	5.170600E+01	  0.104368731	4.122800E+01
423	  0.104569137	-8.498000E+00	  0.104569137	6.516500E+01	  0.104569137	5.200700E+01	  0.104569137	4.132200E+01
424	  0.104769535	-8.496000E+00	  0.104769535	6.472900E+01	  0.104769535	5.233200E+01	  0.104769535	4.144600E+01
425	  0.104969934	-8.492000E+00	  0.104969934	6.421000E+01	  0.104969934	5.272000E+01	  0.104969934	4.160100E+01
426	  0.105170339	-8.502000E+00	  0.105170339	6.368100E+01	  0.105170339	5.314500E+01	  0.105170339	4.167800E+01
427	  0.105370738	-8.484000E+00	  0.105370738	6.312500E+01	  0.105370738	5.354800E+01	  0.105370738	4.190700E+01
428	  0.105571143	-8.497000E+00	  0.105571143	6.257500E+01	  0.105571143	5.400200E+01	  0.105571143	4.197100E+01
429	  0.105771542	-8.483000E+00	  0.105771542	6.207300E+01	  0.105771542	5.438000E+01	  0.105771542	4.216200E+01
430	  0.105971940	-8.469000E+00	  0.105971940	6.147100E+01	  0.105971940	5.484400E+01	  0.105971940	4.237200E+01
431	  0.106172346	-8.452000E+00	  0.106172346	6.089500E+01	  0.106172346	5.528900E+01	  0.106172346	4.259400E+01
432	  0.106372744	-8.429000E+00	  0.106372744	6.029800E+01	  0.106372744	5.575000E+01	  0.106372744	4.284900E+01
433	  0.106573142	-8.409000E+00	  0.106573142	5.977900E+01	  0.106573142	5.615900E+01	  0.106573142	4.306700E+01
434	  0.106773548	-8.392000E+00	  0.106773548	5.923300E+01	  0.106773548	5.659900E+01	  0.106773548	4.327900E+01
435	  0.106973946	-8.361000E+00	  0.106973946	5.861900E+01	  0.106973946	5.708600E+01	  0.106973946	4.357800E+01
436	  0.107174344	-8.335000E+00	  0.107174344	5.813600E+01	  0.107174344	5.747500E+01	  0.107174344	4.382200E+01
437	  0.107374750	-8.317000E+00	  0.107374750	5.761100E+01	  0.107374750	5.791600E+01	  0.107374750	4.402900E+01
438	  0.107575148	-8.289000E+00	  0.107575148	5.710600E+01	  0.107575148	5.833500E+01	  0.107575148	4.428600E+01
439	  0.107775547	-8.263000E+00	  0.107775547	5.670200E+01	  0.107775547	5.866900E+01	  0.107775547	4.451800E+01
440	  0.107975952	-8.250000E+00	  0.107975952	5.619600E+01	  0.107975952	5.911800E+01	  0.107975952	4.468500E+01
441	  0.108176351	-8.214000E+00	  0.108176351	5.566500E+01	  0.108176351	5.957100E+01	  0.108176351	4.499600E+01
442	  0.108376749	-8.206000E+00	  0.108376749	5.520400E+01	  0.108376749	5.999500E+01	  0.108376749	4.512400E+01
443	  0.108577155	-8.192000E+00	  0.108577155	5.479100E+01	  0.108577155	6.037200E+01	  0.108577155	4.527800E+01
444	  0.108777553	-8.184000E+00	  0.108777553	5.431400E+01	  0.108777553	6.082200E+01	  0.108777553	4.540400E+01
445	  0.108977959	-8.172000E+00	  0.108977959	5.382800E+01	  0.108977959	6.128100E+01	  0.108977959	4.555400E+01
446	  0.109178357	-8.166000E+00	  0.109178357	5.340700E+01	  0.109178357	6.168800E+01	  0.109178357	4.565000E+01
447	  0.109378755	-8.172000E+00	  0.109378755	5.283100E+01	  0.109378755	6.226200E+01	  0.109378755	4.568700E+01
448	  0.109579161	-8.162000E+00	  0.109579161	5.227200E+01	  0.109579161	6.281200E+01	  0.109579161	4.581900E+01
449	  0.109779559	-8.167000E+00	  0.109779559	5.170800E+01	  0.109779559	6.338500E+01	  0.109779559	4.584800E+01
450	  0.109979957	-8.171000E+00	  0.109979957	5.119000E+01	  0.109979957	6.391600E+01	  0.109979957	4.586700E+01
451	  0.110180363	-8.181000E+00	  0.110180363	5.053600E+01	  0.110180363	6.459300E+01	  0.110180363	4.585200E+01
452	  0.110380761	-8.191000E+00	  0.110380761	4.988200E+01	  0.110380761	6.527800E+01	  0.110380761	4.582700E+01
453	  0.110581160	-8.192000E+00	  0.110581160	4.921800E+01	  0.110581160	6.597500E+01	  0.110581160	4.585900E+01
454	  0.110781565	-8.194000E+00	  0.110781565	4.847300E+01	  0.110781565	6.676800E+01	  0.110781565	4.586900E+01
455	  0.110981964	-8.195000E+00	  0.110981964	4.774600E+01	  0.110981964	6.754900E+01	  0.110981964	4.587100E+01
456	  0.111182362	-8.193000E+00	  0.111182362	4.693900E+01	  0.111182362	6.842800E+01	  0.111182362	4.588400E+01
457	  0.111382768	-8.188000E+00	  0.111382768	4.624600E+01	  0.111382768	6.919300E+01	  0.111382768	4.590500E+01
458	  0.111583166	-8.186000E+00	  0.111583166	4.540100E+01	  0.111583166	7.013600E+01	  0.111583166	4.588200E+01
459	  0.111783572	-8.178000E+00	  0.111783572	4.470200E+01	  0.111783572	7.093000E+01	  0.111783572	4.589600E+01
460	  0.111983970	-8.166000E+00	  0.111983970	4.389000E+01	  0.111983970	7.186600E+01	  0.111983970	4.592000E+01
461	  0.112184368	-8.147000E+00	  0.112184368	4.309700E+01	  0.112184368	7.279900E+01	  0.112184368	4.597700E+01
462	  0.112384774	-8.147000E+00	  0.112384774	4.234500E+01	  0.112384774	7.368200E+01	  0.112384774	4.588200E+01
463	  0.112585172	-8.122000E+00	  0.112585172	4.158200E+01	  0.112585172	7.461400E+01	  0.112585172	4.595800E+01
464	  0.112785570	-8.114000E+00	  0.112785570	4.084700E+01	  0.112785570	7.550800E+01	  0.112785570	4.588800E+01
465	  0.112985976	-8.098000E+00	  0.112985976	4.009400E+01	  0.112985976	7.644700E+01	  0.112985976	4.586900E+01
466	  0.113186374	-8.077000E+00	  0.113186374	3.939100E+01	  0.113186374	7.734300E+01	  0.113186374	4.587300E+01
467	  0.113386773	-8.076000E+00	  0.113386773	3.871800E+01	  0.113386773	7.818200E+01	  0.113386773	4.571300E+01
468	  0.113587178	-8.064000E+00	  0.113587178	3.804300E+01	  0.113587178	7.905000E+01	  0.113587178	4.562800E+01
469	  0.113787577	-8.060000E+00	  0.113787577	3.738500E+01	  0.113787577	7.989000E+01	  0.113787577	4.546000E+01
470	  0.113987975	-8.056000E+00	  0.113987975	3.663000E+01	  0.113987975	8.085900E+01	  0.113987975	4.524300E+01
471	  0.114188381	-8.065000E+00	  0.114188381	3.602800E+01	  0.114188381	8.160700E+01	  0.114188381	4.494700E+01
472	  0.114388779	-8.064000E+00	  0.114388779	3.528000E+01	  0.114388779	8.257000E+01	  0.114388779	4.466300E+01
473	  0.114589177	-8.081000E+00	  0.114589177	3.455200E+01	  0.114589177	8.346200E+01	  0.114589177	4.421700E+01
474	  0.114789583	-8.101000E+00	  0.114789583	3.381200E+01	  0.114789583	8.435300E+01	  0.114789583	4.370900E+01
475	  0.114989981	-8.119000E+00	  0.114989981	3.305400E+01	  0.114989981	8.526900E+01	  0.114989981	4.318200E+01
476	  0.115190387	-8.147000E+00	  0.115190387	3.231800E+01	  0.115190387	8.611800E+01	  0.115190387	4.256400E+01
477	  0.115390785	-8.168000E+00	  0.115390785	3.152000E+01	  0.115390785	8.705700E+01	  0.115390785	4.193300E+01
478	  0.115591183	-8.197000E+00	  0.115591183	3.064000E+01	  0.115591183	8.806200E+01	  0.115591183	4.116800E+01
479	  0.115791589	-8.226000E+00	  0.115791589	2.975300E+01	  0.115791589	8.905500E+01	  0.115791589	4.035200E+01
480	  0.115991987	-8.255000E+00	  0.115991987	2.883100E+01	  0.115991987	9.007500E+01	  0.115991987	3.948200E+01
481	  0.116192386	-8.288000E+00	  0.116192386	2.790800E+01	  0.116192386	9.105500E+01	  0.116192386	3.853900E+01
482	  0.116392791	-8.323000E+00	  0.116392791	2.690400E+01	  0.116392791	9.209900E+01	  0.116392791	3.748500E+01
483	  0.116593190	-8.353000E+00	  0.116593190	2.592000E+01	  0.116593190	9.311200E+01	  0.116593190	3.644000E+01
484	  0.116793588	-8.382000E+00	  0.116793588	2.484200E+01	  0.116793588	9.420700E+01	  0.116793588	3.527300E+01
485	  0.116993994	-8.413000E+00	  0.116993994	2.381200E+01	  0.116993994	9.520000E+01	  0.116993994	3.409300E+01
486	  0.117194392	-8.441000E+00	  0.117194392	2.278600E+01	  0.117194392	9.617000E+01	  0.117194392	3.289500E+01
487	  0.117394790	-8.473000E+00	  0.117394790	2.175000E+01	  0.117394790	9.708200E+01	  0.117394790	3.161600E+01
488	  0.117595196	-8.499000E+00	  0.117595196	2.068100E+01	  0.117595196	9.802600E+01	  0.117595196	3.030400E+01
489	  0.117795594	-8.523000E+00	  0.117795594	1.962000E+01	  0.117795594	9.893900E+01	  0.117795594	2.897800E+01
490	  0.117995992	-8.553000E+00	  0.117995992	1.849900E+01	  0.117995992	9.980700E+01	  0.117995992	2.749500E+01
491	  0.118196398	-8.585000E+00	  0.118196398	1.746900E+01	  0.118196398	1.005170E+02	  0.118196398	2.606900E+01
492	  0.118396796	-8.623000E+00	  0.118396796	1.640800E+01	  0.118396796	1.011590E+02	  0.118396796	2.454700E+01
493	  0.118597202	-8.666000E+00	  0.118597202	1.535300E+01	  0.118597202	1.016840E+02	  0.118597202	2.297500E+01
494	  0.118797600	-8.699000E+00	  0.118797600	1.434500E+01	  0.118797600	1.022080E+02	  0.118797600	2.150500E+01
495	  0.118997999	-8.754000E+00	  0.118997999	1.329800E+01	  0.118997999	1.025050E+02	  0.118997999	1.985800E+01
496	  0.119198404	-8.798000E+00	  0.119198404	1.220800E+01	  0.119198404	1.028580E+02	  0.119198404	1.819700E+01
497	  0.119398803	-8.850000E+00	  0.119398803	1.112900E+01	  0.119398803	1.030600E+02	  0.119398803	1.651300E+01
498	  0.119599201	-8.917000E+00	  0.119599201	1.006900E+01	  0.119599201	1.030510E+02	  0.119599201	1.480700E+01
499	  0.119799607	-8.988000E+00	  0.119799607	9.017000E+00	  0.119799607	1.029290E+02	  0.119799607	1.311800E+01
500	  0.120000005	-9.066000E+00	  0.120000005	7.877000E+00	  0.120000005	1.027210E+02	  0.120000005	1.131700E+01
