! Anritsu VNA Master:             	Model: MS2036C/10/77
! SN:             	1601066
! /card0/usr/uu.s11.49p99.txt
! Existing Calibration Information:
! TYPE:             	Current Settings	Active Cal Settings
! TIME:             	05/23/2018 11:44:08 AM	05/23/2018 11:36:58 AM
! INTERNAL TEMP:    	48.5 C	48.8 C
! # POINTS:         	500	500
! START FREQ:       	20.000 MHz	20.000 MHz
! STOP FREQ:        	120.000 MHz	120.000 MHz
! SOURCE POWER:     	High	High
! IFBW:             	50 Hz	50 Hz
! AVG FACTOR:       	  1 	  1 
! REF PLANE 1:      	0 mm	0 mm
! REF PLANE 2:      	0 mm	0 mm
! CAL TYPE:         	Full S11	Full S11
! CAL METHOD:       	SOLT	SOLT
! CAL LINE TYPE:    	Coax	Coax
! DUT PORT 1:       	K-Conn(M)	K-Conn(M)
! DUT PORT 2:       	K-Conn(M)	K-Conn(M)
! CAL STATUS:       	OK: Accuracy High	--
! PROP-V:       	0.700
! CABLE LOSS:       	0.000 dB/m
! REF IMPEDANCE:       	50.0
! Trace Specific Parameters:	TR1	TR2	TR3	TR4
! TRACE.#.Y (GRAPH TYPE)	LOG MAG	PHASE	REAL IMPEDANCE	IMAGINARY IMPEDANCE
! TRACE.#.X 	FREQ.GHZ	FREQ.GHZ	FREQ.GHZ	FREQ.GHZ
! S-PARAMETER	S11	S11	S11	S11
! SMOOTH/APERTURE %	0	0	0	0
! WINDOW	NSL	NSL	NSL	NSL
! GATING	OFF	OFF	OFF	OFF
! FGTD	OFF	OFF	OFF	OFF
Marker Information per Trace:	TR1	TR2	TR3	TR4
!MK1	--	--	--	--
!MK2	--	--	--	--
!MK3	--	--	--	--
!MK4	--	--	--	--
!MK5	--	--	--	--
!MK6	--	--	--	--
!MK7	--	--	--	--
!MK8	--	--	--	--
PNT	TR1.FREQ.GHZ	TR1.LOG MAG.dB	TR2.FREQ.GHZ	TR2.PHASE.deg	TR3.FREQ.GHZ	TR3.REAL IMPEDANCE.ohm	TR4.FREQ.GHZ	TR4.IMAGINARY IMPEDANCE.ohm
1	  0.020000000	-3.917200E+01	  0.020000000	5.143800E+01	  0.020000000	5.068200E+01	  0.020000000	8.710000E-01
2	  0.020200402	-3.910600E+01	  0.020200402	5.145600E+01	  0.020200402	5.068700E+01	  0.020200402	8.780000E-01
3	  0.020400802	-3.898800E+01	  0.020400802	5.100900E+01	  0.020400802	5.070400E+01	  0.020400802	8.850000E-01
4	  0.020601204	-3.893700E+01	  0.020601204	5.095400E+01	  0.020601204	5.070900E+01	  0.020601204	8.900000E-01
5	  0.020801604	-3.886700E+01	  0.020801604	5.107100E+01	  0.020801604	5.071200E+01	  0.020801604	8.990000E-01
6	  0.021002004	-3.882700E+01	  0.021002004	5.113700E+01	  0.021002004	5.071500E+01	  0.021002004	9.040000E-01
7	  0.021202406	-3.877800E+01	  0.021202406	5.097200E+01	  0.021202406	5.072100E+01	  0.021202406	9.070000E-01
8	  0.021402806	-3.877400E+01	  0.021402806	5.040900E+01	  0.021402806	5.073100E+01	  0.021402806	9.000000E-01
9	  0.021603208	-3.863000E+01	  0.021603208	5.066300E+01	  0.021603208	5.073900E+01	  0.021603208	9.190000E-01
10	  0.021803608	-3.852700E+01	  0.021803608	5.093600E+01	  0.021803608	5.074300E+01	  0.021803608	9.330000E-01
11	  0.022004008	-3.856500E+01	  0.022004008	5.044600E+01	  0.022004008	5.074800E+01	  0.022004008	9.230000E-01
12	  0.022204408	-3.843200E+01	  0.022204408	5.059300E+01	  0.022204408	5.075700E+01	  0.022204408	9.390000E-01
13	  0.022404809	-3.848000E+01	  0.022404809	5.071200E+01	  0.022404809	5.075100E+01	  0.022404809	9.350000E-01
14	  0.022605211	-3.833600E+01	  0.022605211	5.030700E+01	  0.022605211	5.077000E+01	  0.022605211	9.460000E-01
15	  0.022805611	-3.827600E+01	  0.022805611	5.058100E+01	  0.022805611	5.077100E+01	  0.022805611	9.560000E-01
16	  0.023006011	-3.831000E+01	  0.023006011	4.987800E+01	  0.023006011	5.078000E+01	  0.023006011	9.430000E-01
17	  0.023206413	-3.819600E+01	  0.023206413	5.046400E+01	  0.023206413	5.078000E+01	  0.023206413	9.640000E-01
18	  0.023406813	-3.811500E+01	  0.023406813	5.011400E+01	  0.023406813	5.079300E+01	  0.023406813	9.680000E-01
19	  0.023607215	-3.809100E+01	  0.023607215	4.992000E+01	  0.023607215	5.079900E+01	  0.023607215	9.680000E-01
20	  0.023807615	-3.804800E+01	  0.023807615	5.020200E+01	  0.023807615	5.079800E+01	  0.023807615	9.770000E-01
21	  0.024008015	-3.796800E+01	  0.024008015	4.995900E+01	  0.024008015	5.080900E+01	  0.024008015	9.830000E-01
22	  0.024208417	-3.792500E+01	  0.024208417	5.014500E+01	  0.024208417	5.081000E+01	  0.024208417	9.900000E-01
23	  0.024408817	-3.789300E+01	  0.024408817	5.001100E+01	  0.024408817	5.081600E+01	  0.024408817	9.920000E-01
24	  0.024609219	-3.774800E+01	  0.024609219	5.002000E+01	  0.024609219	5.082900E+01	  0.024609219	1.009000E+00
25	  0.024809619	-3.770100E+01	  0.024809619	5.022100E+01	  0.024809619	5.083000E+01	  0.024809619	1.018000E+00
26	  0.025010020	-3.769700E+01	  0.025010020	4.985800E+01	  0.025010020	5.083700E+01	  0.025010020	1.013000E+00
27	  0.025210422	-3.764900E+01	  0.025210422	4.997500E+01	  0.025210422	5.083900E+01	  0.025210422	1.020000E+00
28	  0.025410822	-3.757400E+01	  0.025410822	4.967000E+01	  0.025410822	5.085200E+01	  0.025410822	1.025000E+00
29	  0.025611224	-3.758600E+01	  0.025611224	4.938900E+01	  0.025611224	5.085600E+01	  0.025611224	1.019000E+00
30	  0.025811624	-3.747600E+01	  0.025811624	4.960800E+01	  0.025811624	5.086300E+01	  0.025811624	1.036000E+00
31	  0.026012026	-3.746600E+01	  0.026012026	4.962400E+01	  0.026012026	5.086400E+01	  0.026012026	1.037000E+00
32	  0.026212426	-3.740900E+01	  0.026212426	4.941600E+01	  0.026212426	5.087300E+01	  0.026212426	1.041000E+00
33	  0.026412826	-3.737200E+01	  0.026412826	4.892800E+01	  0.026412826	5.088600E+01	  0.026412826	1.038000E+00
34	  0.026613226	-3.728200E+01	  0.026613226	4.917000E+01	  0.026613226	5.089100E+01	  0.026613226	1.053000E+00
35	  0.026813626	-3.721800E+01	  0.026813626	4.942000E+01	  0.026813626	5.089200E+01	  0.026813626	1.065000E+00
36	  0.027014028	-3.717900E+01	  0.027014028	4.872100E+01	  0.027014028	5.091000E+01	  0.027014028	1.058000E+00
37	  0.027214428	-3.713000E+01	  0.027214428	4.925200E+01	  0.027214428	5.090500E+01	  0.027214428	1.073000E+00
38	  0.027414829	-3.707900E+01	  0.027414829	4.852600E+01	  0.027414829	5.092400E+01	  0.027414829	1.068000E+00
39	  0.027615231	-3.703000E+01	  0.027615231	4.894600E+01	  0.027615231	5.092100E+01	  0.027615231	1.081000E+00
40	  0.027815631	-3.698500E+01	  0.027815631	4.874400E+01	  0.027815631	5.093000E+01	  0.027815631	1.083000E+00
41	  0.028016033	-3.696900E+01	  0.028016033	4.909800E+01	  0.028016033	5.092500E+01	  0.028016033	1.091000E+00
42	  0.028216433	-3.690300E+01	  0.028216433	4.852200E+01	  0.028216433	5.094300E+01	  0.028216433	1.090000E+00
43	  0.028416833	-3.688700E+01	  0.028416833	4.851200E+01	  0.028416833	5.094500E+01	  0.028416833	1.092000E+00
44	  0.028617235	-3.679800E+01	  0.028617235	4.821800E+01	  0.028617235	5.096000E+01	  0.028617235	1.099000E+00
45	  0.028817635	-3.671000E+01	  0.028817635	4.850200E+01	  0.028817635	5.096400E+01	  0.028817635	1.115000E+00
46	  0.029018037	-3.671000E+01	  0.029018037	4.833500E+01	  0.029018037	5.096800E+01	  0.029018037	1.112000E+00
47	  0.029218437	-3.665200E+01	  0.029218437	4.835600E+01	  0.029218437	5.097400E+01	  0.029218437	1.120000E+00
48	  0.029418837	-3.660200E+01	  0.029418837	4.831500E+01	  0.029418837	5.098000E+01	  0.029418837	1.126000E+00
49	  0.029619239	-3.656200E+01	  0.029619239	4.777500E+01	  0.029619239	5.099500E+01	  0.029619239	1.122000E+00
50	  0.029819639	-3.657000E+01	  0.029819639	4.795600E+01	  0.029819639	5.099100E+01	  0.029819639	1.124000E+00
51	  0.030020041	-3.646900E+01	  0.030020041	4.792300E+01	  0.030020041	5.100300E+01	  0.030020041	1.137000E+00
52	  0.030220442	-3.643000E+01	  0.030220442	4.784200E+01	  0.030220442	5.100900E+01	  0.030220442	1.140000E+00
53	  0.030420844	-3.637500E+01	  0.030420844	4.759200E+01	  0.030420844	5.102100E+01	  0.030420844	1.143000E+00
54	  0.030621244	-3.637800E+01	  0.030621244	4.768600E+01	  0.030621244	5.101800E+01	  0.030621244	1.145000E+00
55	  0.030821644	-3.632700E+01	  0.030821644	4.769500E+01	  0.030821644	5.102400E+01	  0.030821644	1.152000E+00
56	  0.031022044	-3.627300E+01	  0.031022044	4.766600E+01	  0.031022044	5.103100E+01	  0.031022044	1.159000E+00
57	  0.031222444	-3.625500E+01	  0.031222444	4.754200E+01	  0.031222444	5.103600E+01	  0.031222444	1.159000E+00
58	  0.031422846	-3.616400E+01	  0.031422846	4.762300E+01	  0.031422846	5.104500E+01	  0.031422846	1.173000E+00
59	  0.031623244	-3.614400E+01	  0.031623244	4.740800E+01	  0.031623244	5.105200E+01	  0.031623244	1.171000E+00
60	  0.031823646	-3.609000E+01	  0.031823646	4.727200E+01	  0.031823646	5.106200E+01	  0.031823646	1.176000E+00
61	  0.032024048	-3.601600E+01	  0.032024048	4.727700E+01	  0.032024048	5.107000E+01	  0.032024048	1.187000E+00
62	  0.032224450	-3.603700E+01	  0.032224450	4.687900E+01	  0.032224450	5.107600E+01	  0.032224450	1.177000E+00
63	  0.032424849	-3.600900E+01	  0.032424849	4.726500E+01	  0.032424849	5.107200E+01	  0.032424849	1.188000E+00
64	  0.032625251	-3.591000E+01	  0.032625251	4.721200E+01	  0.032625251	5.108500E+01	  0.032625251	1.200000E+00
65	  0.032825653	-3.587400E+01	  0.032825653	4.711800E+01	  0.032825653	5.109100E+01	  0.032825653	1.204000E+00
66	  0.033026051	-3.580900E+01	  0.033026051	4.682700E+01	  0.033026051	5.110600E+01	  0.033026051	1.207000E+00
67	  0.033226453	-3.580600E+01	  0.033226453	4.652100E+01	  0.033226453	5.111300E+01	  0.033226453	1.202000E+00
68	  0.033426855	-3.577800E+01	  0.033426855	4.672500E+01	  0.033426855	5.111200E+01	  0.033426855	1.210000E+00
69	  0.033627257	-3.576700E+01	  0.033627257	4.670100E+01	  0.033627257	5.111400E+01	  0.033627257	1.211000E+00
70	  0.033827655	-3.574700E+01	  0.033827655	4.647500E+01	  0.033827655	5.112100E+01	  0.033827655	1.209000E+00
71	  0.034028057	-3.570900E+01	  0.034028057	4.642300E+01	  0.034028057	5.112800E+01	  0.034028057	1.214000E+00
72	  0.034228459	-3.565700E+01	  0.034228459	4.621700E+01	  0.034228459	5.113900E+01	  0.034228459	1.217000E+00
73	  0.034428857	-3.563800E+01	  0.034428857	4.635100E+01	  0.034428857	5.113800E+01	  0.034428857	1.223000E+00
74	  0.034629259	-3.553400E+01	  0.034629259	4.617400E+01	  0.034629259	5.115600E+01	  0.034629259	1.234000E+00
75	  0.034829661	-3.555000E+01	  0.034829661	4.590400E+01	  0.034829661	5.116000E+01	  0.034829661	1.226000E+00
76	  0.035030060	-3.552300E+01	  0.035030060	4.603800E+01	  0.035030060	5.116000E+01	  0.035030060	1.233000E+00
77	  0.035230462	-3.542400E+01	  0.035230462	4.596100E+01	  0.035230462	5.117500E+01	  0.035230462	1.246000E+00
78	  0.035430863	-3.546400E+01	  0.035430863	4.565300E+01	  0.035430863	5.117700E+01	  0.035430863	1.234000E+00
79	  0.035631265	-3.541000E+01	  0.035631265	4.594500E+01	  0.035631265	5.117800E+01	  0.035631265	1.248000E+00
80	  0.035831664	-3.535600E+01	  0.035831664	4.518900E+01	  0.035831664	5.120200E+01	  0.035831664	1.240000E+00
81	  0.036032066	-3.535700E+01	  0.036032066	4.543100E+01	  0.036032066	5.119600E+01	  0.036032066	1.245000E+00
82	  0.036232468	-3.528400E+01	  0.036232468	4.502200E+01	  0.036232468	5.121600E+01	  0.036232468	1.247000E+00
83	  0.036432866	-3.522800E+01	  0.036432866	4.563200E+01	  0.036432866	5.121000E+01	  0.036432866	1.268000E+00
84	  0.036633268	-3.522000E+01	  0.036633268	4.543600E+01	  0.036633268	5.121500E+01	  0.036633268	1.265000E+00
85	  0.036833670	-3.519900E+01	  0.036833670	4.528500E+01	  0.036833670	5.122100E+01	  0.036833670	1.265000E+00
86	  0.037034072	-3.517800E+01	  0.037034072	4.482300E+01	  0.037034072	5.123500E+01	  0.037034072	1.258000E+00
87	  0.037234470	-3.510600E+01	  0.037234470	4.492200E+01	  0.037234470	5.124300E+01	  0.037234470	1.271000E+00
88	  0.037434869	-3.513500E+01	  0.037434869	4.478700E+01	  0.037434869	5.124200E+01	  0.037434869	1.264000E+00
89	  0.037635271	-3.507800E+01	  0.037635271	4.498100E+01	  0.037635271	5.124600E+01	  0.037635271	1.277000E+00
90	  0.037835669	-3.501800E+01	  0.037835669	4.509200E+01	  0.037835669	5.125200E+01	  0.037835669	1.288000E+00
91	  0.038036071	-3.496200E+01	  0.038036071	4.497000E+01	  0.038036071	5.126300E+01	  0.038036071	1.294000E+00
92	  0.038236473	-3.497800E+01	  0.038236473	4.441900E+01	  0.038236473	5.127300E+01	  0.038236473	1.279000E+00
93	  0.038436871	-3.492700E+01	  0.038436871	4.470500E+01	  0.038436871	5.127400E+01	  0.038436871	1.294000E+00
94	  0.038637273	-3.488300E+01	  0.038637273	4.438500E+01	  0.038637273	5.128800E+01	  0.038637273	1.293000E+00
95	  0.038837675	-3.490600E+01	  0.038837675	4.464300E+01	  0.038837675	5.127800E+01	  0.038837675	1.295000E+00
96	  0.039038073	-3.484000E+01	  0.039038073	4.416900E+01	  0.039038073	5.129900E+01	  0.039038073	1.295000E+00
97	  0.039238475	-3.481600E+01	  0.039238475	4.398900E+01	  0.039238475	5.130700E+01	  0.039238475	1.294000E+00
98	  0.039438877	-3.477900E+01	  0.039438877	4.428300E+01	  0.039438877	5.130600E+01	  0.039438877	1.307000E+00
99	  0.039639279	-3.473600E+01	  0.039639279	4.386300E+01	  0.039639279	5.132200E+01	  0.039639279	1.304000E+00
100	  0.039839678	-3.469200E+01	  0.039839678	4.396400E+01	  0.039839678	5.132600E+01	  0.039839678	1.313000E+00
101	  0.040040080	-3.465100E+01	  0.040040080	4.389500E+01	  0.040040080	5.133400E+01	  0.040040080	1.318000E+00
102	  0.040240481	-3.463900E+01	  0.040240481	4.389400E+01	  0.040240481	5.133600E+01	  0.040240481	1.319000E+00
103	  0.040440880	-3.458000E+01	  0.040440880	4.367000E+01	  0.040440880	5.135100E+01	  0.040440880	1.324000E+00
104	  0.040641282	-3.461300E+01	  0.040641282	4.355000E+01	  0.040641282	5.134800E+01	  0.040641282	1.315000E+00
105	  0.040841684	-3.450800E+01	  0.040841684	4.337500E+01	  0.040841684	5.136900E+01	  0.040841684	1.328000E+00
106	  0.041042086	-3.447800E+01	  0.041042086	4.365700E+01	  0.041042086	5.136700E+01	  0.041042086	1.339000E+00
107	  0.041242484	-3.448200E+01	  0.041242484	4.333000E+01	  0.041242484	5.137400E+01	  0.041242484	1.331000E+00
108	  0.041442886	-3.442500E+01	  0.041442886	4.325400E+01	  0.041442886	5.138500E+01	  0.041442886	1.338000E+00
109	  0.041643288	-3.440600E+01	  0.041643288	4.348500E+01	  0.041643288	5.138200E+01	  0.041643288	1.347000E+00
110	  0.041843686	-3.435100E+01	  0.041843686	4.315700E+01	  0.041843686	5.139900E+01	  0.041843686	1.347000E+00
111	  0.042044088	-3.436700E+01	  0.042044088	4.325000E+01	  0.042044088	5.139400E+01	  0.042044088	1.347000E+00
112	  0.042244490	-3.430500E+01	  0.042244490	4.314100E+01	  0.042244490	5.140700E+01	  0.042244490	1.354000E+00
113	  0.042444889	-3.433700E+01	  0.042444889	4.272700E+01	  0.042444889	5.141200E+01	  0.042444889	1.339000E+00
114	  0.042645290	-3.426700E+01	  0.042645290	4.298900E+01	  0.042645290	5.141700E+01	  0.042645290	1.357000E+00
115	  0.042845692	-3.424200E+01	  0.042845692	4.288100E+01	  0.042845692	5.142400E+01	  0.042845692	1.358000E+00
116	  0.043046094	-3.423900E+01	  0.043046094	4.281500E+01	  0.043046094	5.142600E+01	  0.043046094	1.357000E+00
117	  0.043246493	-3.421200E+01	  0.043246493	4.258200E+01	  0.043246493	5.143600E+01	  0.043246493	1.355000E+00
118	  0.043446895	-3.418000E+01	  0.043446895	4.271200E+01	  0.043446895	5.143800E+01	  0.043446895	1.364000E+00
119	  0.043647297	-3.411200E+01	  0.043647297	4.223300E+01	  0.043647297	5.146100E+01	  0.043647297	1.363000E+00
120	  0.043847695	-3.410800E+01	  0.043847695	4.259800E+01	  0.043847695	5.145300E+01	  0.043847695	1.372000E+00
121	  0.044048097	-3.405300E+01	  0.044048097	4.221900E+01	  0.044048097	5.147100E+01	  0.044048097	1.372000E+00
122	  0.044248499	-3.405700E+01	  0.044248499	4.203400E+01	  0.044248499	5.147500E+01	  0.044248499	1.366000E+00
123	  0.044448901	-3.398500E+01	  0.044448901	4.224500E+01	  0.044448901	5.148200E+01	  0.044448901	1.384000E+00
124	  0.044649299	-3.398800E+01	  0.044649299	4.195700E+01	  0.044649299	5.148900E+01	  0.044649299	1.376000E+00
125	  0.044849701	-3.394200E+01	  0.044849701	4.197800E+01	  0.044849701	5.149600E+01	  0.044849701	1.384000E+00
126	  0.045050103	-3.394800E+01	  0.045050103	4.178400E+01	  0.045050103	5.150000E+01	  0.045050103	1.378000E+00
127	  0.045250501	-3.390200E+01	  0.045250501	4.177300E+01	  0.045250501	5.150800E+01	  0.045250501	1.385000E+00
128	  0.045450903	-3.389300E+01	  0.045450903	4.179400E+01	  0.045450903	5.150900E+01	  0.045450903	1.387000E+00
129	  0.045651305	-3.389200E+01	  0.045651305	4.160500E+01	  0.045651305	5.151400E+01	  0.045651305	1.382000E+00
130	  0.045851704	-3.383900E+01	  0.045851704	4.155200E+01	  0.045851704	5.152500E+01	  0.045851704	1.389000E+00
131	  0.046052106	-3.380800E+01	  0.046052106	4.157600E+01	  0.046052106	5.153000E+01	  0.046052106	1.395000E+00
132	  0.046252504	-3.378000E+01	  0.046252504	4.128800E+01	  0.046252504	5.154200E+01	  0.046252504	1.392000E+00
133	  0.046452906	-3.373500E+01	  0.046452906	4.134700E+01	  0.046452906	5.154900E+01	  0.046452906	1.401000E+00
134	  0.046653304	-3.376900E+01	  0.046653304	4.097000E+01	  0.046653304	5.155200E+01	  0.046653304	1.385000E+00
135	  0.046853706	-3.373500E+01	  0.046853706	4.107100E+01	  0.046853706	5.155500E+01	  0.046853706	1.393000E+00
136	  0.047054108	-3.370100E+01	  0.047054108	4.087300E+01	  0.047054108	5.156700E+01	  0.047054108	1.394000E+00
137	  0.047254506	-3.368800E+01	  0.047254506	4.080500E+01	  0.047254506	5.157100E+01	  0.047254506	1.394000E+00
138	  0.047454908	-3.362000E+01	  0.047454908	4.069100E+01	  0.047454908	5.158600E+01	  0.047454908	1.402000E+00
139	  0.047655310	-3.365100E+01	  0.047655310	4.061200E+01	  0.047655310	5.158200E+01	  0.047655310	1.395000E+00
140	  0.047855709	-3.358400E+01	  0.047855709	4.063700E+01	  0.047855709	5.159400E+01	  0.047855709	1.407000E+00
141	  0.048056111	-3.356800E+01	  0.048056111	4.049800E+01	  0.048056111	5.160000E+01	  0.048056111	1.406000E+00
142	  0.048256513	-3.349700E+01	  0.048256513	4.073100E+01	  0.048256513	5.160800E+01	  0.048256513	1.424000E+00
143	  0.048456915	-3.352500E+01	  0.048456915	4.028600E+01	  0.048456915	5.161400E+01	  0.048456915	1.407000E+00
144	  0.048657313	-3.347500E+01	  0.048657313	4.021000E+01	  0.048657313	5.162500E+01	  0.048657313	1.413000E+00
145	  0.048857715	-3.343900E+01	  0.048857715	3.996900E+01	  0.048857715	5.163800E+01	  0.048857715	1.412000E+00
146	  0.049058117	-3.344100E+01	  0.049058117	4.003100E+01	  0.049058117	5.163600E+01	  0.049058117	1.414000E+00
147	  0.049258515	-3.344100E+01	  0.049258515	3.975400E+01	  0.049258515	5.164300E+01	  0.049258515	1.406000E+00
148	  0.049458917	-3.337700E+01	  0.049458917	3.968300E+01	  0.049458917	5.165700E+01	  0.049458917	1.414000E+00
149	  0.049659319	-3.335000E+01	  0.049659319	3.972400E+01	  0.049659319	5.166100E+01	  0.049659319	1.420000E+00
150	  0.049859721	-3.334800E+01	  0.049859721	3.956500E+01	  0.049859721	5.166600E+01	  0.049859721	1.416000E+00
151	  0.050060119	-3.333600E+01	  0.050060119	3.950000E+01	  0.050060119	5.167000E+01	  0.050060119	1.416000E+00
152	  0.050260521	-3.332100E+01	  0.050260521	3.944800E+01	  0.050260521	5.167400E+01	  0.050260521	1.417000E+00
153	  0.050460923	-3.331300E+01	  0.050460923	3.942000E+01	  0.050460923	5.167600E+01	  0.050460923	1.417000E+00
154	  0.050661322	-3.326900E+01	  0.050661322	3.915500E+01	  0.050661322	5.169200E+01	  0.050661322	1.417000E+00
155	  0.050861724	-3.320000E+01	  0.050861724	3.913300E+01	  0.050861724	5.170600E+01	  0.050861724	1.428000E+00
156	  0.051062126	-3.321700E+01	  0.051062126	3.896600E+01	  0.051062126	5.170700E+01	  0.051062126	1.420000E+00
157	  0.051262524	-3.323100E+01	  0.051262524	3.875300E+01	  0.051262524	5.170900E+01	  0.051262524	1.411000E+00
158	  0.051462926	-3.318500E+01	  0.051462926	3.875800E+01	  0.051462926	5.171800E+01	  0.051462926	1.419000E+00
159	  0.051663328	-3.316900E+01	  0.051663328	3.863600E+01	  0.051663328	5.172500E+01	  0.051663328	1.418000E+00
160	  0.051863730	-3.312600E+01	  0.051863730	3.846700E+01	  0.051863730	5.173800E+01	  0.051863730	1.420000E+00
161	  0.052064128	-3.310800E+01	  0.052064128	3.852600E+01	  0.052064128	5.174000E+01	  0.052064128	1.425000E+00
162	  0.052264530	-3.309700E+01	  0.052264530	3.838500E+01	  0.052264530	5.174500E+01	  0.052264530	1.423000E+00
163	  0.052464932	-3.304800E+01	  0.052464932	3.802600E+01	  0.052464932	5.176500E+01	  0.052464932	1.420000E+00
164	  0.052665330	-3.305500E+01	  0.052665330	3.794900E+01	  0.052665330	5.176500E+01	  0.052665330	1.416000E+00
165	  0.052865732	-3.304500E+01	  0.052865732	3.795700E+01	  0.052865732	5.176700E+01	  0.052865732	1.418000E+00
166	  0.053066134	-3.304600E+01	  0.053066134	3.800900E+01	  0.053066134	5.176500E+01	  0.053066134	1.420000E+00
167	  0.053266536	-3.298200E+01	  0.053266536	3.798900E+01	  0.053266536	5.177900E+01	  0.053266536	1.430000E+00
168	  0.053466935	-3.296500E+01	  0.053466935	3.769300E+01	  0.053466935	5.179000E+01	  0.053466935	1.424000E+00
169	  0.053667337	-3.296900E+01	  0.053667337	3.727700E+01	  0.053667337	5.180000E+01	  0.053667337	1.410000E+00
170	  0.053867739	-3.294200E+01	  0.053867739	3.735700E+01	  0.053867739	5.180400E+01	  0.053867739	1.417000E+00
171	  0.054068137	-3.291200E+01	  0.054068137	3.741000E+01	  0.054068137	5.180900E+01	  0.054068137	1.424000E+00
172	  0.054268539	-3.288100E+01	  0.054268539	3.712600E+01	  0.054268539	5.182300E+01	  0.054268539	1.420000E+00
173	  0.054468941	-3.287800E+01	  0.054468941	3.708800E+01	  0.054468941	5.182400E+01	  0.054468941	1.419000E+00
174	  0.054669339	-3.284600E+01	  0.054669339	3.684200E+01	  0.054669339	5.183700E+01	  0.054669339	1.417000E+00
175	  0.054869737	-3.284400E+01	  0.054869737	3.663500E+01	  0.054869737	5.184300E+01	  0.054869737	1.410000E+00
176	  0.055070139	-3.280200E+01	  0.055070139	3.675200E+01	  0.055070139	5.184900E+01	  0.055070139	1.421000E+00
177	  0.055270538	-3.278300E+01	  0.055270538	3.658400E+01	  0.055270538	5.185700E+01	  0.055270538	1.419000E+00
178	  0.055470940	-3.273100E+01	  0.055470940	3.664300E+01	  0.055470940	5.186700E+01	  0.055470940	1.430000E+00
179	  0.055671342	-3.276800E+01	  0.055671342	3.668200E+01	  0.055671342	5.185800E+01	  0.055671342	1.425000E+00
180	  0.055871744	-3.272400E+01	  0.055871744	3.638400E+01	  0.055871744	5.187500E+01	  0.055871744	1.423000E+00
181	  0.056072142	-3.268600E+01	  0.056072142	3.613200E+01	  0.056072142	5.189000E+01	  0.056072142	1.421000E+00
182	  0.056272544	-3.265700E+01	  0.056272544	3.606000E+01	  0.056272544	5.189800E+01	  0.056272544	1.423000E+00
183	  0.056472946	-3.268100E+01	  0.056472946	3.599300E+01	  0.056472946	5.189500E+01	  0.056472946	1.417000E+00
184	  0.056673344	-3.261900E+01	  0.056673344	3.593300E+01	  0.056673344	5.191000E+01	  0.056673344	1.425000E+00
185	  0.056873746	-3.264900E+01	  0.056873746	3.560300E+01	  0.056873746	5.191200E+01	  0.056873746	1.409000E+00
186	  0.057074148	-3.261100E+01	  0.057074148	3.545800E+01	  0.057074148	5.192400E+01	  0.057074148	1.411000E+00
187	  0.057274550	-3.255600E+01	  0.057274550	3.558500E+01	  0.057274550	5.193300E+01	  0.057274550	1.424000E+00
188	  0.057474948	-3.258100E+01	  0.057474948	3.537800E+01	  0.057474948	5.193300E+01	  0.057474948	1.413000E+00
189	  0.057675350	-3.253400E+01	  0.057675350	3.520500E+01	  0.057675350	5.194800E+01	  0.057675350	1.415000E+00
190	  0.057875752	-3.254700E+01	  0.057875752	3.512200E+01	  0.057875752	5.194700E+01	  0.057875752	1.410000E+00
191	  0.058076151	-3.250200E+01	  0.058076151	3.502400E+01	  0.058076151	5.196000E+01	  0.058076151	1.414000E+00
192	  0.058276553	-3.250700E+01	  0.058276553	3.477900E+01	  0.058276553	5.196500E+01	  0.058276553	1.405000E+00
193	  0.058476955	-3.248000E+01	  0.058476955	3.471100E+01	  0.058476955	5.197300E+01	  0.058476955	1.407000E+00
194	  0.058677353	-3.248700E+01	  0.058677353	3.480800E+01	  0.058677353	5.196900E+01	  0.058677353	1.409000E+00
195	  0.058877755	-3.246000E+01	  0.058877755	3.441100E+01	  0.058877755	5.198500E+01	  0.058877755	1.400000E+00
196	  0.059078157	-3.245200E+01	  0.059078157	3.434100E+01	  0.059078157	5.198900E+01	  0.059078157	1.399000E+00
197	  0.059278559	-3.243600E+01	  0.059278559	3.433100E+01	  0.059278559	5.199300E+01	  0.059278559	1.401000E+00
198	  0.059478957	-3.238300E+01	  0.059478957	3.411000E+01	  0.059478957	5.201000E+01	  0.059478957	1.402000E+00
199	  0.059679359	-3.238100E+01	  0.059679359	3.408000E+01	  0.059679359	5.201200E+01	  0.059679359	1.402000E+00
200	  0.059879761	-3.237200E+01	  0.059879761	3.416700E+01	  0.059879761	5.201200E+01	  0.059879761	1.406000E+00
201	  0.060080159	-3.232700E+01	  0.060080159	3.378200E+01	  0.060080159	5.203200E+01	  0.060080159	1.400000E+00
202	  0.060280561	-3.227600E+01	  0.060280561	3.392600E+01	  0.060280561	5.204000E+01	  0.060280561	1.414000E+00
203	  0.060480963	-3.229200E+01	  0.060480963	3.372500E+01	  0.060480963	5.204200E+01	  0.060480963	1.404000E+00
204	  0.060681365	-3.227500E+01	  0.060681365	3.356900E+01	  0.060681365	5.205000E+01	  0.060681365	1.401000E+00
205	  0.060881764	-3.226400E+01	  0.060881764	3.332100E+01	  0.060881764	5.205900E+01	  0.060881764	1.394000E+00
206	  0.061082166	-3.227000E+01	  0.061082166	3.314400E+01	  0.061082166	5.206200E+01	  0.061082166	1.386000E+00
207	  0.061282568	-3.221800E+01	  0.061282568	3.307500E+01	  0.061282568	5.207600E+01	  0.061282568	1.393000E+00
208	  0.061482966	-3.221300E+01	  0.061482966	3.284400E+01	  0.061482966	5.208300E+01	  0.061482966	1.385000E+00
209	  0.061683368	-3.219500E+01	  0.061683368	3.291000E+01	  0.061683368	5.208600E+01	  0.061683368	1.390000E+00
210	  0.061883770	-3.217200E+01	  0.061883770	3.288100E+01	  0.061883770	5.209200E+01	  0.061883770	1.393000E+00
211	  0.062084168	-3.215000E+01	  0.062084168	3.266400E+01	  0.062084168	5.210300E+01	  0.062084168	1.389000E+00
212	  0.062284570	-3.217600E+01	  0.062284570	3.269300E+01	  0.062284570	5.209600E+01	  0.062284570	1.386000E+00
213	  0.062484972	-3.212800E+01	  0.062484972	3.261900E+01	  0.062484972	5.211000E+01	  0.062484972	1.391000E+00
214	  0.062685370	-3.208600E+01	  0.062685370	3.258200E+01	  0.062685370	5.212100E+01	  0.062685370	1.397000E+00
215	  0.062885776	-3.208300E+01	  0.062885776	3.237800E+01	  0.062885776	5.212700E+01	  0.062885776	1.389000E+00
216	  0.063086174	-3.206800E+01	  0.063086174	3.233400E+01	  0.063086174	5.213100E+01	  0.063086174	1.390000E+00
217	  0.063286573	-3.201100E+01	  0.063286573	3.207400E+01	  0.063286573	5.215300E+01	  0.063286573	1.390000E+00
218	  0.063486971	-3.205700E+01	  0.063486971	3.212500E+01	  0.063486971	5.214000E+01	  0.063486971	1.384000E+00
219	  0.063687377	-3.205600E+01	  0.063687377	3.203900E+01	  0.063687377	5.214200E+01	  0.063687377	1.381000E+00
220	  0.063887775	-3.199400E+01	  0.063887775	3.156100E+01	  0.063887775	5.217000E+01	  0.063887775	1.373000E+00
221	  0.064088173	-3.198600E+01	  0.064088173	3.152400E+01	  0.064088173	5.217200E+01	  0.064088173	1.373000E+00
222	  0.064288579	-3.198200E+01	  0.064288579	3.140600E+01	  0.064288579	5.217700E+01	  0.064288579	1.369000E+00
223	  0.064488977	-3.197300E+01	  0.064488977	3.149600E+01	  0.064488977	5.217700E+01	  0.064488977	1.374000E+00
224	  0.064689375	-3.193700E+01	  0.064689375	3.171700E+01	  0.064689375	5.218000E+01	  0.064689375	1.389000E+00
225	  0.064889781	-3.193000E+01	  0.064889781	3.106100E+01	  0.064889781	5.219800E+01	  0.064889781	1.364000E+00
226	  0.065090179	-3.190200E+01	  0.065090179	3.101100E+01	  0.065090179	5.220700E+01	  0.065090179	1.367000E+00
227	  0.065290578	-3.188600E+01	  0.065290578	3.107900E+01	  0.065290578	5.220900E+01	  0.065290578	1.372000E+00
228	  0.065490983	-3.187300E+01	  0.065490983	3.091700E+01	  0.065490983	5.221700E+01	  0.065490983	1.368000E+00
229	  0.065691382	-3.189800E+01	  0.065691382	3.062000E+01	  0.065691382	5.221800E+01	  0.065691382	1.352000E+00
230	  0.065891780	-3.182700E+01	  0.065891780	3.037900E+01	  0.065891780	5.224200E+01	  0.065891780	1.354000E+00
231	  0.066092186	-3.181300E+01	  0.066092186	3.046500E+01	  0.066092186	5.224400E+01	  0.066092186	1.360000E+00
232	  0.066292584	-3.179800E+01	  0.066292584	3.032900E+01	  0.066292584	5.225100E+01	  0.066292584	1.357000E+00
233	  0.066492982	-3.181300E+01	  0.066492982	3.017100E+01	  0.066492982	5.225100E+01	  0.066492982	1.348000E+00
234	  0.066693388	-3.179100E+01	  0.066693388	3.034900E+01	  0.066693388	5.225200E+01	  0.066693388	1.359000E+00
235	  0.066893786	-3.176200E+01	  0.066893786	3.028100E+01	  0.066893786	5.226100E+01	  0.066893786	1.361000E+00
236	  0.067094192	-3.174900E+01	  0.067094192	3.000700E+01	  0.067094192	5.227200E+01	  0.067094192	1.352000E+00
237	  0.067294590	-3.169500E+01	  0.067294590	2.974100E+01	  0.067294590	5.229300E+01	  0.067294590	1.350000E+00
238	  0.067494988	-3.172400E+01	  0.067494988	2.971900E+01	  0.067494988	5.228600E+01	  0.067494988	1.345000E+00
239	  0.067695394	-3.169000E+01	  0.067695394	2.956100E+01	  0.067695394	5.229900E+01	  0.067695394	1.344000E+00
240	  0.067895792	-3.166900E+01	  0.067895792	2.928400E+01	  0.067895792	5.231100E+01	  0.067895792	1.336000E+00
241	  0.068096191	-3.165000E+01	  0.068096191	2.915800E+01	  0.068096191	5.231900E+01	  0.068096191	1.334000E+00
242	  0.068296596	-3.167800E+01	  0.068296596	2.922900E+01	  0.068296596	5.231000E+01	  0.068296596	1.332000E+00
243	  0.068496995	-3.165600E+01	  0.068496995	2.862800E+01	  0.068496995	5.233000E+01	  0.068496995	1.311000E+00
244	  0.068697393	-3.160600E+01	  0.068697393	2.907000E+01	  0.068697393	5.233300E+01	  0.068697393	1.337000E+00
245	  0.068897791	-3.160500E+01	  0.068897791	2.855400E+01	  0.068897791	5.234600E+01	  0.068897791	1.316000E+00
246	  0.069098189	-3.159200E+01	  0.069098189	2.842100E+01	  0.069098189	5.235300E+01	  0.069098189	1.312000E+00
247	  0.069298595	-3.157800E+01	  0.069298595	2.835300E+01	  0.069298595	5.235800E+01	  0.069298595	1.312000E+00
248	  0.069498993	-3.159100E+01	  0.069498993	2.822200E+01	  0.069498993	5.235800E+01	  0.069498993	1.304000E+00
249	  0.069699399	-3.156500E+01	  0.069699399	2.791900E+01	  0.069699399	5.237200E+01	  0.069699399	1.296000E+00
250	  0.069899797	-3.153100E+01	  0.069899797	2.759800E+01	  0.069899797	5.238900E+01	  0.069899797	1.287000E+00
251	  0.070100196	-3.150700E+01	  0.070100196	2.750100E+01	  0.070100196	5.239800E+01	  0.070100196	1.287000E+00
252	  0.070300601	-3.146400E+01	  0.070300601	2.772900E+01	  0.070300601	5.240500E+01	  0.070300601	1.303000E+00
253	  0.070501000	-3.148500E+01	  0.070501000	2.804200E+01	  0.070501000	5.239100E+01	  0.070501000	1.313000E+00
254	  0.070701398	-3.147300E+01	  0.070701398	2.769900E+01	  0.070701398	5.240300E+01	  0.070701398	1.301000E+00
255	  0.070901804	-3.143000E+01	  0.070901804	2.754600E+01	  0.070901804	5.241900E+01	  0.070901804	1.301000E+00
256	  0.071102202	-3.144300E+01	  0.071102202	2.734400E+01	  0.071102202	5.242000E+01	  0.071102202	1.290000E+00
257	  0.071302600	-3.141700E+01	  0.071302600	2.700300E+01	  0.071302600	5.243500E+01	  0.071302600	1.279000E+00
258	  0.071503006	-3.147900E+01	  0.071503006	2.692700E+01	  0.071503006	5.242000E+01	  0.071503006	1.267000E+00
259	  0.071703404	-3.137200E+01	  0.071703404	2.692100E+01	  0.071703404	5.245000E+01	  0.071703404	1.283000E+00
260	  0.071903802	-3.135000E+01	  0.071903802	2.685100E+01	  0.071903802	5.245800E+01	  0.071903802	1.283000E+00
261	  0.072104208	-3.137600E+01	  0.072104208	2.674200E+01	  0.072104208	5.245300E+01	  0.072104208	1.274000E+00
262	  0.072304606	-3.133300E+01	  0.072304606	2.663600E+01	  0.072304606	5.246800E+01	  0.072304606	1.276000E+00
263	  0.072505005	-3.130600E+01	  0.072505005	2.647000E+01	  0.072505005	5.248000E+01	  0.072505005	1.273000E+00
264	  0.072705410	-3.132800E+01	  0.072705410	2.637600E+01	  0.072705410	5.247600E+01	  0.072705410	1.266000E+00
265	  0.072905809	-3.138100E+01	  0.072905809	2.633400E+01	  0.072905809	5.246100E+01	  0.072905809	1.256000E+00
266	  0.073106214	-3.131500E+01	  0.073106214	2.588600E+01	  0.073106214	5.249100E+01	  0.073106214	1.246000E+00
267	  0.073306613	-3.124700E+01	  0.073306613	2.584400E+01	  0.073306613	5.251200E+01	  0.073306613	1.255000E+00
268	  0.073507011	-3.128900E+01	  0.073507011	2.578400E+01	  0.073507011	5.250100E+01	  0.073507011	1.245000E+00
269	  0.073707417	-3.125200E+01	  0.073707417	2.545400E+01	  0.073707417	5.251900E+01	  0.073707417	1.236000E+00
270	  0.073907815	-3.128600E+01	  0.073907815	2.573700E+01	  0.073907815	5.250300E+01	  0.073907815	1.244000E+00
271	  0.074108213	-3.124700E+01	  0.074108213	2.552900E+01	  0.074108213	5.251900E+01	  0.074108213	1.240000E+00
272	  0.074308619	-3.123300E+01	  0.074308619	2.536800E+01	  0.074308619	5.252700E+01	  0.074308619	1.235000E+00
273	  0.074509017	-3.117300E+01	  0.074509017	2.496800E+01	  0.074509017	5.255400E+01	  0.074509017	1.226000E+00
274	  0.074709415	-3.117500E+01	  0.074709415	2.498700E+01	  0.074709415	5.255300E+01	  0.074709415	1.227000E+00
275	  0.074909821	-3.114500E+01	  0.074909821	2.491000E+01	  0.074909821	5.256300E+01	  0.074909821	1.228000E+00
276	  0.075110219	-3.113300E+01	  0.075110219	2.486200E+01	  0.075110219	5.256800E+01	  0.075110219	1.227000E+00
277	  0.075310618	-3.113600E+01	  0.075310618	2.441900E+01	  0.075310618	5.257700E+01	  0.075310618	1.207000E+00
278	  0.075511023	-3.112700E+01	  0.075511023	2.456000E+01	  0.075511023	5.257700E+01	  0.075511023	1.214000E+00
279	  0.075711422	-3.112900E+01	  0.075711422	2.434200E+01	  0.075711422	5.258100E+01	  0.075711422	1.204000E+00
280	  0.075911827	-3.112200E+01	  0.075911827	2.415000E+01	  0.075911827	5.258700E+01	  0.075911827	1.196000E+00
281	  0.076112226	-3.108800E+01	  0.076112226	2.413500E+01	  0.076112226	5.259800E+01	  0.076112226	1.200000E+00
282	  0.076312624	-3.105900E+01	  0.076312624	2.372100E+01	  0.076312624	5.261600E+01	  0.076312624	1.185000E+00
283	  0.076513030	-3.103200E+01	  0.076513030	2.401400E+01	  0.076513030	5.261800E+01	  0.076513030	1.203000E+00
284	  0.076713428	-3.102100E+01	  0.076713428	2.372800E+01	  0.076713428	5.262700E+01	  0.076713428	1.191000E+00
285	  0.076913826	-3.100100E+01	  0.076913826	2.385600E+01	  0.076913826	5.263100E+01	  0.076913826	1.200000E+00
286	  0.077114232	-3.103400E+01	  0.077114232	2.326600E+01	  0.077114232	5.263300E+01	  0.077114232	1.168000E+00
287	  0.077314630	-3.100600E+01	  0.077314630	2.356600E+01	  0.077314630	5.263600E+01	  0.077314630	1.186000E+00
288	  0.077515028	-3.096500E+01	  0.077515028	2.325900E+01	  0.077515028	5.265500E+01	  0.077515028	1.177000E+00
289	  0.077715434	-3.095600E+01	  0.077715434	2.307900E+01	  0.077715434	5.266200E+01	  0.077715434	1.170000E+00
290	  0.077915832	-3.091600E+01	  0.077915832	2.276200E+01	  0.077915832	5.268100E+01	  0.077915832	1.161000E+00
291	  0.078116231	-3.094300E+01	  0.078116231	2.296000E+01	  0.078116231	5.266800E+01	  0.078116231	1.166000E+00
292	  0.078316636	-3.091400E+01	  0.078316636	2.260200E+01	  0.078316636	5.268500E+01	  0.078316636	1.153000E+00
293	  0.078517035	-3.091900E+01	  0.078517035	2.263400E+01	  0.078517035	5.268300E+01	  0.078517035	1.154000E+00
294	  0.078717433	-3.091000E+01	  0.078717433	2.273000E+01	  0.078717433	5.268400E+01	  0.078717433	1.160000E+00
295	  0.078917839	-3.086700E+01	  0.078917839	2.197100E+01	  0.078917839	5.271300E+01	  0.078917839	1.129000E+00
296	  0.079118237	-3.088100E+01	  0.079118237	2.211700E+01	  0.079118237	5.270600E+01	  0.079118237	1.134000E+00
297	  0.079318643	-3.081800E+01	  0.079318643	2.228400E+01	  0.079318643	5.272200E+01	  0.079318643	1.151000E+00
298	  0.079519041	-3.082100E+01	  0.079519041	2.180300E+01	  0.079519041	5.273200E+01	  0.079519041	1.127000E+00
299	  0.079719439	-3.077400E+01	  0.079719439	2.187100E+01	  0.079719439	5.274500E+01	  0.079719439	1.137000E+00
300	  0.079919845	-3.079600E+01	  0.079919845	2.200400E+01	  0.079919845	5.273500E+01	  0.079919845	1.141000E+00
301	  0.080120243	-3.078600E+01	  0.080120243	2.141400E+01	  0.080120243	5.275100E+01	  0.080120243	1.113000E+00
302	  0.080320641	-3.081000E+01	  0.080320641	2.157400E+01	  0.080320641	5.274000E+01	  0.080320641	1.118000E+00
303	  0.080521047	-3.073600E+01	  0.080521047	2.151400E+01	  0.080521047	5.276500E+01	  0.080521047	1.125000E+00
304	  0.080721445	-3.073300E+01	  0.080721445	2.110300E+01	  0.080721445	5.277400E+01	  0.080721445	1.105000E+00
305	  0.080921844	-3.071400E+01	  0.080921844	2.097600E+01	  0.080921844	5.278300E+01	  0.080921844	1.101000E+00
306	  0.081122249	-3.073900E+01	  0.081122249	2.121800E+01	  0.081122249	5.277000E+01	  0.081122249	1.110000E+00
307	  0.081322648	-3.071500E+01	  0.081322648	2.077100E+01	  0.081322648	5.278700E+01	  0.081322648	1.091000E+00
308	  0.081523046	-3.067600E+01	  0.081523046	2.070000E+01	  0.081523046	5.280100E+01	  0.081523046	1.092000E+00
309	  0.081723452	-3.068900E+01	  0.081723452	2.048600E+01	  0.081723452	5.280100E+01	  0.081723452	1.080000E+00
310	  0.081923850	-3.067100E+01	  0.081923850	2.038800E+01	  0.081923850	5.280900E+01	  0.081923850	1.078000E+00
311	  0.082124248	-3.065900E+01	  0.082124248	2.040300E+01	  0.082124248	5.281300E+01	  0.082124248	1.080000E+00
312	  0.082324654	-3.067500E+01	  0.082324654	2.023400E+01	  0.082324654	5.281100E+01	  0.082324654	1.069000E+00
313	  0.082525052	-3.066900E+01	  0.082525052	1.997400E+01	  0.082525052	5.281800E+01	  0.082525052	1.057000E+00
314	  0.082725458	-3.061900E+01	  0.082725458	2.010000E+01	  0.082725458	5.283200E+01	  0.082725458	1.070000E+00
315	  0.082925856	-3.062900E+01	  0.082925856	1.973000E+01	  0.082925856	5.283600E+01	  0.082925856	1.050000E+00
316	  0.083126254	-3.058000E+01	  0.083126254	1.974700E+01	  0.083126254	5.285200E+01	  0.083126254	1.057000E+00
317	  0.083326660	-3.059600E+01	  0.083326660	1.947600E+01	  0.083326660	5.285200E+01	  0.083326660	1.041000E+00
318	  0.083527058	-3.057400E+01	  0.083527058	1.934400E+01	  0.083527058	5.286200E+01	  0.083527058	1.037000E+00
319	  0.083727457	-3.056500E+01	  0.083727457	1.927400E+01	  0.083727457	5.286600E+01	  0.083727457	1.034000E+00
320	  0.083927862	-3.056700E+01	  0.083927862	1.918600E+01	  0.083927862	5.286700E+01	  0.083927862	1.030000E+00
321	  0.084128261	-3.054100E+01	  0.084128261	1.913800E+01	  0.084128261	5.287700E+01	  0.084128261	1.031000E+00
322	  0.084328659	-3.055600E+01	  0.084328659	1.904800E+01	  0.084328659	5.287400E+01	  0.084328659	1.024000E+00
323	  0.084529065	-3.049800E+01	  0.084529065	1.894300E+01	  0.084529065	5.289500E+01	  0.084529065	1.026000E+00
324	  0.084729463	-3.052100E+01	  0.084729463	1.852500E+01	  0.084729463	5.289600E+01	  0.084729463	1.001000E+00
325	  0.084929861	-3.050500E+01	  0.084929861	1.846400E+01	  0.084929861	5.290200E+01	  0.084929861	1.000000E+00
326	  0.085130267	-3.049000E+01	  0.085130267	1.844500E+01	  0.085130267	5.290800E+01	  0.085130267	1.001000E+00
327	  0.085330658	-3.047500E+01	  0.085330658	1.839300E+01	  0.085330658	5.291400E+01	  0.085330658	1.000000E+00
328	  0.085531056	-3.044100E+01	  0.085531056	1.811400E+01	  0.085531056	5.293000E+01	  0.085531056	9.900000E-01
329	  0.085731462	-3.043800E+01	  0.085731462	1.801300E+01	  0.085731462	5.293300E+01	  0.085731462	9.850000E-01
330	  0.085931860	-3.044100E+01	  0.085931860	1.793700E+01	  0.085931860	5.293400E+01	  0.085931860	9.800000E-01
331	  0.086132258	-3.041100E+01	  0.086132258	1.787500E+01	  0.086132258	5.294500E+01	  0.086132258	9.810000E-01
332	  0.086332664	-3.044000E+01	  0.086332664	1.761100E+01	  0.086332664	5.294000E+01	  0.086332664	9.630000E-01
333	  0.086533062	-3.040200E+01	  0.086533062	1.756200E+01	  0.086533062	5.295400E+01	  0.086533062	9.650000E-01
334	  0.086733460	-3.039900E+01	  0.086733460	1.748000E+01	  0.086733460	5.295700E+01	  0.086733460	9.610000E-01
335	  0.086933866	-3.036400E+01	  0.086933866	1.726600E+01	  0.086933866	5.297300E+01	  0.086933866	9.540000E-01
336	  0.087134264	-3.036800E+01	  0.087134264	1.706000E+01	  0.087134264	5.297500E+01	  0.087134264	9.420000E-01
337	  0.087334670	-3.035200E+01	  0.087334670	1.691600E+01	  0.087334670	5.298300E+01	  0.087334670	9.370000E-01
338	  0.087535068	-3.035000E+01	  0.087535068	1.698300E+01	  0.087535068	5.298300E+01	  0.087535068	9.400000E-01
339	  0.087735467	-3.036000E+01	  0.087735467	1.685700E+01	  0.087735467	5.298100E+01	  0.087735467	9.330000E-01
340	  0.087935872	-3.035200E+01	  0.087935872	1.673100E+01	  0.087935872	5.298600E+01	  0.087935872	9.270000E-01
341	  0.088136271	-3.034100E+01	  0.088136271	1.650300E+01	  0.088136271	5.299400E+01	  0.088136271	9.160000E-01
342	  0.088336669	-3.026800E+01	  0.088336669	1.654300E+01	  0.088336669	5.301900E+01	  0.088336669	9.260000E-01
343	  0.088537075	-3.027000E+01	  0.088537075	1.633400E+01	  0.088537075	5.302200E+01	  0.088537075	9.150000E-01
344	  0.088737473	-3.027400E+01	  0.088737473	1.612800E+01	  0.088737473	5.302400E+01	  0.088737473	9.030000E-01
345	  0.088937871	-3.028300E+01	  0.088937871	1.608400E+01	  0.088937871	5.302200E+01	  0.088937871	9.000000E-01
346	  0.089138277	-3.024300E+01	  0.089138277	1.592000E+01	  0.089138277	5.303900E+01	  0.089138277	8.950000E-01
347	  0.089338675	-3.023200E+01	  0.089338675	1.595300E+01	  0.089338675	5.304200E+01	  0.089338675	8.980000E-01
348	  0.089539073	-3.026400E+01	  0.089539073	1.585300E+01	  0.089539073	5.303200E+01	  0.089539073	8.890000E-01
349	  0.089739479	-3.023600E+01	  0.089739479	1.574500E+01	  0.089739479	5.304400E+01	  0.089739479	8.860000E-01
350	  0.089939877	-3.023600E+01	  0.089939877	1.555800E+01	  0.089939877	5.304700E+01	  0.089939877	8.760000E-01
351	  0.090140276	-3.019200E+01	  0.090140276	1.536400E+01	  0.090140276	5.306600E+01	  0.090140276	8.700000E-01
352	  0.090340681	-3.021000E+01	  0.090340681	1.534800E+01	  0.090340681	5.306000E+01	  0.090340681	8.670000E-01
353	  0.090541080	-3.017900E+01	  0.090541080	1.489200E+01	  0.090541080	5.307900E+01	  0.090541080	8.450000E-01
354	  0.090741485	-3.019100E+01	  0.090741485	1.482800E+01	  0.090741485	5.307500E+01	  0.090741485	8.410000E-01
355	  0.090941884	-3.015900E+01	  0.090941884	1.497600E+01	  0.090941884	5.308500E+01	  0.090941884	8.520000E-01
356	  0.091142282	-3.016600E+01	  0.091142282	1.471100E+01	  0.091142282	5.308600E+01	  0.091142282	8.370000E-01
357	  0.091342688	-3.014400E+01	  0.091342688	1.456600E+01	  0.091342688	5.309600E+01	  0.091342688	8.310000E-01
358	  0.091543086	-3.017000E+01	  0.091543086	1.453400E+01	  0.091543086	5.308700E+01	  0.091543086	8.270000E-01
359	  0.091743484	-3.012400E+01	  0.091743484	1.435900E+01	  0.091743484	5.310700E+01	  0.091743484	8.210000E-01
360	  0.091943890	-3.013500E+01	  0.091943890	1.420200E+01	  0.091943890	5.310500E+01	  0.091943890	8.120000E-01
361	  0.092144288	-3.010800E+01	  0.092144288	1.405500E+01	  0.092144288	5.311700E+01	  0.092144288	8.060000E-01
362	  0.092344686	-3.012100E+01	  0.092344686	1.401200E+01	  0.092344686	5.311300E+01	  0.092344686	8.020000E-01
363	  0.092545092	-3.009000E+01	  0.092545092	1.362200E+01	  0.092545092	5.313000E+01	  0.092545092	7.830000E-01
364	  0.092745490	-3.009000E+01	  0.092745490	1.378800E+01	  0.092745490	5.312800E+01	  0.092745490	7.930000E-01
365	  0.092945889	-3.008900E+01	  0.092945889	1.354900E+01	  0.092945889	5.313200E+01	  0.092945889	7.790000E-01
366	  0.093146294	-3.007800E+01	  0.093146294	1.340700E+01	  0.093146294	5.313800E+01	  0.093146294	7.720000E-01
367	  0.093346693	-3.008200E+01	  0.093346693	1.351500E+01	  0.093346693	5.313500E+01	  0.093346693	7.780000E-01
368	  0.093547091	-3.005300E+01	  0.093547091	1.332500E+01	  0.093547091	5.314900E+01	  0.093547091	7.700000E-01
369	  0.093747497	-3.005500E+01	  0.093747497	1.302900E+01	  0.093747497	5.315200E+01	  0.093747497	7.530000E-01
370	  0.093947895	-3.002400E+01	  0.093947895	1.297500E+01	  0.093947895	5.316400E+01	  0.093947895	7.530000E-01
371	  0.094148301	-3.001800E+01	  0.094148301	1.289400E+01	  0.094148301	5.316800E+01	  0.094148301	7.490000E-01
372	  0.094348699	-3.001000E+01	  0.094348699	1.263800E+01	  0.094348699	5.317400E+01	  0.094348699	7.350000E-01
373	  0.094549097	-3.000400E+01	  0.094549097	1.263400E+01	  0.094549097	5.317700E+01	  0.094549097	7.350000E-01
374	  0.094749503	-2.998600E+01	  0.094749503	1.255300E+01	  0.094749503	5.318500E+01	  0.094749503	7.330000E-01
375	  0.094949901	-2.997300E+01	  0.094949901	1.232900E+01	  0.094949901	5.319200E+01	  0.094949901	7.210000E-01
376	  0.095150299	-2.997900E+01	  0.095150299	1.249400E+01	  0.095150299	5.318800E+01	  0.095150299	7.300000E-01
377	  0.095350705	-2.996700E+01	  0.095350705	1.225400E+01	  0.095350705	5.319600E+01	  0.095350705	7.170000E-01
378	  0.095551103	-2.997100E+01	  0.095551103	1.226700E+01	  0.095551103	5.319400E+01	  0.095551103	7.170000E-01
379	  0.095751502	-2.996500E+01	  0.095751502	1.192000E+01	  0.095751502	5.320100E+01	  0.095751502	6.980000E-01
380	  0.095951907	-2.994900E+01	  0.095951907	1.167500E+01	  0.095951907	5.321000E+01	  0.095951907	6.850000E-01
381	  0.096152306	-2.992800E+01	  0.096152306	1.178400E+01	  0.096152306	5.321700E+01	  0.096152306	6.930000E-01
382	  0.096352704	-2.993200E+01	  0.096352704	1.176600E+01	  0.096352704	5.321500E+01	  0.096352704	6.920000E-01
383	  0.096553110	-2.989300E+01	  0.096553110	1.132400E+01	  0.096553110	5.323600E+01	  0.096553110	6.690000E-01
384	  0.096753508	-2.991800E+01	  0.096753508	1.116800E+01	  0.096753508	5.322800E+01	  0.096753508	6.580000E-01
385	  0.096953906	-2.990800E+01	  0.096953906	1.107700E+01	  0.096953906	5.323300E+01	  0.096953906	6.540000E-01
386	  0.097154312	-2.986300E+01	  0.097154312	1.123900E+01	  0.097154312	5.324900E+01	  0.097154312	6.670000E-01
387	  0.097354710	-2.988200E+01	  0.097354710	1.098800E+01	  0.097354710	5.324400E+01	  0.097354710	6.510000E-01
388	  0.097555116	-2.987800E+01	  0.097555116	1.086200E+01	  0.097555116	5.324700E+01	  0.097555116	6.440000E-01
389	  0.097755514	-2.985700E+01	  0.097755514	1.073500E+01	  0.097755514	5.325700E+01	  0.097755514	6.380000E-01
390	  0.097955912	-2.987000E+01	  0.097955912	1.035700E+01	  0.097955912	5.325600E+01	  0.097955912	6.150000E-01
391	  0.098156318	-2.985300E+01	  0.098156318	1.046000E+01	  0.098156318	5.326200E+01	  0.098156318	6.220000E-01
392	  0.098356716	-2.980000E+01	  0.098356716	1.041500E+01	  0.098356716	5.328300E+01	  0.098356716	6.240000E-01
393	  0.098557115	-2.981000E+01	  0.098557115	1.057600E+01	  0.098557115	5.327700E+01	  0.098557115	6.320000E-01
394	  0.098757520	-2.979400E+01	  0.098757520	9.982000E+00	  0.098757520	5.329000E+01	  0.098757520	5.980000E-01
395	  0.098957919	-2.980200E+01	  0.098957919	1.013300E+01	  0.098957919	5.328500E+01	  0.098957919	6.070000E-01
396	  0.099158317	-2.981300E+01	  0.099158317	9.931000E+00	  0.099158317	5.328300E+01	  0.099158317	5.940000E-01
397	  0.099358723	-2.979200E+01	  0.099358723	9.912000E+00	  0.099358723	5.329100E+01	  0.099358723	5.940000E-01
398	  0.099559121	-2.978700E+01	  0.099559121	9.669000E+00	  0.099559121	5.329600E+01	  0.099559121	5.800000E-01
399	  0.099759519	-2.973700E+01	  0.099759519	9.428000E+00	  0.099759519	5.331800E+01	  0.099759519	5.690000E-01
400	  0.099959925	-2.974800E+01	  0.099959925	9.443000E+00	  0.099959925	5.331400E+01	  0.099959925	5.700000E-01
401	  0.100160323	-2.975500E+01	  0.100160323	9.136000E+00	  0.100160323	5.331400E+01	  0.100160323	5.510000E-01
402	  0.100360721	-2.976000E+01	  0.100360721	9.341000E+00	  0.100360721	5.331000E+01	  0.100360721	5.630000E-01
403	  0.100561127	-2.975400E+01	  0.100561127	9.119000E+00	  0.100561127	5.331500E+01	  0.100561127	5.500000E-01
404	  0.100761525	-2.976800E+01	  0.100761525	9.185000E+00	  0.100761525	5.330900E+01	  0.100761525	5.530000E-01
405	  0.100961931	-2.974000E+01	  0.100961931	8.940000E+00	  0.100961931	5.332200E+01	  0.100961931	5.400000E-01
406	  0.101162329	-2.973500E+01	  0.101162329	8.928000E+00	  0.101162329	5.332400E+01	  0.101162329	5.400000E-01
407	  0.101362728	-2.968900E+01	  0.101362728	9.057000E+00	  0.101362728	5.334100E+01	  0.101362728	5.500000E-01
408	  0.101563133	-2.971700E+01	  0.101563133	8.335000E+00	  0.101563133	5.333700E+01	  0.101563133	5.050000E-01
409	  0.101763532	-2.967900E+01	  0.101763532	8.584000E+00	  0.101763532	5.335000E+01	  0.101763532	5.230000E-01
410	  0.101963930	-2.969000E+01	  0.101963930	8.434000E+00	  0.101963930	5.334700E+01	  0.101963930	5.130000E-01
411	  0.102164336	-2.969400E+01	  0.102164336	8.057000E+00	  0.102164336	5.334900E+01	  0.102164336	4.900000E-01
412	  0.102364734	-2.963600E+01	  0.102364734	7.963000E+00	  0.102364734	5.337300E+01	  0.102364734	4.880000E-01
413	  0.102565132	-2.961800E+01	  0.102565132	7.836000E+00	  0.102565132	5.338200E+01	  0.102565132	4.810000E-01
414	  0.102765530	-2.969200E+01	  0.102765530	7.966000E+00	  0.102765530	5.335100E+01	  0.102765530	4.850000E-01
415	  0.102965929	-2.969000E+01	  0.102965929	7.651000E+00	  0.102965929	5.335400E+01	  0.102965929	4.660000E-01
416	  0.103166327	-2.963800E+01	  0.103166327	7.713000E+00	  0.103166327	5.337400E+01	  0.103166327	4.720000E-01
417	  0.103366733	-2.960800E+01	  0.103366733	7.466000E+00	  0.103366733	5.338900E+01	  0.103366733	4.590000E-01
418	  0.103567131	-2.965500E+01	  0.103567131	7.246000E+00	  0.103567131	5.337200E+01	  0.103567131	4.430000E-01
419	  0.103767529	-2.963500E+01	  0.103767529	7.395000E+00	  0.103767529	5.337800E+01	  0.103767529	4.530000E-01
420	  0.103967935	-2.959000E+01	  0.103967935	7.194000E+00	  0.103967935	5.339800E+01	  0.103967935	4.430000E-01
421	  0.104168333	-2.965400E+01	  0.104168333	7.216000E+00	  0.104168333	5.337200E+01	  0.104168333	4.410000E-01
422	  0.104368731	-2.961900E+01	  0.104368731	6.925000E+00	  0.104368731	5.338900E+01	  0.104368731	4.250000E-01
423	  0.104569137	-2.964700E+01	  0.104569137	7.119000E+00	  0.104569137	5.337600E+01	  0.104569137	4.360000E-01
424	  0.104769535	-2.962500E+01	  0.104769535	6.416000E+00	  0.104769535	5.339000E+01	  0.104769535	3.940000E-01
425	  0.104969934	-2.963100E+01	  0.104969934	6.801000E+00	  0.104969934	5.338500E+01	  0.104969934	4.170000E-01
426	  0.105170339	-2.958000E+01	  0.105170339	6.718000E+00	  0.105170339	5.340600E+01	  0.105170339	4.150000E-01
427	  0.105370738	-2.961000E+01	  0.105370738	6.375000E+00	  0.105370738	5.339600E+01	  0.105370738	3.920000E-01
428	  0.105571143	-2.954800E+01	  0.105571143	6.079000E+00	  0.105571143	5.342400E+01	  0.105571143	3.770000E-01
429	  0.105771542	-2.963600E+01	  0.105771542	6.051000E+00	  0.105771542	5.338900E+01	  0.105771542	3.710000E-01
430	  0.105971940	-2.963900E+01	  0.105971940	6.002000E+00	  0.105971940	5.338800E+01	  0.105971940	3.680000E-01
431	  0.106172346	-2.958600E+01	  0.106172346	5.754000E+00	  0.106172346	5.341100E+01	  0.106172346	3.550000E-01
432	  0.106372744	-2.959700E+01	  0.106372744	5.757000E+00	  0.106372744	5.340600E+01	  0.106372744	3.550000E-01
433	  0.106573142	-2.957900E+01	  0.106573142	5.476000E+00	  0.106573142	5.341500E+01	  0.106573142	3.380000E-01
434	  0.106773548	-2.955600E+01	  0.106773548	5.371000E+00	  0.106773548	5.342500E+01	  0.106773548	3.330000E-01
435	  0.106973946	-2.956300E+01	  0.106973946	5.211000E+00	  0.106973946	5.342400E+01	  0.106973946	3.230000E-01
436	  0.107174344	-2.956900E+01	  0.107174344	5.124000E+00	  0.107174344	5.342200E+01	  0.107174344	3.170000E-01
437	  0.107374750	-2.953100E+01	  0.107374750	5.037000E+00	  0.107374750	5.343800E+01	  0.107374750	3.130000E-01
438	  0.107575148	-2.953200E+01	  0.107575148	5.210000E+00	  0.107575148	5.343600E+01	  0.107575148	3.240000E-01
439	  0.107775547	-2.954300E+01	  0.107775547	4.883000E+00	  0.107775547	5.343400E+01	  0.107775547	3.030000E-01
440	  0.107975952	-2.956500E+01	  0.107975952	4.512000E+00	  0.107975952	5.342700E+01	  0.107975952	2.790000E-01
441	  0.108176351	-2.950300E+01	  0.108176351	4.627000E+00	  0.108176351	5.345100E+01	  0.108176351	2.890000E-01
442	  0.108376749	-2.954300E+01	  0.108376749	4.784000E+00	  0.108376749	5.343400E+01	  0.108376749	2.970000E-01
443	  0.108577155	-2.953000E+01	  0.108577155	4.701000E+00	  0.108577155	5.344000E+01	  0.108577155	2.920000E-01
444	  0.108777553	-2.949600E+01	  0.108777553	4.300000E+00	  0.108777553	5.345600E+01	  0.108777553	2.680000E-01
445	  0.108977959	-2.952400E+01	  0.108977959	4.174000E+00	  0.108977959	5.344500E+01	  0.108977959	2.600000E-01
446	  0.109178357	-2.949500E+01	  0.109178357	3.964000E+00	  0.109178357	5.345800E+01	  0.109178357	2.470000E-01
447	  0.109378755	-2.949700E+01	  0.109378755	3.915000E+00	  0.109378755	5.345700E+01	  0.109378755	2.440000E-01
448	  0.109579161	-2.947600E+01	  0.109579161	3.525000E+00	  0.109579161	5.346800E+01	  0.109579161	2.210000E-01
449	  0.109779559	-2.950600E+01	  0.109779559	3.926000E+00	  0.109779559	5.345400E+01	  0.109779559	2.450000E-01
450	  0.109979957	-2.952000E+01	  0.109979957	3.469000E+00	  0.109979957	5.345000E+01	  0.109979957	2.160000E-01
451	  0.110180363	-2.947100E+01	  0.110180363	3.631000E+00	  0.110180363	5.346900E+01	  0.110180363	2.270000E-01
452	  0.110380761	-2.947200E+01	  0.110380761	3.251000E+00	  0.110380761	5.347100E+01	  0.110380761	2.040000E-01
453	  0.110581160	-2.943300E+01	  0.110581160	3.001000E+00	  0.110581160	5.348800E+01	  0.110581160	1.890000E-01
454	  0.110781565	-2.948900E+01	  0.110781565	3.219000E+00	  0.110781565	5.346400E+01	  0.110781565	2.010000E-01
455	  0.110981964	-2.947200E+01	  0.110981964	2.960000E+00	  0.110981964	5.347100E+01	  0.110981964	1.850000E-01
456	  0.111182362	-2.946400E+01	  0.111182362	2.884000E+00	  0.111182362	5.347500E+01	  0.111182362	1.810000E-01
457	  0.111382768	-2.946300E+01	  0.111382768	2.698000E+00	  0.111382768	5.347600E+01	  0.111382768	1.690000E-01
458	  0.111583166	-2.944200E+01	  0.111583166	2.581000E+00	  0.111583166	5.348500E+01	  0.111583166	1.620000E-01
459	  0.111783572	-2.945000E+01	  0.111783572	2.315000E+00	  0.111783572	5.348300E+01	  0.111783572	1.450000E-01
460	  0.111983970	-2.947300E+01	  0.111983970	2.323000E+00	  0.111983970	5.347300E+01	  0.111983970	1.450000E-01
461	  0.112184368	-2.946800E+01	  0.112184368	2.174000E+00	  0.112184368	5.347600E+01	  0.112184368	1.360000E-01
462	  0.112384774	-2.943100E+01	  0.112384774	2.381000E+00	  0.112384774	5.349000E+01	  0.112384774	1.500000E-01
463	  0.112585172	-2.945400E+01	  0.112585172	1.831000E+00	  0.112585172	5.348200E+01	  0.112585172	1.150000E-01
464	  0.112785570	-2.945000E+01	  0.112785570	1.779000E+00	  0.112785570	5.348400E+01	  0.112785570	1.120000E-01
465	  0.112985976	-2.941000E+01	  0.112985976	1.662000E+00	  0.112985976	5.350100E+01	  0.112985976	1.050000E-01
466	  0.113186374	-2.943700E+01	  0.113186374	1.208000E+00	  0.113186374	5.349000E+01	  0.113186374	7.600000E-02
467	  0.113386773	-2.940200E+01	  0.113386773	1.366000E+00	  0.113386773	5.350500E+01	  0.113386773	8.600000E-02
468	  0.113587178	-2.942200E+01	  0.113587178	1.054000E+00	  0.113587178	5.349700E+01	  0.113587178	6.600000E-02
469	  0.113787577	-2.938900E+01	  0.113787577	1.116000E+00	  0.113787577	5.351000E+01	  0.113787577	7.000000E-02
470	  0.113987975	-2.943600E+01	  0.113987975	9.970000E-01	  0.113987975	5.349100E+01	  0.113987975	6.200000E-02
471	  0.114188381	-2.938500E+01	  0.114188381	7.770000E-01	  0.114188381	5.351300E+01	  0.114188381	4.900000E-02
472	  0.114388779	-2.937600E+01	  0.114388779	9.240000E-01	  0.114388779	5.351600E+01	  0.114388779	5.800000E-02
473	  0.114589177	-2.938100E+01	  0.114589177	4.750000E-01	  0.114589177	5.351400E+01	  0.114589177	3.000000E-02
474	  0.114789583	-2.940800E+01	  0.114789583	4.860000E-01	  0.114789583	5.350300E+01	  0.114789583	3.000000E-02
475	  0.114989981	-2.940700E+01	  0.114989981	2.600000E-01	  0.114989981	5.350300E+01	  0.114989981	1.600000E-02
476	  0.115190387	-2.938700E+01	  0.115190387	3.530000E-01	  0.115190387	5.351200E+01	  0.115190387	2.200000E-02
477	  0.115390785	-2.937800E+01	  0.115390785	3.190000E-01	  0.115390785	5.351600E+01	  0.115390785	2.000000E-02
478	  0.115591183	-2.937100E+01	  0.115591183	-1.300000E-02	  0.115591183	5.351900E+01	  0.115591183	0.000000E+00
479	  0.115791589	-2.939900E+01	  0.115791589	-3.870000E-01	  0.115791589	5.350700E+01	  0.115791589	-2.400000E-02
480	  0.115991987	-2.934000E+01	  0.115991987	-3.520000E-01	  0.115991987	5.353200E+01	  0.115991987	-2.200000E-02
481	  0.116192386	-2.940800E+01	  0.116192386	-3.330000E-01	  0.116192386	5.350300E+01	  0.116192386	-2.100000E-02
482	  0.116392791	-2.935900E+01	  0.116392791	-4.910000E-01	  0.116392791	5.352400E+01	  0.116392791	-3.100000E-02
483	  0.116593190	-2.935700E+01	  0.116593190	-3.770000E-01	  0.116593190	5.352500E+01	  0.116593190	-2.400000E-02
484	  0.116793588	-2.939500E+01	  0.116793588	-8.340000E-01	  0.116793588	5.350800E+01	  0.116793588	-5.200000E-02
485	  0.116993994	-2.934100E+01	  0.116993994	-9.330000E-01	  0.116993994	5.353100E+01	  0.116993994	-5.900000E-02
486	  0.117194392	-2.934800E+01	  0.117194392	-8.680000E-01	  0.117194392	5.352800E+01	  0.117194392	-5.500000E-02
487	  0.117394790	-2.939000E+01	  0.117394790	-9.500000E-01	  0.117394790	5.351000E+01	  0.117394790	-6.000000E-02
488	  0.117595196	-2.935800E+01	  0.117595196	-1.580000E+00	  0.117595196	5.352300E+01	  0.117595196	-1.000000E-01
489	  0.117795594	-2.935400E+01	  0.117795594	-1.114000E+00	  0.117795594	5.352500E+01	  0.117795594	-7.000000E-02
490	  0.117995992	-2.935700E+01	  0.117995992	-1.511000E+00	  0.117995992	5.352300E+01	  0.117995992	-9.600000E-02
491	  0.118196398	-2.936400E+01	  0.118196398	-1.576000E+00	  0.118196398	5.352000E+01	  0.118196398	-1.000000E-01
492	  0.118396796	-2.935300E+01	  0.118396796	-2.013000E+00	  0.118396796	5.352400E+01	  0.118396796	-1.280000E-01
493	  0.118597202	-2.932300E+01	  0.118597202	-1.833000E+00	  0.118597202	5.353700E+01	  0.118597202	-1.170000E-01
494	  0.118797600	-2.936200E+01	  0.118797600	-2.025000E+00	  0.118797600	5.352000E+01	  0.118797600	-1.280000E-01
495	  0.118997999	-2.935100E+01	  0.118997999	-2.157000E+00	  0.118997999	5.352400E+01	  0.118997999	-1.370000E-01
496	  0.119198404	-2.934400E+01	  0.119198404	-2.194000E+00	  0.119198404	5.352700E+01	  0.119198404	-1.390000E-01
497	  0.119398803	-2.934200E+01	  0.119398803	-2.156000E+00	  0.119398803	5.352800E+01	  0.119398803	-1.370000E-01
498	  0.119599201	-2.929900E+01	  0.119599201	-2.469000E+00	  0.119599201	5.354500E+01	  0.119599201	-1.580000E-01
499	  0.119799607	-2.931600E+01	  0.119799607	-2.474000E+00	  0.119799607	5.353800E+01	  0.119799607	-1.580000E-01
500	  0.120000005	-2.931800E+01	  0.120000005	-2.639000E+00	  0.120000005	5.353700E+01	  0.120000005	-1.680000E-01
