! Anritsu VNA Master:             	Model: MS2036C/10/77
! SN:             	1601066
! /bd0/18may10/256.ew.m5.txt
! Existing Calibration Information:
! TYPE:             	Current Settings	Active Cal Settings
! TIME:             	05/10/2018 10:18:01 AM	05/10/2018 10:05:08 AM
! INTERNAL TEMP:    	46.8 C	45.0 C
! # POINTS:         	494	494
! START FREQ:       	20.000 MHz	20.000 MHz
! STOP FREQ:        	118.797 594 MHz	118.797 594 MHz
! SOURCE POWER:     	High	High
! IFBW:             	50 Hz	50 Hz
! AVG FACTOR:       	  1 	  1 
! REF PLANE 1:      	0 mm	0 mm
! REF PLANE 2:      	0 mm	0 mm
! CAL TYPE:         	Full S22	Full S22
! CAL METHOD:       	SOLT	SOLT
! CAL LINE TYPE:    	Coax	Coax
! DUT PORT 1:       	K-Conn(M)	K-Conn(M)
! DUT PORT 2:       	K-Conn(M)	K-Conn(M)
! CAL STATUS:       	OK: Accuracy High	--
! PROP-V:       	0.700
! CABLE LOSS:       	0.000 dB/m
! REF IMPEDANCE:       	50.0
! Trace Specific Parameters:	TR1	TR2	TR3	TR4
! TRACE.#.Y (GRAPH TYPE)	LOG MAG	PHASE	REAL IMPEDANCE	IMAGINARY IMPEDANCE
! TRACE.#.X 	FREQ.GHZ	FREQ.GHZ	FREQ.GHZ	FREQ.GHZ
! S-PARAMETER	S22	S22	S22	S22
! SMOOTH/APERTURE %	0	0	0	0
! WINDOW	NSL	NSL	NSL	NSL
! GATING	OFF	OFF	OFF	OFF
! FGTD	OFF	OFF	OFF	OFF
Marker Information per Trace:	TR1	TR2	TR3	TR4
!MK1	--	"MK1 TR2:  20.000 MHz,PH:-126.94°"	--	--
!MK2	--	--	"MK2 TR3:  70.100 200 MHz,Z:(16.397 ohm, -1.399 ohm)"	--
!MK3	--	--	--	--
!MK4	--	--	--	--
!MK5	--	--	--	--
!MK6	--	--	--	--
!MK7	--	--	--	--
!MK8	--	--	--	--
PNT	TR1.FREQ.GHZ	TR1.LOG MAG.dB	TR2.FREQ.GHZ	TR2.PHASE.deg	TR3.FREQ.GHZ	TR3.REAL IMPEDANCE.ohm	TR4.FREQ.GHZ	TR4.IMAGINARY IMPEDANCE.ohm
1	  0.020000000	-6.170000E-01	  0.020000000	-1.269350E+02	  0.020000000	2.219000E+00	  0.020000000	-2.492400E+01
2	  0.020200402	-6.220000E-01	  0.020200402	-1.283880E+02	  0.020200402	2.207000E+00	  0.020200402	-2.413800E+01
3	  0.020400802	-6.260000E-01	  0.020400802	-1.298450E+02	  0.020400802	2.196000E+00	  0.020400802	-2.336000E+01
4	  0.020601204	-6.310000E-01	  0.020601204	-1.313350E+02	  0.020601204	2.187000E+00	  0.020601204	-2.257300E+01
5	  0.020801604	-6.360000E-01	  0.020801604	-1.328670E+02	  0.020801604	2.179000E+00	  0.020801604	-2.177400E+01
6	  0.021002004	-6.370000E-01	  0.021002004	-1.343900E+02	  0.021002004	2.159000E+00	  0.021002004	-2.098900E+01
7	  0.021202406	-6.440000E-01	  0.021202406	-1.359250E+02	  0.021202406	2.157000E+00	  0.021202406	-2.020600E+01
8	  0.021402806	-6.470000E-01	  0.021402806	-1.374570E+02	  0.021402806	2.144000E+00	  0.021402806	-1.943300E+01
9	  0.021603208	-6.500000E-01	  0.021603208	-1.389670E+02	  0.021603208	2.131000E+00	  0.021603208	-1.868000E+01
10	  0.021803608	-6.550000E-01	  0.021803608	-1.404950E+02	  0.021803608	2.128000E+00	  0.021803608	-1.792500E+01
11	  0.022004008	-6.640000E-01	  0.022004008	-1.420410E+02	  0.022004008	2.138000E+00	  0.022004008	-1.716700E+01
12	  0.022204408	-6.710000E-01	  0.022204408	-1.436020E+02	  0.022204408	2.139000E+00	  0.022204408	-1.641000E+01
13	  0.022404809	-6.790000E-01	  0.022404809	-1.452110E+02	  0.022404809	2.146000E+00	  0.022404809	-1.563700E+01
14	  0.022605211	-6.860000E-01	  0.022605211	-1.468010E+02	  0.022605211	2.150000E+00	  0.022605211	-1.487900E+01
15	  0.022805611	-6.890000E-01	  0.022805611	-1.484070E+02	  0.022805611	2.141000E+00	  0.022805611	-1.412000E+01
16	  0.023006011	-6.950000E-01	  0.023006011	-1.500000E+02	  0.023006011	2.143000E+00	  0.023006011	-1.337400E+01
17	  0.023206413	-7.010000E-01	  0.023206413	-1.515990E+02	  0.023206413	2.145000E+00	  0.023206413	-1.263000E+01
18	  0.023406813	-7.080000E-01	  0.023406813	-1.531930E+02	  0.023406813	2.154000E+00	  0.023406813	-1.189300E+01
19	  0.023607215	-7.160000E-01	  0.023607215	-1.548110E+02	  0.023607215	2.162000E+00	  0.023607215	-1.115000E+01
20	  0.023807615	-7.270000E-01	  0.023807615	-1.564500E+02	  0.023807615	2.184000E+00	  0.023807615	-1.040300E+01
21	  0.024008015	-7.380000E-01	  0.024008015	-1.580910E+02	  0.024008015	2.202000E+00	  0.024008015	-9.659000E+00
22	  0.024208417	-7.460000E-01	  0.024208417	-1.597490E+02	  0.024208417	2.215000E+00	  0.024208417	-8.911000E+00
23	  0.024408817	-7.520000E-01	  0.024408817	-1.614240E+02	  0.024408817	2.222000E+00	  0.024408817	-8.161000E+00
24	  0.024609219	-7.610000E-01	  0.024609219	-1.630860E+02	  0.024609219	2.238000E+00	  0.024609219	-7.419000E+00
25	  0.024809619	-7.710000E-01	  0.024809619	-1.647530E+02	  0.024809619	2.257000E+00	  0.024809619	-6.678000E+00
26	  0.025010020	-7.820000E-01	  0.025010020	-1.664380E+02	  0.025010020	2.282000E+00	  0.025010020	-5.932000E+00
27	  0.025210422	-7.940000E-01	  0.025210422	-1.681160E+02	  0.025210422	2.309000E+00	  0.025210422	-5.193000E+00
28	  0.025410822	-8.060000E-01	  0.025410822	-1.698180E+02	  0.025410822	2.338000E+00	  0.025410822	-4.444000E+00
29	  0.025611224	-8.190000E-01	  0.025611224	-1.715280E+02	  0.025611224	2.370000E+00	  0.025611224	-3.695000E+00
30	  0.025811624	-8.330000E-01	  0.025811624	-1.732480E+02	  0.025811624	2.404000E+00	  0.025811624	-2.942000E+00
31	  0.026012026	-8.440000E-01	  0.026012026	-1.749820E+02	  0.026012026	2.433000E+00	  0.026012026	-2.185000E+00
32	  0.026212426	-8.570000E-01	  0.026212426	-1.767240E+02	  0.026212426	2.467000E+00	  0.026212426	-1.426000E+00
33	  0.026412826	-8.750000E-01	  0.026412826	-1.784760E+02	  0.026412826	2.516000E+00	  0.026412826	-6.630000E-01
34	  0.026613226	-8.910000E-01	  0.026613226	1.797660E+02	  0.026613226	2.563000E+00	  0.026613226	1.010000E-01
35	  0.026813626	-9.060000E-01	  0.026813626	1.779990E+02	  0.026813626	2.608000E+00	  0.026813626	8.700000E-01
36	  0.027014028	-9.240000E-01	  0.027014028	1.762290E+02	  0.027014028	2.662000E+00	  0.027014028	1.641000E+00
37	  0.027214428	-9.420000E-01	  0.027214428	1.744540E+02	  0.027214428	2.716000E+00	  0.027214428	2.414000E+00
38	  0.027414829	-9.600000E-01	  0.027414829	1.726720E+02	  0.027414829	2.773000E+00	  0.027414829	3.191000E+00
39	  0.027615231	-9.790000E-01	  0.027615231	1.708620E+02	  0.027615231	2.835000E+00	  0.027615231	3.982000E+00
40	  0.027815631	-1.000000E+00	  0.027815631	1.690550E+02	  0.027815631	2.904000E+00	  0.027815631	4.774000E+00
41	  0.028016033	-1.022000E+00	  0.028016033	1.672290E+02	  0.028016033	2.974000E+00	  0.028016033	5.575000E+00
42	  0.028216433	-1.044000E+00	  0.028216433	1.653960E+02	  0.028216433	3.051000E+00	  0.028216433	6.383000E+00
43	  0.028416833	-1.067000E+00	  0.028416833	1.635610E+02	  0.028416833	3.132000E+00	  0.028416833	7.194000E+00
44	  0.028617235	-1.090000E+00	  0.028617235	1.617300E+02	  0.028617235	3.216000E+00	  0.028617235	8.007000E+00
45	  0.028817635	-1.114000E+00	  0.028817635	1.598770E+02	  0.028817635	3.302000E+00	  0.028817635	8.833000E+00
46	  0.029018037	-1.140000E+00	  0.029018037	1.580390E+02	  0.029018037	3.401000E+00	  0.029018037	9.658000E+00
47	  0.029218437	-1.166000E+00	  0.029218437	1.561860E+02	  0.029218437	3.499000E+00	  0.029218437	1.049300E+01
48	  0.029418837	-1.194000E+00	  0.029418837	1.543130E+02	  0.029418837	3.610000E+00	  0.029418837	1.134200E+01
49	  0.029619239	-1.221000E+00	  0.029619239	1.524330E+02	  0.029619239	3.720000E+00	  0.029619239	1.220100E+01
50	  0.029819639	-1.250000E+00	  0.029819639	1.505510E+02	  0.029819639	3.839000E+00	  0.029819639	1.306700E+01
51	  0.030020041	-1.280000E+00	  0.030020041	1.486680E+02	  0.030020041	3.965000E+00	  0.030020041	1.394000E+01
52	  0.030220442	-1.308000E+00	  0.030220442	1.467780E+02	  0.030220442	4.092000E+00	  0.030220442	1.482300E+01
53	  0.030420844	-1.338000E+00	  0.030420844	1.449040E+02	  0.030420844	4.225000E+00	  0.030420844	1.570700E+01
54	  0.030621244	-1.369000E+00	  0.030621244	1.430230E+02	  0.030621244	4.371000E+00	  0.030621244	1.660300E+01
55	  0.030821642	-1.403000E+00	  0.030821642	1.411230E+02	  0.030821642	4.530000E+00	  0.030821642	1.751600E+01
56	  0.031022044	-1.437000E+00	  0.031022044	1.392100E+02	  0.031022044	4.693000E+00	  0.031022044	1.844500E+01
57	  0.031222444	-1.467000E+00	  0.031222444	1.372800E+02	  0.031222444	4.853000E+00	  0.031222444	1.939400E+01
58	  0.031422846	-1.501000E+00	  0.031422846	1.353210E+02	  0.031422846	5.032000E+00	  0.031422846	2.036800E+01
59	  0.031623244	-1.536000E+00	  0.031623244	1.333610E+02	  0.031623244	5.224000E+00	  0.031623244	2.135400E+01
60	  0.031823646	-1.571000E+00	  0.031823646	1.313950E+02	  0.031823646	5.422000E+00	  0.031823646	2.235700E+01
61	  0.032024048	-1.608000E+00	  0.032024048	1.294360E+02	  0.032024048	5.636000E+00	  0.032024048	2.336900E+01
62	  0.032224450	-1.648000E+00	  0.032224450	1.274430E+02	  0.032224450	5.869000E+00	  0.032224450	2.441300E+01
63	  0.032424849	-1.684000E+00	  0.032424849	1.254640E+02	  0.032424849	6.103000E+00	  0.032424849	2.546600E+01
64	  0.032625251	-1.723000E+00	  0.032625251	1.234440E+02	  0.032625251	6.355000E+00	  0.032625251	2.655900E+01
65	  0.032825653	-1.764000E+00	  0.032825653	1.214210E+02	  0.032825653	6.630000E+00	  0.032825653	2.766900E+01
66	  0.033026051	-1.805000E+00	  0.033026051	1.193740E+02	  0.033026051	6.922000E+00	  0.033026051	2.881300E+01
67	  0.033226453	-1.846000E+00	  0.033226453	1.173240E+02	  0.033226453	7.228000E+00	  0.033226453	2.997900E+01
68	  0.033426855	-1.887000E+00	  0.033426855	1.152750E+02	  0.033426855	7.547000E+00	  0.033426855	3.116700E+01
69	  0.033627257	-1.932000E+00	  0.033627257	1.132290E+02	  0.033627257	7.902000E+00	  0.033627257	3.237300E+01
70	  0.033827655	-1.978000E+00	  0.033827655	1.111870E+02	  0.033827655	8.281000E+00	  0.033827655	3.360000E+01
71	  0.034028057	-2.021000E+00	  0.034028057	1.091320E+02	  0.034028057	8.665000E+00	  0.034028057	3.486300E+01
72	  0.034228459	-2.067000E+00	  0.034228459	1.070510E+02	  0.034228459	9.088000E+00	  0.034228459	3.616700E+01
73	  0.034428857	-2.112000E+00	  0.034428857	1.049640E+02	  0.034428857	9.536000E+00	  0.034428857	3.750400E+01
74	  0.034629259	-2.160000E+00	  0.034629259	1.028660E+02	  0.034629259	1.002100E+01	  0.034629259	3.887800E+01
75	  0.034829661	-2.208000E+00	  0.034829661	1.007860E+02	  0.034829661	1.053800E+01	  0.034829661	4.027000E+01
76	  0.035030060	-2.257000E+00	  0.035030060	9.870500E+01	  0.035030060	1.108800E+01	  0.035030060	4.169600E+01
77	  0.035230462	-2.305000E+00	  0.035230462	9.660600E+01	  0.035230462	1.167000E+01	  0.035230462	4.317100E+01
78	  0.035430863	-2.356000E+00	  0.035430863	9.454000E+01	  0.035430863	1.230400E+01	  0.035430863	4.465400E+01
79	  0.035631265	-2.405000E+00	  0.035631265	9.244900E+01	  0.035631265	1.297000E+01	  0.035631265	4.619600E+01
80	  0.035831664	-2.456000E+00	  0.035831664	9.036000E+01	  0.035831664	1.369300E+01	  0.035831664	4.777400E+01
81	  0.036032066	-2.506000E+00	  0.036032066	8.827200E+01	  0.036032066	1.445600E+01	  0.036032066	4.939500E+01
82	  0.036232468	-2.556000E+00	  0.036232468	8.621000E+01	  0.036232468	1.527400E+01	  0.036232468	5.103600E+01
83	  0.036432866	-2.608000E+00	  0.036432866	8.410900E+01	  0.036432866	1.616600E+01	  0.036432866	5.275300E+01
84	  0.036633268	-2.661000E+00	  0.036633268	8.202600E+01	  0.036633268	1.712900E+01	  0.036633268	5.449700E+01
85	  0.036833670	-2.716000E+00	  0.036833670	7.994500E+01	  0.036833670	1.816900E+01	  0.036833670	5.628300E+01
86	  0.037034072	-2.771000E+00	  0.037034072	7.783200E+01	  0.037034072	1.930100E+01	  0.037034072	5.814800E+01
87	  0.037234470	-2.823000E+00	  0.037234470	7.575000E+01	  0.037234470	2.049500E+01	  0.037234470	6.003900E+01
88	  0.037434869	-2.879000E+00	  0.037434869	7.364400E+01	  0.037434869	2.181000E+01	  0.037434869	6.199700E+01
89	  0.037635271	-2.933000E+00	  0.037635271	7.155100E+01	  0.037635271	2.322400E+01	  0.037635271	6.399600E+01
90	  0.037835669	-2.989000E+00	  0.037835669	6.942200E+01	  0.037835669	2.477400E+01	  0.037835669	6.608400E+01
91	  0.038036071	-3.049000E+00	  0.038036071	6.731300E+01	  0.038036071	2.648300E+01	  0.038036071	6.818200E+01
92	  0.038236473	-3.106000E+00	  0.038236473	6.517600E+01	  0.038236473	2.832600E+01	  0.038236473	7.037700E+01
93	  0.038436871	-3.166000E+00	  0.038436871	6.305700E+01	  0.038436871	3.034000E+01	  0.038436871	7.258500E+01
94	  0.038637273	-3.225000E+00	  0.038637273	6.094100E+01	  0.038637273	3.252900E+01	  0.038637273	7.483100E+01
95	  0.038837675	-3.284000E+00	  0.038837675	5.881900E+01	  0.038837675	3.490500E+01	  0.038837675	7.713100E+01
96	  0.039038073	-3.338000E+00	  0.039038073	5.672700E+01	  0.039038073	3.743400E+01	  0.039038073	7.944700E+01
97	  0.039238475	-3.396000E+00	  0.039238475	5.462000E+01	  0.039238475	4.023500E+01	  0.039238475	8.178600E+01
98	  0.039438877	-3.454000E+00	  0.039438877	5.252000E+01	  0.039438877	4.328100E+01	  0.039438877	8.412500E+01
99	  0.039639279	-3.513000E+00	  0.039639279	5.037300E+01	  0.039639279	4.668800E+01	  0.039639279	8.650600E+01
100	  0.039839678	-3.570000E+00	  0.039839678	4.825200E+01	  0.039839678	5.034900E+01	  0.039839678	8.884900E+01
101	  0.040040080	-3.628000E+00	  0.040040080	4.611300E+01	  0.040040080	5.439100E+01	  0.040040080	9.115900E+01
102	  0.040240481	-3.682000E+00	  0.040240481	4.400300E+01	  0.040240481	5.871700E+01	  0.040240481	9.339000E+01
103	  0.040440880	-3.739000E+00	  0.040440880	4.187600E+01	  0.040440880	6.350500E+01	  0.040440880	9.549000E+01
104	  0.040641282	-3.794000E+00	  0.040641282	3.977600E+01	  0.040641282	6.864500E+01	  0.040641282	9.741600E+01
105	  0.040841684	-3.852000E+00	  0.040841684	3.768900E+01	  0.040841684	7.423100E+01	  0.040841684	9.903900E+01
106	  0.041042086	-3.906000E+00	  0.041042086	3.560200E+01	  0.041042086	8.024200E+01	  0.041042086	1.004520E+02
107	  0.041242484	-3.964000E+00	  0.041242484	3.351100E+01	  0.041242484	8.677600E+01	  0.041242484	1.014160E+02
108	  0.041442886	-4.019000E+00	  0.041442886	3.141300E+01	  0.041442886	9.379900E+01	  0.041442886	1.019790E+02
109	  0.041643288	-4.072000E+00	  0.041643288	2.933500E+01	  0.041643288	1.012190E+02	  0.041643288	1.020020E+02
110	  0.041843686	-4.125000E+00	  0.041843686	2.726200E+01	  0.041843686	1.090690E+02	  0.041843686	1.013240E+02
111	  0.042044088	-4.175000E+00	  0.042044088	2.520800E+01	  0.042044088	1.172290E+02	  0.042044088	9.996500E+01
112	  0.042244490	-4.227000E+00	  0.042244490	2.317100E+01	  0.042244490	1.256150E+02	  0.042244490	9.764400E+01
113	  0.042444889	-4.280000E+00	  0.042444889	2.115100E+01	  0.042444889	1.341020E+02	  0.042444889	9.433500E+01
114	  0.042645290	-4.330000E+00	  0.042645290	1.913600E+01	  0.042645290	1.425970E+02	  0.042645290	8.997800E+01
115	  0.042845692	-4.382000E+00	  0.042845692	1.710600E+01	  0.042845692	1.510030E+02	  0.042845692	8.441100E+01
116	  0.043046094	-4.431000E+00	  0.043046094	1.511500E+01	  0.043046094	1.588960E+02	  0.043046094	7.779300E+01
117	  0.043246493	-4.477000E+00	  0.043246493	1.311200E+01	  0.043246493	1.663420E+02	  0.043246493	7.006500E+01
118	  0.043446895	-4.524000E+00	  0.043446895	1.113100E+01	  0.043446895	1.728700E+02	  0.043446895	6.126900E+01
119	  0.043647297	-4.570000E+00	  0.043647297	9.140000E+00	  0.043647297	1.784180E+02	  0.043647297	5.145500E+01
120	  0.043847695	-4.615000E+00	  0.043847695	7.177000E+00	  0.043847695	1.827060E+02	  0.043847695	4.100600E+01
121	  0.044048097	-4.661000E+00	  0.044048097	5.207000E+00	  0.044048097	1.855890E+02	  0.044048097	2.992900E+01
122	  0.044248499	-4.706000E+00	  0.044248499	3.242000E+00	  0.044248499	1.870670E+02	  0.044248499	1.860200E+01
123	  0.044448901	-4.750000E+00	  0.044448901	1.292000E+00	  0.044448901	1.870740E+02	  0.044448901	7.345000E+00
124	  0.044649299	-4.793000E+00	  0.044649299	-6.580000E-01	  0.044649299	1.857010E+02	  0.044649299	-3.678000E+00
125	  0.044849701	-4.835000E+00	  0.044849701	-2.594000E+00	  0.044849701	1.830690E+02	  0.044849701	-1.414300E+01
126	  0.045050103	-4.875000E+00	  0.045050103	-4.550000E+00	  0.045050103	1.793090E+02	  0.045050103	-2.406100E+01
127	  0.045250501	-4.919000E+00	  0.045250501	-6.501000E+00	  0.045250501	1.744540E+02	  0.045250501	-3.308000E+01
128	  0.045450903	-4.957000E+00	  0.045450903	-8.430000E+00	  0.045450903	1.690130E+02	  0.045450903	-4.114000E+01
129	  0.045651305	-5.000000E+00	  0.045651305	-1.036800E+01	  0.045651305	1.628550E+02	  0.045651305	-4.820500E+01
130	  0.045851704	-5.038000E+00	  0.045851704	-1.228900E+01	  0.045851704	1.564730E+02	  0.045851704	-5.431900E+01
131	  0.046052102	-5.079000E+00	  0.046052102	-1.418900E+01	  0.046052102	1.498580E+02	  0.046052102	-5.937400E+01
132	  0.046252504	-5.120000E+00	  0.046252504	-1.606400E+01	  0.046252504	1.432410E+02	  0.046252504	-6.349700E+01
133	  0.046452906	-5.158000E+00	  0.046452906	-1.792900E+01	  0.046452906	1.367400E+02	  0.046452906	-6.688400E+01
134	  0.046653304	-5.197000E+00	  0.046653304	-1.978300E+01	  0.046653304	1.303530E+02	  0.046653304	-6.950500E+01
135	  0.046853706	-5.224000E+00	  0.046853706	-2.163200E+01	  0.046853706	1.242780E+02	  0.046853706	-7.175900E+01
136	  0.047054108	-5.253000E+00	  0.047054108	-2.347200E+01	  0.047054108	1.183910E+02	  0.047054108	-7.341000E+01
137	  0.047254506	-5.277000E+00	  0.047254506	-2.532000E+01	  0.047254506	1.127220E+02	  0.047254506	-7.466800E+01
138	  0.047454908	-5.299000E+00	  0.047454908	-2.717300E+01	  0.047454908	1.072750E+02	  0.047454908	-7.552300E+01
139	  0.047655310	-5.319000E+00	  0.047655310	-2.901500E+01	  0.047655310	1.021110E+02	  0.047655310	-7.603200E+01
140	  0.047855709	-5.341000E+00	  0.047855709	-3.086400E+01	  0.047855709	9.717700E+01	  0.047855709	-7.618000E+01
141	  0.048056111	-5.366000E+00	  0.048056111	-3.270800E+01	  0.048056111	9.251100E+01	  0.048056111	-7.598900E+01
142	  0.048256513	-5.388000E+00	  0.048256513	-3.452800E+01	  0.048256513	8.816400E+01	  0.048256513	-7.560300E+01
143	  0.048456915	-5.411000E+00	  0.048456915	-3.634300E+01	  0.048456915	8.407300E+01	  0.048456915	-7.502200E+01
144	  0.048657313	-5.429000E+00	  0.048657313	-3.816000E+01	  0.048657313	8.021000E+01	  0.048657313	-7.434400E+01
145	  0.048857715	-5.450000E+00	  0.048857715	-3.998300E+01	  0.048857715	7.656700E+01	  0.048857715	-7.349000E+01
146	  0.049058117	-5.470000E+00	  0.049058117	-4.176400E+01	  0.049058117	7.321800E+01	  0.049058117	-7.254800E+01
147	  0.049258515	-5.490000E+00	  0.049258515	-4.351700E+01	  0.049258515	7.011800E+01	  0.049258515	-7.152500E+01
148	  0.049458917	-5.507000E+00	  0.049458917	-4.528000E+01	  0.049458917	6.717600E+01	  0.049458917	-7.046200E+01
149	  0.049659319	-5.531000E+00	  0.049659319	-4.698100E+01	  0.049659319	6.452900E+01	  0.049659319	-6.930000E+01
150	  0.049859721	-5.553000E+00	  0.049859721	-4.869500E+01	  0.049859721	6.200700E+01	  0.049859721	-6.812200E+01
151	  0.050060119	-5.571000E+00	  0.050060119	-5.041200E+01	  0.050060119	5.961800E+01	  0.050060119	-6.693700E+01
152	  0.050260521	-5.589000E+00	  0.050260521	-5.209600E+01	  0.050260521	5.740900E+01	  0.050260521	-6.575400E+01
153	  0.050460923	-5.607000E+00	  0.050460923	-5.379200E+01	  0.050460923	5.530800E+01	  0.050460923	-6.454800E+01
154	  0.050661322	-5.623000E+00	  0.050661322	-5.545900E+01	  0.050661322	5.335300E+01	  0.050661322	-6.336100E+01
155	  0.050861724	-5.640000E+00	  0.050861724	-5.711000E+01	  0.050861724	5.152700E+01	  0.050861724	-6.217200E+01
156	  0.051062126	-5.661000E+00	  0.051062126	-5.874400E+01	  0.051062126	4.983900E+01	  0.051062126	-6.095700E+01
157	  0.051262524	-5.680000E+00	  0.051262524	-6.039100E+01	  0.051262524	4.821800E+01	  0.051262524	-5.975400E+01
158	  0.051462926	-5.695000E+00	  0.051462926	-6.201600E+01	  0.051462926	4.669400E+01	  0.051462926	-5.858900E+01
159	  0.051663328	-5.713000E+00	  0.051663328	-6.363000E+01	  0.051663328	4.526600E+01	  0.051663328	-5.742600E+01
160	  0.051863730	-5.733000E+00	  0.051863730	-6.522900E+01	  0.051863730	4.393600E+01	  0.051863730	-5.626500E+01
161	  0.052064128	-5.743000E+00	  0.052064128	-6.683200E+01	  0.052064128	4.263400E+01	  0.052064128	-5.516200E+01
162	  0.052264530	-5.756000E+00	  0.052264530	-6.841700E+01	  0.052264530	4.141600E+01	  0.052264530	-5.406900E+01
163	  0.052464932	-5.770000E+00	  0.052464932	-6.999700E+01	  0.052464932	4.027100E+01	  0.052464932	-5.297700E+01
164	  0.052665330	-5.788000E+00	  0.052665330	-7.155800E+01	  0.052665330	3.921100E+01	  0.052665330	-5.189200E+01
165	  0.052865732	-5.800000E+00	  0.052865732	-7.311900E+01	  0.052865732	3.817900E+01	  0.052865732	-5.084500E+01
166	  0.053066134	-5.816000E+00	  0.053066134	-7.464200E+01	  0.053066134	3.723700E+01	  0.053066134	-4.981500E+01
167	  0.053266536	-5.831000E+00	  0.053266536	-7.616700E+01	  0.053266536	3.633500E+01	  0.053266536	-4.879800E+01
168	  0.053466935	-5.844000E+00	  0.053466935	-7.771500E+01	  0.053466935	3.545200E+01	  0.053466935	-4.778800E+01
169	  0.053667337	-5.859000E+00	  0.053667337	-7.924200E+01	  0.053667337	3.462700E+01	  0.053667337	-4.679700E+01
170	  0.053867739	-5.869000E+00	  0.053867739	-8.076300E+01	  0.053867739	3.382500E+01	  0.053867739	-4.583900E+01
171	  0.054068137	-5.879000E+00	  0.054068137	-8.227500E+01	  0.054068137	3.306300E+01	  0.054068137	-4.489700E+01
172	  0.054268539	-5.889000E+00	  0.054268539	-8.377400E+01	  0.054268539	3.234300E+01	  0.054268539	-4.397200E+01
173	  0.054468941	-5.902000E+00	  0.054468941	-8.524900E+01	  0.054468941	3.167600E+01	  0.054468941	-4.306300E+01
174	  0.054669335	-5.912000E+00	  0.054669335	-8.673500E+01	  0.054669335	3.102400E+01	  0.054669335	-4.216600E+01
175	  0.054869737	-5.920000E+00	  0.054869737	-8.818400E+01	  0.054869737	3.040300E+01	  0.054869737	-4.131000E+01
176	  0.055070139	-5.930000E+00	  0.055070139	-8.963900E+01	  0.055070139	2.981800E+01	  0.055070139	-4.045100E+01
177	  0.055270538	-5.935000E+00	  0.055270538	-9.108300E+01	  0.055270538	2.923800E+01	  0.055270538	-3.962400E+01
178	  0.055470940	-5.941000E+00	  0.055470940	-9.251000E+01	  0.055470940	2.869600E+01	  0.055470940	-3.881100E+01
179	  0.055671342	-5.945000E+00	  0.055671342	-9.394200E+01	  0.055671342	2.816500E+01	  0.055671342	-3.801000E+01
180	  0.055871744	-5.951000E+00	  0.055871744	-9.535600E+01	  0.055871744	2.766700E+01	  0.055871744	-3.722200E+01
181	  0.056072142	-5.958000E+00	  0.056072142	-9.675500E+01	  0.056072142	2.720000E+01	  0.056072142	-3.644700E+01
182	  0.056272544	-5.963000E+00	  0.056272544	-9.816200E+01	  0.056272544	2.673800E+01	  0.056272544	-3.568200E+01
183	  0.056472946	-5.967000E+00	  0.056472946	-9.951000E+01	  0.056472946	2.631200E+01	  0.056472946	-3.495700E+01
184	  0.056673344	-5.973000E+00	  0.056673344	-1.008610E+02	  0.056673344	2.590800E+01	  0.056673344	-3.423200E+01
185	  0.056873746	-5.975000E+00	  0.056873746	-1.021990E+02	  0.056873746	2.550700E+01	  0.056873746	-3.353200E+01
186	  0.057074148	-5.979000E+00	  0.057074148	-1.035660E+02	  0.057074148	2.512000E+01	  0.057074148	-3.281800E+01
187	  0.057274550	-5.981000E+00	  0.057274550	-1.049030E+02	  0.057274550	2.474800E+01	  0.057274550	-3.213000E+01
188	  0.057474948	-5.984000E+00	  0.057474948	-1.062200E+02	  0.057474948	2.440000E+01	  0.057474948	-3.145600E+01
189	  0.057675350	-5.989000E+00	  0.057675350	-1.075350E+02	  0.057675350	2.407000E+01	  0.057675350	-3.078600E+01
190	  0.057875752	-5.994000E+00	  0.057875752	-1.088550E+02	  0.057875752	2.375100E+01	  0.057875752	-3.012000E+01
191	  0.058076151	-5.999000E+00	  0.058076151	-1.101300E+02	  0.058076151	2.345400E+01	  0.058076151	-2.948200E+01
192	  0.058276553	-6.000000E+00	  0.058276553	-1.114060E+02	  0.058276553	2.315600E+01	  0.058276553	-2.885400E+01
193	  0.058476955	-6.005000E+00	  0.058476955	-1.126530E+02	  0.058476955	2.288400E+01	  0.058476955	-2.824100E+01
194	  0.058677353	-6.010000E+00	  0.058677353	-1.139420E+02	  0.058677353	2.261600E+01	  0.058677353	-2.761100E+01
195	  0.058877755	-6.014000E+00	  0.058877755	-1.151990E+02	  0.058877755	2.235700E+01	  0.058877755	-2.700600E+01
196	  0.059078157	-6.018000E+00	  0.059078157	-1.164360E+02	  0.059078157	2.211300E+01	  0.059078157	-2.641300E+01
197	  0.059278559	-6.020000E+00	  0.059278559	-1.176860E+02	  0.059278559	2.187100E+01	  0.059278559	-2.582100E+01
198	  0.059478957	-6.026000E+00	  0.059478957	-1.189140E+02	  0.059478957	2.165000E+01	  0.059478957	-2.524000E+01
199	  0.059679359	-6.036000E+00	  0.059679359	-1.201430E+02	  0.059679359	2.144900E+01	  0.059679359	-2.465800E+01
200	  0.059879761	-6.040000E+00	  0.059879761	-1.213440E+02	  0.059879761	2.124600E+01	  0.059879761	-2.409900E+01
201	  0.060080159	-6.046000E+00	  0.060080159	-1.225450E+02	  0.060080159	2.105200E+01	  0.060080159	-2.354300E+01
202	  0.060280561	-6.053000E+00	  0.060280561	-1.237520E+02	  0.060280561	2.086600E+01	  0.060280561	-2.298800E+01
203	  0.060480963	-6.060000E+00	  0.060480963	-1.249450E+02	  0.060480963	2.069100E+01	  0.060480963	-2.244200E+01
204	  0.060681365	-6.066000E+00	  0.060681365	-1.261260E+02	  0.060681365	2.052000E+01	  0.060681365	-2.190600E+01
205	  0.060881764	-6.068000E+00	  0.060881764	-1.273180E+02	  0.060881764	2.034200E+01	  0.060881764	-2.137300E+01
206	  0.061082166	-6.078000E+00	  0.061082166	-1.285040E+02	  0.061082166	2.019500E+01	  0.061082166	-2.083800E+01
207	  0.061282568	-6.083000E+00	  0.061282568	-1.296870E+02	  0.061282568	2.003700E+01	  0.061282568	-2.031400E+01
208	  0.061482966	-6.087000E+00	  0.061482966	-1.308510E+02	  0.061482966	1.988500E+01	  0.061482966	-1.980200E+01
209	  0.061683368	-6.091000E+00	  0.061683368	-1.320290E+02	  0.061683368	1.974000E+01	  0.061683368	-1.928600E+01
210	  0.061883770	-6.095000E+00	  0.061883770	-1.331740E+02	  0.061883770	1.960100E+01	  0.061883770	-1.878800E+01
211	  0.062084168	-6.097000E+00	  0.062084168	-1.342990E+02	  0.062084168	1.946300E+01	  0.062084168	-1.830300E+01
212	  0.062284570	-6.099000E+00	  0.062284570	-1.354540E+02	  0.062284570	1.933000E+01	  0.062284570	-1.780700E+01
213	  0.062484972	-6.098000E+00	  0.062484972	-1.365550E+02	  0.062484972	1.919600E+01	  0.062484972	-1.733900E+01
214	  0.062685370	-6.096000E+00	  0.062685370	-1.376840E+02	  0.062685370	1.906200E+01	  0.062685370	-1.686300E+01
215	  0.062885776	-6.099000E+00	  0.062885776	-1.387890E+02	  0.062885776	1.894800E+01	  0.062885776	-1.639500E+01
216	  0.063086174	-6.097000E+00	  0.063086174	-1.399140E+02	  0.063086174	1.882200E+01	  0.063086174	-1.592400E+01
217	  0.063286573	-6.094000E+00	  0.063286573	-1.409940E+02	  0.063286573	1.870300E+01	  0.063286573	-1.547500E+01
218	  0.063486971	-6.092000E+00	  0.063486971	-1.420880E+02	  0.063486971	1.858800E+01	  0.063486971	-1.502100E+01
219	  0.063687377	-6.083000E+00	  0.063687377	-1.431310E+02	  0.063687377	1.846500E+01	  0.063687377	-1.459400E+01
220	  0.063887775	-6.078000E+00	  0.063887775	-1.442000E+02	  0.063887775	1.835100E+01	  0.063887775	-1.415600E+01
221	  0.064088173	-6.071000E+00	  0.064088173	-1.452950E+02	  0.064088173	1.823600E+01	  0.064088173	-1.370900E+01
222	  0.064288579	-6.068000E+00	  0.064288579	-1.463860E+02	  0.064288579	1.813300E+01	  0.064288579	-1.326300E+01
223	  0.064488977	-6.060000E+00	  0.064488977	-1.474350E+02	  0.064488977	1.802600E+01	  0.064488977	-1.283800E+01
224	  0.064689375	-6.052000E+00	  0.064689375	-1.485170E+02	  0.064689375	1.791700E+01	  0.064689375	-1.240100E+01
225	  0.064889781	-6.042000E+00	  0.064889781	-1.495640E+02	  0.064889781	1.781300E+01	  0.064889781	-1.198000E+01
226	  0.065090179	-6.034000E+00	  0.065090179	-1.505880E+02	  0.065090179	1.771500E+01	  0.065090179	-1.156900E+01
227	  0.065290578	-6.026000E+00	  0.065290578	-1.516290E+02	  0.065290578	1.762300E+01	  0.065290578	-1.115200E+01
228	  0.065490983	-6.021000E+00	  0.065490983	-1.526860E+02	  0.065490983	1.753700E+01	  0.065490983	-1.072800E+01
229	  0.065691382	-6.008000E+00	  0.065691382	-1.537440E+02	  0.065691382	1.743500E+01	  0.065691382	-1.030700E+01
230	  0.065891780	-5.999000E+00	  0.065891780	-1.547550E+02	  0.065891780	1.735000E+01	  0.065891780	-9.905000E+00
231	  0.066092186	-5.992000E+00	  0.066092186	-1.558080E+02	  0.066092186	1.726900E+01	  0.066092186	-9.486000E+00
232	  0.066292584	-5.982000E+00	  0.066292584	-1.568380E+02	  0.066292584	1.718500E+01	  0.066292584	-9.078000E+00
233	  0.066492982	-5.975000E+00	  0.066492982	-1.578800E+02	  0.066492982	1.711200E+01	  0.066492982	-8.665000E+00
234	  0.066693388	-5.969000E+00	  0.066693388	-1.589240E+02	  0.066693388	1.704200E+01	  0.066693388	-8.252000E+00
235	  0.066893786	-5.961000E+00	  0.066893786	-1.599610E+02	  0.066893786	1.697400E+01	  0.066893786	-7.843000E+00
236	  0.067094192	-5.954000E+00	  0.067094192	-1.609660E+02	  0.067094192	1.690900E+01	  0.067094192	-7.446000E+00
237	  0.067294590	-5.946000E+00	  0.067294590	-1.619930E+02	  0.067294590	1.684500E+01	  0.067294590	-7.042000E+00
238	  0.067494988	-5.943000E+00	  0.067494988	-1.630200E+02	  0.067494988	1.679400E+01	  0.067494988	-6.637000E+00
239	  0.067695394	-5.939000E+00	  0.067695394	-1.640720E+02	  0.067695394	1.674600E+01	  0.067695394	-6.223000E+00
240	  0.067895792	-5.934000E+00	  0.067895792	-1.650930E+02	  0.067895792	1.669500E+01	  0.067895792	-5.822000E+00
241	  0.068096191	-5.932000E+00	  0.068096191	-1.661420E+02	  0.068096191	1.665600E+01	  0.068096191	-5.410000E+00
242	  0.068296596	-5.928000E+00	  0.068296596	-1.671530E+02	  0.068296596	1.661500E+01	  0.068296596	-5.014000E+00
243	  0.068496995	-5.927000E+00	  0.068496995	-1.681920E+02	  0.068496995	1.658400E+01	  0.068496995	-4.606000E+00
244	  0.068697393	-5.922000E+00	  0.068697393	-1.692380E+02	  0.068697393	1.654300E+01	  0.068697393	-4.197000E+00
245	  0.068897791	-5.918000E+00	  0.068897791	-1.702650E+02	  0.068897791	1.651000E+01	  0.068897791	-3.796000E+00
246	  0.069098189	-5.914000E+00	  0.069098189	-1.712920E+02	  0.069098189	1.647900E+01	  0.069098189	-3.395000E+00
247	  0.069298595	-5.913000E+00	  0.069298595	-1.723090E+02	  0.069298595	1.645800E+01	  0.069298595	-2.997000E+00
248	  0.069498993	-5.911000E+00	  0.069498993	-1.733720E+02	  0.069498993	1.643600E+01	  0.069498993	-2.582000E+00
249	  0.069699399	-5.912000E+00	  0.069699399	-1.743950E+02	  0.069699399	1.642500E+01	  0.069699399	-2.183000E+00
250	  0.069899797	-5.910000E+00	  0.069899797	-1.754090E+02	  0.069899797	1.640600E+01	  0.069899797	-1.788000E+00
251	  0.070100196	-5.909000E+00	  0.070100196	-1.764080E+02	  0.070100196	1.639700E+01	  0.070100196	-1.399000E+00
252	  0.070300601	-5.904000E+00	  0.070300601	-1.774440E+02	  0.070300601	1.637600E+01	  0.070300601	-9.950000E-01
253	  0.070501000	-5.904000E+00	  0.070501000	-1.784370E+02	  0.070501000	1.637000E+01	  0.070501000	-6.080000E-01
254	  0.070701398	-5.902000E+00	  0.070701398	-1.794560E+02	  0.070701398	1.636300E+01	  0.070701398	-2.110000E-01
255	  0.070901804	-5.900000E+00	  0.070901804	1.795540E+02	  0.070901804	1.635800E+01	  0.070901804	1.730000E-01
256	  0.071102202	-5.901000E+00	  0.071102202	1.785410E+02	  0.071102202	1.636200E+01	  0.071102202	5.680000E-01
257	  0.071302600	-5.900000E+00	  0.071302600	1.775330E+02	  0.071302600	1.636500E+01	  0.071302600	9.600000E-01
258	  0.071503006	-5.900000E+00	  0.071503006	1.765500E+02	  0.071503006	1.637100E+01	  0.071503006	1.344000E+00
259	  0.071703404	-5.903000E+00	  0.071703404	1.755680E+02	  0.071703404	1.638800E+01	  0.071703404	1.726000E+00
260	  0.071903802	-5.899000E+00	  0.071903802	1.745960E+02	  0.071903802	1.638900E+01	  0.071903802	2.106000E+00
261	  0.072104208	-5.900000E+00	  0.072104208	1.736170E+02	  0.072104208	1.640400E+01	  0.072104208	2.488000E+00
262	  0.072304606	-5.899000E+00	  0.072304606	1.726590E+02	  0.072304606	1.641600E+01	  0.072304606	2.862000E+00
263	  0.072505005	-5.901000E+00	  0.072505005	1.716800E+02	  0.072505005	1.643800E+01	  0.072505005	3.245000E+00
264	  0.072705410	-5.904000E+00	  0.072705410	1.707430E+02	  0.072705410	1.646400E+01	  0.072705410	3.611000E+00
265	  0.072905809	-5.906000E+00	  0.072905809	1.697900E+02	  0.072905809	1.648900E+01	  0.072905809	3.984000E+00
266	  0.073106214	-5.907000E+00	  0.073106214	1.688480E+02	  0.073106214	1.651400E+01	  0.073106214	4.352000E+00
267	  0.073306613	-5.912000E+00	  0.073306613	1.678890E+02	  0.073306613	1.655200E+01	  0.073306613	4.728000E+00
268	  0.073507011	-5.915000E+00	  0.073507011	1.669460E+02	  0.073507011	1.658700E+01	  0.073507011	5.098000E+00
269	  0.073707417	-5.917000E+00	  0.073707417	1.660290E+02	  0.073707417	1.662100E+01	  0.073707417	5.458000E+00
270	  0.073907815	-5.924000E+00	  0.073907815	1.650890E+02	  0.073907815	1.667000E+01	  0.073907815	5.826000E+00
271	  0.074108213	-5.923000E+00	  0.074108213	1.642060E+02	  0.074108213	1.669800E+01	  0.074108213	6.174000E+00
272	  0.074308619	-5.930000E+00	  0.074308619	1.632610E+02	  0.074308619	1.675200E+01	  0.074308619	6.545000E+00
273	  0.074509017	-5.932000E+00	  0.074509017	1.623440E+02	  0.074509017	1.679400E+01	  0.074509017	6.907000E+00
274	  0.074709415	-5.943000E+00	  0.074709415	1.614180E+02	  0.074709415	1.686000E+01	  0.074709415	7.270000E+00
275	  0.074909821	-5.947000E+00	  0.074909821	1.605140E+02	  0.074909821	1.691100E+01	  0.074909821	7.627000E+00
276	  0.075110219	-5.956000E+00	  0.075110219	1.595960E+02	  0.075110219	1.697500E+01	  0.075110219	7.989000E+00
277	  0.075310618	-5.963000E+00	  0.075310618	1.586800E+02	  0.075310618	1.704000E+01	  0.075310618	8.351000E+00
278	  0.075511023	-5.969000E+00	  0.075511023	1.577800E+02	  0.075511023	1.710200E+01	  0.075511023	8.707000E+00
279	  0.075711422	-5.976000E+00	  0.075711422	1.568990E+02	  0.075711422	1.716700E+01	  0.075711422	9.056000E+00
280	  0.075911827	-5.989000E+00	  0.075911827	1.560120E+02	  0.075911827	1.724800E+01	  0.075911827	9.406000E+00
281	  0.076112226	-6.000000E+00	  0.076112226	1.550870E+02	  0.076112226	1.733200E+01	  0.076112226	9.772000E+00
282	  0.076312624	-6.009000E+00	  0.076312624	1.541720E+02	  0.076312624	1.741200E+01	  0.076312624	1.013500E+01
283	  0.076513030	-6.022000E+00	  0.076513030	1.532820E+02	  0.076513030	1.750200E+01	  0.076513030	1.048700E+01
284	  0.076713428	-6.032000E+00	  0.076713428	1.523590E+02	  0.076713428	1.758900E+01	  0.076713428	1.085400E+01
285	  0.076913826	-6.044000E+00	  0.076913826	1.514690E+02	  0.076913826	1.768100E+01	  0.076913826	1.120800E+01
286	  0.077114232	-6.060000E+00	  0.077114232	1.505890E+02	  0.077114232	1.778500E+01	  0.077114232	1.155600E+01
287	  0.077314630	-6.072000E+00	  0.077314630	1.496990E+02	  0.077314630	1.788100E+01	  0.077314630	1.191100E+01
288	  0.077515028	-6.085000E+00	  0.077515028	1.488130E+02	  0.077515028	1.798300E+01	  0.077515028	1.226400E+01
289	  0.077715434	-6.099000E+00	  0.077715434	1.479040E+02	  0.077715434	1.809300E+01	  0.077715434	1.262600E+01
290	  0.077915832	-6.112000E+00	  0.077915832	1.470130E+02	  0.077915832	1.820100E+01	  0.077915832	1.298200E+01
291	  0.078116231	-6.124000E+00	  0.078116231	1.461060E+02	  0.078116231	1.830800E+01	  0.078116231	1.334600E+01
292	  0.078316636	-6.140000E+00	  0.078316636	1.452010E+02	  0.078316636	1.842900E+01	  0.078316636	1.370800E+01
293	  0.078517035	-6.154000E+00	  0.078517035	1.443100E+02	  0.078517035	1.854800E+01	  0.078517035	1.406400E+01
294	  0.078717433	-6.169000E+00	  0.078717433	1.434360E+02	  0.078717433	1.867000E+01	  0.078717433	1.441500E+01
295	  0.078917839	-6.186000E+00	  0.078917839	1.425510E+02	  0.078917839	1.880100E+01	  0.078917839	1.476900E+01
296	  0.079118237	-6.199000E+00	  0.079118237	1.416470E+02	  0.079118237	1.892400E+01	  0.079118237	1.513400E+01
297	  0.079318643	-6.211000E+00	  0.079318643	1.408000E+02	  0.079318643	1.904400E+01	  0.079318643	1.547700E+01
298	  0.079519041	-6.231000E+00	  0.079519041	1.399340E+02	  0.079519041	1.918900E+01	  0.079519041	1.582300E+01
299	  0.079719439	-6.246000E+00	  0.079719439	1.390670E+02	  0.079719439	1.932200E+01	  0.079719439	1.617400E+01
300	  0.079919845	-6.256000E+00	  0.079919845	1.381760E+02	  0.079919845	1.945000E+01	  0.079919845	1.653800E+01
301	  0.080120243	-6.270000E+00	  0.080120243	1.372940E+02	  0.080120243	1.958700E+01	  0.080120243	1.689700E+01
302	  0.080320641	-6.289000E+00	  0.080320641	1.364530E+02	  0.080320641	1.973800E+01	  0.080320641	1.723500E+01
303	  0.080521047	-6.308000E+00	  0.080521047	1.356010E+02	  0.080521047	1.989400E+01	  0.080521047	1.757800E+01
304	  0.080721445	-6.320000E+00	  0.080721445	1.347600E+02	  0.080721445	2.003300E+01	  0.080721445	1.792300E+01
305	  0.080921844	-6.337000E+00	  0.080921844	1.339450E+02	  0.080921844	2.018400E+01	  0.080921844	1.825400E+01
306	  0.081122249	-6.356000E+00	  0.081122249	1.331260E+02	  0.081122249	2.034200E+01	  0.081122249	1.858500E+01
307	  0.081322648	-6.373000E+00	  0.081322648	1.322750E+02	  0.081322648	2.050500E+01	  0.081322648	1.893100E+01
308	  0.081523046	-6.386000E+00	  0.081523046	1.314380E+02	  0.081523046	2.065600E+01	  0.081523046	1.927600E+01
309	  0.081723452	-6.403000E+00	  0.081723452	1.306160E+02	  0.081723452	2.081900E+01	  0.081723452	1.961100E+01
310	  0.081923850	-6.421000E+00	  0.081923850	1.298280E+02	  0.081923850	2.098300E+01	  0.081923850	1.993200E+01
311	  0.082124248	-6.440000E+00	  0.082124248	1.290100E+02	  0.082124248	2.115900E+01	  0.082124248	2.026400E+01
312	  0.082324654	-6.459000E+00	  0.082324654	1.282020E+02	  0.082324654	2.133400E+01	  0.082324654	2.059300E+01
313	  0.082525052	-6.478000E+00	  0.082525052	1.274460E+02	  0.082525052	2.150500E+01	  0.082525052	2.090000E+01
314	  0.082725458	-6.501000E+00	  0.082725458	1.266670E+02	  0.082725458	2.169600E+01	  0.082725458	2.121200E+01
315	  0.082925856	-6.521000E+00	  0.082925856	1.258810E+02	  0.082925856	2.188200E+01	  0.082925856	2.153100E+01
316	  0.083126254	-6.545000E+00	  0.083126254	1.250950E+02	  0.083126254	2.208100E+01	  0.083126254	2.184600E+01
317	  0.083326660	-6.568000E+00	  0.083326660	1.243280E+02	  0.083326660	2.227700E+01	  0.083326660	2.215400E+01
318	  0.083527058	-6.599000E+00	  0.083527058	1.235430E+02	  0.083527058	2.250200E+01	  0.083527058	2.246100E+01
319	  0.083727457	-6.624000E+00	  0.083727457	1.227920E+02	  0.083727457	2.270700E+01	  0.083727457	2.275900E+01
320	  0.083927862	-6.648000E+00	  0.083927862	1.220300E+02	  0.083927862	2.291700E+01	  0.083927862	2.306300E+01
321	  0.084128261	-6.676000E+00	  0.084128261	1.212820E+02	  0.084128261	2.313800E+01	  0.084128261	2.335600E+01
322	  0.084328659	-6.706000E+00	  0.084328659	1.205300E+02	  0.084328659	2.336900E+01	  0.084328659	2.364700E+01
323	  0.084529065	-6.733000E+00	  0.084529065	1.198050E+02	  0.084529065	2.358700E+01	  0.084529065	2.393200E+01
324	  0.084729463	-6.758000E+00	  0.084729463	1.190110E+02	  0.084729463	2.381800E+01	  0.084729463	2.424700E+01
325	  0.084929854	-6.789000E+00	  0.084929854	1.182700E+02	  0.084929854	2.406000E+01	  0.084929854	2.453100E+01
326	  0.085130259	-6.818000E+00	  0.085130259	1.175300E+02	  0.085130259	2.429600E+01	  0.085130259	2.481900E+01
327	  0.085330658	-6.846000E+00	  0.085330658	1.168070E+02	  0.085330658	2.453200E+01	  0.085330658	2.509800E+01
328	  0.085531056	-6.876000E+00	  0.085531056	1.160610E+02	  0.085531056	2.478200E+01	  0.085531056	2.538400E+01
329	  0.085731462	-6.907000E+00	  0.085731462	1.153490E+02	  0.085731462	2.503100E+01	  0.085731462	2.565300E+01
330	  0.085931860	-6.938000E+00	  0.085931860	1.146880E+02	  0.085931860	2.527000E+01	  0.085931860	2.589900E+01
331	  0.086132258	-6.970000E+00	  0.086132258	1.139740E+02	  0.086132258	2.552700E+01	  0.086132258	2.616600E+01
332	  0.086332664	-7.000000E+00	  0.086332664	1.132920E+02	  0.086332664	2.577500E+01	  0.086332664	2.642100E+01
333	  0.086533062	-7.024000E+00	  0.086533062	1.125990E+02	  0.086533062	2.601400E+01	  0.086533062	2.668900E+01
334	  0.086733460	-7.056000E+00	  0.086733460	1.119560E+02	  0.086733460	2.626200E+01	  0.086733460	2.692300E+01
335	  0.086933866	-7.082000E+00	  0.086933866	1.112980E+02	  0.086933866	2.650400E+01	  0.086933866	2.717100E+01
336	  0.087134264	-7.104000E+00	  0.087134264	1.106400E+02	  0.087134264	2.673500E+01	  0.087134264	2.742500E+01
337	  0.087334670	-7.125000E+00	  0.087334670	1.100130E+02	  0.087334670	2.695800E+01	  0.087334670	2.766700E+01
338	  0.087535068	-7.147000E+00	  0.087535068	1.093860E+02	  0.087535068	2.718600E+01	  0.087535068	2.790700E+01
339	  0.087735467	-7.166000E+00	  0.087735467	1.087660E+02	  0.087735467	2.740700E+01	  0.087735467	2.814900E+01
340	  0.087935872	-7.182000E+00	  0.087935872	1.081210E+02	  0.087935872	2.763000E+01	  0.087935872	2.840600E+01
341	  0.088136271	-7.194000E+00	  0.088136271	1.074750E+02	  0.088136271	2.784300E+01	  0.088136271	2.867100E+01
342	  0.088336669	-7.198000E+00	  0.088336669	1.067950E+02	  0.088336669	2.804700E+01	  0.088336669	2.896500E+01
343	  0.088537075	-7.210000E+00	  0.088537075	1.061250E+02	  0.088537075	2.827300E+01	  0.088537075	2.924300E+01
344	  0.088737473	-7.222000E+00	  0.088737473	1.054140E+02	  0.088737473	2.851500E+01	  0.088737473	2.953700E+01
345	  0.088937871	-7.228000E+00	  0.088937871	1.047380E+02	  0.088937871	2.873400E+01	  0.088937871	2.982700E+01
346	  0.089138277	-7.242000E+00	  0.089138277	1.040400E+02	  0.089138277	2.898500E+01	  0.089138277	3.011200E+01
347	  0.089338675	-7.259000E+00	  0.089338675	1.033050E+02	  0.089338675	2.926300E+01	  0.089338675	3.040600E+01
348	  0.089539073	-7.280000E+00	  0.089539073	1.026010E+02	  0.089539073	2.954400E+01	  0.089539073	3.068000E+01
349	  0.089739479	-7.287000E+00	  0.089739479	1.019110E+02	  0.089739479	2.978600E+01	  0.089739479	3.097300E+01
350	  0.089939877	-7.318000E+00	  0.089939877	1.011820E+02	  0.089939877	3.011500E+01	  0.089939877	3.123400E+01
351	  0.090140276	-7.338000E+00	  0.090140276	1.004810E+02	  0.090140276	3.040600E+01	  0.090140276	3.150500E+01
352	  0.090340681	-7.361000E+00	  0.090340681	9.976900E+01	  0.090340681	3.071500E+01	  0.090340681	3.177200E+01
353	  0.090541080	-7.384000E+00	  0.090541080	9.906400E+01	  0.090541080	3.102400E+01	  0.090541080	3.203600E+01
354	  0.090741485	-7.412000E+00	  0.090741485	9.840400E+01	  0.090741485	3.133800E+01	  0.090741485	3.226600E+01
355	  0.090941884	-7.440000E+00	  0.090941884	9.772600E+01	  0.090941884	3.166100E+01	  0.090941884	3.250400E+01
356	  0.091142282	-7.471000E+00	  0.091142282	9.703000E+01	  0.091142282	3.200400E+01	  0.091142282	3.274000E+01
357	  0.091342688	-7.504000E+00	  0.091342688	9.638200E+01	  0.091342688	3.234100E+01	  0.091342688	3.294600E+01
358	  0.091543086	-7.530000E+00	  0.091543086	9.570700E+01	  0.091543086	3.267000E+01	  0.091543086	3.318100E+01
359	  0.091743484	-7.562000E+00	  0.091743484	9.504300E+01	  0.091743484	3.301600E+01	  0.091743484	3.339300E+01
360	  0.091943890	-7.598000E+00	  0.091943890	9.439800E+01	  0.091943890	3.337300E+01	  0.091943890	3.358400E+01
361	  0.092144288	-7.627000E+00	  0.092144288	9.373500E+01	  0.092144288	3.371700E+01	  0.092144288	3.380000E+01
362	  0.092344686	-7.660000E+00	  0.092344686	9.311000E+01	  0.092344686	3.406200E+01	  0.092344686	3.398500E+01
363	  0.092545092	-7.691000E+00	  0.092545092	9.247600E+01	  0.092545092	3.440900E+01	  0.092545092	3.417800E+01
364	  0.092745490	-7.724000E+00	  0.092745490	9.188000E+01	  0.092745490	3.475100E+01	  0.092745490	3.434400E+01
365	  0.092945889	-7.757000E+00	  0.092945889	9.124800E+01	  0.092945889	3.510900E+01	  0.092945889	3.452600E+01
366	  0.093146294	-7.791000E+00	  0.093146294	9.061100E+01	  0.093146294	3.547700E+01	  0.093146294	3.470200E+01
367	  0.093346693	-7.825000E+00	  0.093346693	9.001400E+01	  0.093346693	3.583000E+01	  0.093346693	3.486100E+01
368	  0.093547091	-7.857000E+00	  0.093547091	8.945000E+01	  0.093547091	3.616700E+01	  0.093547091	3.500600E+01
369	  0.093747497	-7.895000E+00	  0.093747497	8.882300E+01	  0.093747497	3.655200E+01	  0.093747497	3.515800E+01
370	  0.093947895	-7.924000E+00	  0.093947895	8.824800E+01	  0.093947895	3.689100E+01	  0.093947895	3.531300E+01
371	  0.094148301	-7.958000E+00	  0.094148301	8.767400E+01	  0.094148301	3.724900E+01	  0.094148301	3.544600E+01
372	  0.094348699	-7.996000E+00	  0.094348699	8.711700E+01	  0.094348699	3.760900E+01	  0.094348699	3.556100E+01
373	  0.094549097	-8.034000E+00	  0.094549097	8.653900E+01	  0.094549097	3.798400E+01	  0.094549097	3.567800E+01
374	  0.094749503	-8.065000E+00	  0.094749503	8.598200E+01	  0.094749503	3.833200E+01	  0.094749503	3.580600E+01
375	  0.094949901	-8.097000E+00	  0.094949901	8.544000E+01	  0.094949901	3.867800E+01	  0.094949901	3.592200E+01
376	  0.095150299	-8.133000E+00	  0.095150299	8.490600E+01	  0.095150299	3.903300E+01	  0.095150299	3.602000E+01
377	  0.095350705	-8.169000E+00	  0.095350705	8.435300E+01	  0.095350705	3.939900E+01	  0.095350705	3.612100E+01
378	  0.095551103	-8.200000E+00	  0.095551103	8.381400E+01	  0.095551103	3.975000E+01	  0.095551103	3.622800E+01
379	  0.095751502	-8.236000E+00	  0.095751502	8.330100E+01	  0.095751502	4.010200E+01	  0.095751502	3.630700E+01
380	  0.095951907	-8.270000E+00	  0.095951907	8.277200E+01	  0.095951907	4.045600E+01	  0.095951907	3.639700E+01
381	  0.096152306	-8.304000E+00	  0.096152306	8.226100E+01	  0.096152306	4.080700E+01	  0.096152306	3.647400E+01
382	  0.096352704	-8.337000E+00	  0.096352704	8.176700E+01	  0.096352704	4.114600E+01	  0.096352704	3.654700E+01
383	  0.096553110	-8.370000E+00	  0.096553110	8.129000E+01	  0.096553110	4.147800E+01	  0.096553110	3.661100E+01
384	  0.096753508	-8.406000E+00	  0.096753508	8.079900E+01	  0.096753508	4.182800E+01	  0.096753508	3.666400E+01
385	  0.096953906	-8.438000E+00	  0.096953906	8.033300E+01	  0.096953906	4.215600E+01	  0.096953906	3.671900E+01
386	  0.097154312	-8.473000E+00	  0.097154312	7.984200E+01	  0.097154312	4.250400E+01	  0.097154312	3.677100E+01
387	  0.097354710	-8.507000E+00	  0.097354710	7.937400E+01	  0.097354710	4.284200E+01	  0.097354710	3.681200E+01
388	  0.097555116	-8.543000E+00	  0.097555116	7.893600E+01	  0.097555116	4.316700E+01	  0.097555116	3.683500E+01
389	  0.097755514	-8.575000E+00	  0.097755514	7.850200E+01	  0.097755514	4.348100E+01	  0.097755514	3.686900E+01
390	  0.097955912	-8.611000E+00	  0.097955912	7.808800E+01	  0.097955912	4.379400E+01	  0.097955912	3.687600E+01
391	  0.098156318	-8.639000E+00	  0.098156318	7.764300E+01	  0.098156318	4.410800E+01	  0.098156318	3.692200E+01
392	  0.098356716	-8.673000E+00	  0.098356716	7.722800E+01	  0.098356716	4.441900E+01	  0.098356716	3.693300E+01
393	  0.098557115	-8.704000E+00	  0.098557115	7.681400E+01	  0.098557115	4.472500E+01	  0.098557115	3.695000E+01
394	  0.098757520	-8.736000E+00	  0.098757520	7.638100E+01	  0.098757520	4.504400E+01	  0.098757520	3.696800E+01
395	  0.098957919	-8.765000E+00	  0.098957919	7.594500E+01	  0.098957919	4.536000E+01	  0.098957919	3.699300E+01
396	  0.099158317	-8.792000E+00	  0.099158317	7.554500E+01	  0.099158317	4.565000E+01	  0.099158317	3.701600E+01
397	  0.099358723	-8.823000E+00	  0.099358723	7.513700E+01	  0.099358723	4.595400E+01	  0.099358723	3.702200E+01
398	  0.099559121	-8.849000E+00	  0.099559121	7.475200E+01	  0.099559121	4.623700E+01	  0.099559121	3.703600E+01
399	  0.099759519	-8.879000E+00	  0.099759519	7.439500E+01	  0.099759519	4.651100E+01	  0.099759519	3.702300E+01
400	  0.099959925	-8.915000E+00	  0.099959925	7.400500E+01	  0.099959925	4.681500E+01	  0.099959925	3.699800E+01
401	  0.100160323	-8.937000E+00	  0.100160323	7.366600E+01	  0.100160323	4.706300E+01	  0.100160323	3.700700E+01
402	  0.100360721	-8.955000E+00	  0.100360721	7.325000E+01	  0.100360721	4.735100E+01	  0.100360721	3.705300E+01
403	  0.100561127	-8.980000E+00	  0.100561127	7.288000E+01	  0.100561127	4.762500E+01	  0.100561127	3.705500E+01
404	  0.100761525	-9.006000E+00	  0.100761525	7.255500E+01	  0.100761525	4.787400E+01	  0.100761525	3.704000E+01
405	  0.100961931	-9.021000E+00	  0.100961931	7.218400E+01	  0.100961931	4.813100E+01	  0.100961931	3.708100E+01
406	  0.101162329	-9.039000E+00	  0.101162329	7.182100E+01	  0.101162329	4.838900E+01	  0.101162329	3.710700E+01
407	  0.101362728	-9.058000E+00	  0.101362728	7.150300E+01	  0.101362728	4.862200E+01	  0.101362728	3.711100E+01
408	  0.101563133	-9.072000E+00	  0.101563133	7.114900E+01	  0.101563133	4.887100E+01	  0.101563133	3.714500E+01
409	  0.101763532	-9.095000E+00	  0.101763532	7.085000E+01	  0.101763532	4.910000E+01	  0.101763532	3.712700E+01
410	  0.101963930	-9.105000E+00	  0.101963930	7.047800E+01	  0.101963930	4.935400E+01	  0.101963930	3.717900E+01
411	  0.102164328	-9.118000E+00	  0.102164328	7.016000E+01	  0.102164328	4.958000E+01	  0.102164328	3.720500E+01
412	  0.102364726	-9.136000E+00	  0.102364726	6.979500E+01	  0.102364726	4.984500E+01	  0.102364726	3.721500E+01
413	  0.102565125	-9.146000E+00	  0.102565125	6.944400E+01	  0.102565125	5.008900E+01	  0.102565125	3.725800E+01
414	  0.102765530	-9.153000E+00	  0.102765530	6.911900E+01	  0.102765530	5.031300E+01	  0.102765530	3.730600E+01
415	  0.102965929	-9.156000E+00	  0.102965929	6.875500E+01	  0.102965929	5.055600E+01	  0.102965929	3.737900E+01
416	  0.103166327	-9.158000E+00	  0.103166327	6.842700E+01	  0.103166327	5.077600E+01	  0.103166327	3.744700E+01
417	  0.103366733	-9.167000E+00	  0.103366733	6.806800E+01	  0.103366733	5.102900E+01	  0.103366733	3.749100E+01
418	  0.103567131	-9.166000E+00	  0.103567131	6.771800E+01	  0.103567131	5.126100E+01	  0.103567131	3.757500E+01
419	  0.103767529	-9.168000E+00	  0.103767529	6.737100E+01	  0.103767529	5.149900E+01	  0.103767529	3.764200E+01
420	  0.103967935	-9.172000E+00	  0.103967935	6.707700E+01	  0.103967935	5.170400E+01	  0.103967935	3.768900E+01
421	  0.104168333	-9.167000E+00	  0.104168333	6.664900E+01	  0.104168333	5.198900E+01	  0.104168333	3.780400E+01
422	  0.104368731	-9.168000E+00	  0.104368731	6.631800E+01	  0.104368731	5.221800E+01	  0.104368731	3.787100E+01
423	  0.104569137	-9.163000E+00	  0.104569137	6.597000E+01	  0.104569137	5.245300E+01	  0.104569137	3.796400E+01
424	  0.104769535	-9.154000E+00	  0.104769535	6.555700E+01	  0.104769535	5.272900E+01	  0.104769535	3.809000E+01
425	  0.104969934	-9.149000E+00	  0.104969934	6.512100E+01	  0.104969934	5.302900E+01	  0.104969934	3.820400E+01
426	  0.105170339	-9.139000E+00	  0.105170339	6.477600E+01	  0.105170339	5.326000E+01	  0.105170339	3.831900E+01
427	  0.105370738	-9.131000E+00	  0.105370738	6.441700E+01	  0.105370738	5.350700E+01	  0.105370738	3.842500E+01
428	  0.105571143	-9.121000E+00	  0.105571143	6.396400E+01	  0.105571143	5.382100E+01	  0.105571143	3.855900E+01
429	  0.105771542	-9.112000E+00	  0.105771542	6.355700E+01	  0.105771542	5.410600E+01	  0.105771542	3.868000E+01
430	  0.105971940	-9.091000E+00	  0.105971940	6.311200E+01	  0.105971940	5.440700E+01	  0.105971940	3.886500E+01
431	  0.106172346	-9.070000E+00	  0.106172346	6.265600E+01	  0.106172346	5.472100E+01	  0.106172346	3.905000E+01
432	  0.106372744	-9.056000E+00	  0.106372744	6.220800E+01	  0.106372744	5.504000E+01	  0.106372744	3.920000E+01
433	  0.106573142	-9.038000E+00	  0.106573142	6.178800E+01	  0.106573142	5.533700E+01	  0.106573142	3.936000E+01
434	  0.106773548	-9.019000E+00	  0.106773548	6.134200E+01	  0.106773548	5.565700E+01	  0.106773548	3.953300E+01
435	  0.106973946	-8.996000E+00	  0.106973946	6.087900E+01	  0.106973946	5.598800E+01	  0.106973946	3.972900E+01
436	  0.107174344	-8.978000E+00	  0.107174344	6.036500E+01	  0.107174344	5.637000E+01	  0.107174344	3.990700E+01
437	  0.107374750	-8.954000E+00	  0.107374750	5.987200E+01	  0.107374750	5.673500E+01	  0.107374750	4.010800E+01
438	  0.107575148	-8.944000E+00	  0.107575148	5.935500E+01	  0.107575148	5.713800E+01	  0.107575148	4.023600E+01
439	  0.107775547	-8.913000E+00	  0.107775547	5.886500E+01	  0.107775547	5.750400E+01	  0.107775547	4.047400E+01
440	  0.107975952	-8.887000E+00	  0.107975952	5.832100E+01	  0.107975952	5.792400E+01	  0.107975952	4.069100E+01
441	  0.108176351	-8.870000E+00	  0.108176351	5.783300E+01	  0.108176351	5.831200E+01	  0.108176351	4.085000E+01
442	  0.108376749	-8.846000E+00	  0.108376749	5.728000E+01	  0.108376749	5.875400E+01	  0.108376749	4.105800E+01
443	  0.108577155	-8.828000E+00	  0.108577155	5.670500E+01	  0.108577155	5.922600E+01	  0.108577155	4.123200E+01
444	  0.108777553	-8.808000E+00	  0.108777553	5.607400E+01	  0.108777553	5.975200E+01	  0.108777553	4.141600E+01
445	  0.108977959	-8.784000E+00	  0.108977959	5.555300E+01	  0.108977959	6.018700E+01	  0.108977959	4.161400E+01
446	  0.109178357	-8.769000E+00	  0.109178357	5.490000E+01	  0.109178357	6.075200E+01	  0.109178357	4.176500E+01
447	  0.109378755	-8.751000E+00	  0.109378755	5.430900E+01	  0.109378755	6.126800E+01	  0.109378755	4.192700E+01
448	  0.109579161	-8.734000E+00	  0.109579161	5.364400E+01	  0.109579161	6.186000E+01	  0.109579161	4.208000E+01
449	  0.109779559	-8.718000E+00	  0.109779559	5.299800E+01	  0.109779559	6.244200E+01	  0.109779559	4.222300E+01
450	  0.109979957	-8.707000E+00	  0.109979957	5.237600E+01	  0.109979957	6.301400E+01	  0.109979957	4.233200E+01
451	  0.110180363	-8.690000E+00	  0.110180363	5.170400E+01	  0.110180363	6.363800E+01	  0.110180363	4.246600E+01
452	  0.110380761	-8.673000E+00	  0.110380761	5.099700E+01	  0.110380761	6.430500E+01	  0.110380761	4.260500E+01
453	  0.110581160	-8.667000E+00	  0.110581160	5.027600E+01	  0.110581160	6.499800E+01	  0.110581160	4.265500E+01
454	  0.110781565	-8.661000E+00	  0.110781565	4.958700E+01	  0.110781565	6.566800E+01	  0.110781565	4.270400E+01
455	  0.110981964	-8.647000E+00	  0.110981964	4.888300E+01	  0.110981964	6.636200E+01	  0.110981964	4.278900E+01
456	  0.111182362	-8.646000E+00	  0.111182362	4.812800E+01	  0.111182362	6.711400E+01	  0.111182362	4.278200E+01
457	  0.111382768	-8.637000E+00	  0.111382768	4.743200E+01	  0.111382768	6.781900E+01	  0.111382768	4.281400E+01
458	  0.111583166	-8.631000E+00	  0.111583166	4.668600E+01	  0.111583166	6.858100E+01	  0.111583166	4.280900E+01
459	  0.111783572	-8.622000E+00	  0.111783572	4.592700E+01	  0.111783572	6.936800E+01	  0.111783572	4.282000E+01
460	  0.111983970	-8.623000E+00	  0.111983970	4.518500E+01	  0.111983970	7.014000E+01	  0.111983970	4.273900E+01
461	  0.112184368	-8.619000E+00	  0.112184368	4.437100E+01	  0.112184368	7.100000E+01	  0.112184368	4.267500E+01
462	  0.112384774	-8.619000E+00	  0.112384774	4.359800E+01	  0.112384774	7.182100E+01	  0.112384774	4.256900E+01
463	  0.112585172	-8.621000E+00	  0.112585172	4.282200E+01	  0.112585172	7.265100E+01	  0.112585172	4.243400E+01
464	  0.112785570	-8.618000E+00	  0.112785570	4.204000E+01	  0.112785570	7.349900E+01	  0.112785570	4.231100E+01
465	  0.112985976	-8.619000E+00	  0.112985976	4.119300E+01	  0.112985976	7.442200E+01	  0.112985976	4.213100E+01
466	  0.113186374	-8.620000E+00	  0.113186374	4.041200E+01	  0.113186374	7.527800E+01	  0.113186374	4.193800E+01
467	  0.113386773	-8.621000E+00	  0.113386773	3.958600E+01	  0.113386773	7.618900E+01	  0.113386773	4.171700E+01
468	  0.113587178	-8.622000E+00	  0.113587178	3.878000E+01	  0.113587178	7.708500E+01	  0.113587178	4.148000E+01
469	  0.113787577	-8.627000E+00	  0.113787577	3.797100E+01	  0.113787577	7.797800E+01	  0.113787577	4.118800E+01
470	  0.113987975	-8.642000E+00	  0.113987975	3.710800E+01	  0.113987975	7.891300E+01	  0.113987975	4.078100E+01
471	  0.114188381	-8.644000E+00	  0.114188381	3.627900E+01	  0.114188381	7.984200E+01	  0.114188381	4.045400E+01
472	  0.114388779	-8.644000E+00	  0.114388779	3.546600E+01	  0.114388779	8.076100E+01	  0.114388779	4.012600E+01
473	  0.114589177	-8.653000E+00	  0.114589177	3.463400E+01	  0.114589177	8.167500E+01	  0.114589177	3.969400E+01
474	  0.114789583	-8.661000E+00	  0.114789583	3.379100E+01	  0.114789583	8.260300E+01	  0.114789583	3.923500E+01
475	  0.114989981	-8.666000E+00	  0.114989981	3.293200E+01	  0.114989981	8.355800E+01	  0.114989981	3.876500E+01
476	  0.115190387	-8.676000E+00	  0.115190387	3.207600E+01	  0.115190387	8.449200E+01	  0.115190387	3.823600E+01
477	  0.115390785	-8.682000E+00	  0.115390785	3.117600E+01	  0.115390785	8.548200E+01	  0.115390785	3.767500E+01
478	  0.115591183	-8.696000E+00	  0.115591183	3.029900E+01	  0.115591183	8.640700E+01	  0.115591183	3.703600E+01
479	  0.115791589	-8.704000E+00	  0.115791589	2.941900E+01	  0.115791589	8.735300E+01	  0.115791589	3.640800E+01
480	  0.115991987	-8.720000E+00	  0.115991987	2.845900E+01	  0.115991987	8.834000E+01	  0.115991987	3.563300E+01
481	  0.116192386	-8.745000E+00	  0.116192386	2.753100E+01	  0.116192386	8.923600E+01	  0.116192386	3.478500E+01
482	  0.116392791	-8.760000E+00	  0.116392791	2.661100E+01	  0.116392791	9.015000E+01	  0.116392791	3.397600E+01
483	  0.116593190	-8.783000E+00	  0.116593190	2.564500E+01	  0.116593190	9.105000E+01	  0.116593190	3.304000E+01
484	  0.116793588	-8.809000E+00	  0.116793588	2.461900E+01	  0.116793588	9.197700E+01	  0.116793588	3.200400E+01
485	  0.116993994	-8.839000E+00	  0.116993994	2.361100E+01	  0.116993994	9.282500E+01	  0.116993994	3.091500E+01
486	  0.117194392	-8.862000E+00	  0.117194392	2.259500E+01	  0.117194392	9.368700E+01	  0.117194392	2.982600E+01
487	  0.117394790	-8.904000E+00	  0.117394790	2.157400E+01	  0.117394790	9.440500E+01	  0.117394790	2.858600E+01
488	  0.117595196	-8.942000E+00	  0.117595196	2.053000E+01	  0.117595196	9.511900E+01	  0.117595196	2.731500E+01
489	  0.117795594	-8.982000E+00	  0.117795594	1.944700E+01	  0.117795594	9.580400E+01	  0.117795594	2.596100E+01
490	  0.117995992	-9.020000E+00	  0.117995992	1.833000E+01	  0.117995992	9.648900E+01	  0.117995992	2.456100E+01
491	  0.118196398	-9.070000E+00	  0.118196398	1.722200E+01	  0.118196398	9.701500E+01	  0.118196398	2.307700E+01
492	  0.118396796	-9.118000E+00	  0.118396796	1.607500E+01	  0.118396796	9.752500E+01	  0.118396796	2.154100E+01
493	  0.118597202	-9.171000E+00	  0.118597202	1.492200E+01	  0.118597202	9.794300E+01	  0.118597202	1.996400E+01
494	  0.118797600	-9.227000E+00	  0.118797600	1.376800E+01	  0.118797600	9.826600E+01	  0.118797600	1.836100E+01
