! Anritsu VNA Master:             	Model: MS2036C/10/77
! SN:             	1601066
! /bd0/18may09/b256.ns.m1.txt
! Existing Calibration Information:
! TYPE:             	Current Settings	Active Cal Settings
! TIME:             	05/09/2018 07:38:17 PM	05/09/2018 07:34:34 PM
! INTERNAL TEMP:    	52.8 C	52.0 C
! # POINTS:         	494	494
! START FREQ:       	20.000 MHz	20.000 MHz
! STOP FREQ:        	118.797 594 MHz	118.797 594 MHz
! SOURCE POWER:     	High	High
! IFBW:             	50 Hz	50 Hz
! AVG FACTOR:       	  1 	  1 
! REF PLANE 1:      	0 mm	0 mm
! REF PLANE 2:      	0 mm	0 mm
! CAL TYPE:         	Full S22	Full S22
! CAL METHOD:       	SOLT	SOLT
! CAL LINE TYPE:    	Coax	Coax
! DUT PORT 1:       	K-Conn(M)	K-Conn(M)
! DUT PORT 2:       	K-Conn(M)	K-Conn(M)
! CAL STATUS:       	OK: Accuracy High	--
! PROP-V:       	0.700
! CABLE LOSS:       	0.000 dB/m
! REF IMPEDANCE:       	50.0
! Trace Specific Parameters:	TR1	TR2	TR3	TR4
! TRACE.#.Y (GRAPH TYPE)	LOG MAG	PHASE	REAL IMPEDANCE	IMAGINARY IMPEDANCE
! TRACE.#.X 	FREQ.GHZ	FREQ.GHZ	FREQ.GHZ	FREQ.GHZ
! S-PARAMETER	S22	S22	S22	S22
! SMOOTH/APERTURE %	0	0	0	0
! WINDOW	NSL	NSL	NSL	NSL
! GATING	OFF	OFF	OFF	OFF
! FGTD	OFF	OFF	OFF	OFF
Marker Information per Trace:	TR1	TR2	TR3	TR4
!MK1	--	"MK1 TR2:  20.000 MHz,PH:-126.94°"	--	--
!MK2	--	--	"MK2 TR3:  70.100 200 MHz,Z:(16.898 ohm, -1.397 ohm)"	--
!MK3	--	--	--	--
!MK4	--	--	--	--
!MK5	--	--	--	--
!MK6	--	--	--	--
!MK7	--	--	--	--
!MK8	--	--	--	--
PNT	TR1.FREQ.GHZ	TR1.LOG MAG.dB	TR2.FREQ.GHZ	TR2.PHASE.deg	TR3.FREQ.GHZ	TR3.REAL IMPEDANCE.ohm	TR4.FREQ.GHZ	TR4.IMAGINARY IMPEDANCE.ohm
1	  0.020000000	-6.220000E-01	  0.020000000	-1.269430E+02	  0.020000000	2.236000E+00	  0.020000000	-2.491900E+01
2	  0.020200402	-6.240000E-01	  0.020200402	-1.284140E+02	  0.020200402	2.216000E+00	  0.020200402	-2.412400E+01
3	  0.020400802	-6.280000E-01	  0.020400802	-1.299130E+02	  0.020400802	2.202000E+00	  0.020400802	-2.332400E+01
4	  0.020601204	-6.340000E-01	  0.020601204	-1.314060E+02	  0.020601204	2.195000E+00	  0.020601204	-2.253600E+01
5	  0.020801604	-6.360000E-01	  0.020801604	-1.329550E+02	  0.020801604	2.178000E+00	  0.020801604	-2.172900E+01
6	  0.021002004	-6.390000E-01	  0.021002004	-1.345000E+02	  0.021002004	2.163000E+00	  0.021002004	-2.093300E+01
7	  0.021202406	-6.450000E-01	  0.021202406	-1.360570E+02	  0.021202406	2.158000E+00	  0.021202406	-2.013900E+01
8	  0.021402806	-6.460000E-01	  0.021402806	-1.375920E+02	  0.021402806	2.140000E+00	  0.021402806	-1.936600E+01
9	  0.021603208	-6.520000E-01	  0.021603208	-1.391260E+02	  0.021603208	2.138000E+00	  0.021603208	-1.860100E+01
10	  0.021803608	-6.560000E-01	  0.021803608	-1.406710E+02	  0.021803608	2.130000E+00	  0.021803608	-1.783800E+01
11	  0.022004008	-6.610000E-01	  0.022004008	-1.422190E+02	  0.022004008	2.126000E+00	  0.022004008	-1.708100E+01
12	  0.022204408	-6.680000E-01	  0.022204408	-1.438110E+02	  0.022204408	2.128000E+00	  0.022204408	-1.631000E+01
13	  0.022404809	-6.760000E-01	  0.022404809	-1.453950E+02	  0.022404809	2.133000E+00	  0.022404809	-1.554900E+01
14	  0.022605211	-6.830000E-01	  0.022605211	-1.469870E+02	  0.022605211	2.138000E+00	  0.022605211	-1.479100E+01
15	  0.022805611	-6.840000E-01	  0.022805611	-1.486150E+02	  0.022805611	2.125000E+00	  0.022805611	-1.402300E+01
16	  0.023006011	-6.910000E-01	  0.023006011	-1.502060E+02	  0.023006011	2.129000E+00	  0.023006011	-1.327800E+01
17	  0.023206413	-6.950000E-01	  0.023206413	-1.518140E+02	  0.023206413	2.125000E+00	  0.023206413	-1.253100E+01
18	  0.023406813	-7.030000E-01	  0.023406813	-1.534140E+02	  0.023406813	2.136000E+00	  0.023406813	-1.179200E+01
19	  0.023607215	-7.130000E-01	  0.023607215	-1.550180E+02	  0.023607215	2.151000E+00	  0.023607215	-1.105600E+01
20	  0.023807615	-7.240000E-01	  0.023807615	-1.566570E+02	  0.023807615	2.173000E+00	  0.023807615	-1.030900E+01
21	  0.024008015	-7.330000E-01	  0.024008015	-1.583080E+02	  0.024008015	2.186000E+00	  0.024008015	-9.561000E+00
22	  0.024208417	-7.420000E-01	  0.024208417	-1.599830E+02	  0.024208417	2.200000E+00	  0.024208417	-8.807000E+00
23	  0.024408817	-7.500000E-01	  0.024408817	-1.616600E+02	  0.024408817	2.216000E+00	  0.024408817	-8.055000E+00
24	  0.024609219	-7.590000E-01	  0.024609219	-1.633440E+02	  0.024609219	2.231000E+00	  0.024609219	-7.304000E+00
25	  0.024809619	-7.710000E-01	  0.024809619	-1.650210E+02	  0.024809619	2.256000E+00	  0.024809619	-6.559000E+00
26	  0.025010020	-7.830000E-01	  0.025010020	-1.667080E+02	  0.025010020	2.284000E+00	  0.025010020	-5.813000E+00
27	  0.025210422	-7.950000E-01	  0.025210422	-1.684110E+02	  0.025210422	2.312000E+00	  0.025210422	-5.062000E+00
28	  0.025410822	-8.100000E-01	  0.025410822	-1.701190E+02	  0.025410822	2.347000E+00	  0.025410822	-4.312000E+00
29	  0.025611224	-8.220000E-01	  0.025611224	-1.718470E+02	  0.025611224	2.377000E+00	  0.025611224	-3.555000E+00
30	  0.025811624	-8.360000E-01	  0.025811624	-1.735970E+02	  0.025811624	2.413000E+00	  0.025811624	-2.790000E+00
31	  0.026012026	-8.480000E-01	  0.026012026	-1.753420E+02	  0.026012026	2.444000E+00	  0.026012026	-2.028000E+00
32	  0.026212426	-8.630000E-01	  0.026212426	-1.771000E+02	  0.026212426	2.485000E+00	  0.026212426	-1.262000E+00
33	  0.026412826	-8.800000E-01	  0.026412826	-1.788760E+02	  0.026412826	2.532000E+00	  0.026412826	-4.890000E-01
34	  0.026613226	-8.970000E-01	  0.026613226	1.793440E+02	  0.026613226	2.580000E+00	  0.026613226	2.850000E-01
35	  0.026813626	-9.130000E-01	  0.026813626	1.775530E+02	  0.026813626	2.628000E+00	  0.026813626	1.064000E+00
36	  0.027014028	-9.310000E-01	  0.027014028	1.757680E+02	  0.027014028	2.682000E+00	  0.027014028	1.842000E+00
37	  0.027214428	-9.500000E-01	  0.027214428	1.739680E+02	  0.027214428	2.739000E+00	  0.027214428	2.626000E+00
38	  0.027414829	-9.710000E-01	  0.027414829	1.721620E+02	  0.027414829	2.805000E+00	  0.027414829	3.414000E+00
39	  0.027615231	-9.890000E-01	  0.027615231	1.703410E+02	  0.027615231	2.866000E+00	  0.027615231	4.210000E+00
40	  0.027815631	-1.011000E+00	  0.027815631	1.685150E+02	  0.027815631	2.938000E+00	  0.027815631	5.010000E+00
41	  0.028016033	-1.033000E+00	  0.028016033	1.666740E+02	  0.028016033	3.011000E+00	  0.028016033	5.819000E+00
42	  0.028216433	-1.054000E+00	  0.028216433	1.648240E+02	  0.028216433	3.085000E+00	  0.028216433	6.635000E+00
43	  0.028416833	-1.079000E+00	  0.028416833	1.629700E+02	  0.028416833	3.172000E+00	  0.028416833	7.456000E+00
44	  0.028617235	-1.103000E+00	  0.028617235	1.611210E+02	  0.028617235	3.259000E+00	  0.028617235	8.278000E+00
45	  0.028817635	-1.128000E+00	  0.028817635	1.592700E+02	  0.028817635	3.351000E+00	  0.028817635	9.105000E+00
46	  0.029018037	-1.155000E+00	  0.029018037	1.574150E+02	  0.029018037	3.453000E+00	  0.029018037	9.937000E+00
47	  0.029218437	-1.182000E+00	  0.029218437	1.555500E+02	  0.029218437	3.556000E+00	  0.029218437	1.078000E+01
48	  0.029418837	-1.211000E+00	  0.029418837	1.536820E+02	  0.029418837	3.671000E+00	  0.029418837	1.162900E+01
49	  0.029619239	-1.239000E+00	  0.029619239	1.517890E+02	  0.029619239	3.786000E+00	  0.029619239	1.249600E+01
50	  0.029819639	-1.270000E+00	  0.029819639	1.499060E+02	  0.029819639	3.914000E+00	  0.029819639	1.336400E+01
51	  0.030020041	-1.300000E+00	  0.030020041	1.480090E+02	  0.030020041	4.040000E+00	  0.030020041	1.424600E+01
52	  0.030220442	-1.328000E+00	  0.030220442	1.461140E+02	  0.030220442	4.166000E+00	  0.030220442	1.513500E+01
53	  0.030420844	-1.357000E+00	  0.030420844	1.442290E+02	  0.030420844	4.303000E+00	  0.030420844	1.602700E+01
54	  0.030621244	-1.389000E+00	  0.030621244	1.423430E+02	  0.030621244	4.452000E+00	  0.030621244	1.692700E+01
55	  0.030821642	-1.422000E+00	  0.030821642	1.404430E+02	  0.030821642	4.608000E+00	  0.030821642	1.784400E+01
56	  0.031022044	-1.453000E+00	  0.031022044	1.385050E+02	  0.031022044	4.768000E+00	  0.031022044	1.878900E+01
57	  0.031222444	-1.480000E+00	  0.031222444	1.365800E+02	  0.031222444	4.920000E+00	  0.031222444	1.974000E+01
58	  0.031422846	-1.514000E+00	  0.031422846	1.346180E+02	  0.031422846	5.100000E+00	  0.031422846	2.072000E+01
59	  0.031623244	-1.546000E+00	  0.031623244	1.326430E+02	  0.031623244	5.284000E+00	  0.031623244	2.172000E+01
60	  0.031823646	-1.581000E+00	  0.031823646	1.306520E+02	  0.031823646	5.488000E+00	  0.031823646	2.274000E+01
61	  0.032024048	-1.617000E+00	  0.032024048	1.286620E+02	  0.032024048	5.702000E+00	  0.032024048	2.377500E+01
62	  0.032224450	-1.652000E+00	  0.032224450	1.266810E+02	  0.032224450	5.923000E+00	  0.032224450	2.482000E+01
63	  0.032424849	-1.690000E+00	  0.032424849	1.246640E+02	  0.032424849	6.168000E+00	  0.032424849	2.590100E+01
64	  0.032625251	-1.725000E+00	  0.032625251	1.226420E+02	  0.032625251	6.413000E+00	  0.032625251	2.700200E+01
65	  0.032825653	-1.764000E+00	  0.032825653	1.205950E+02	  0.032825653	6.684000E+00	  0.032825653	2.813600E+01
66	  0.033026051	-1.802000E+00	  0.033026051	1.185520E+02	  0.033026051	6.969000E+00	  0.033026051	2.928700E+01
67	  0.033226453	-1.842000E+00	  0.033226453	1.164980E+02	  0.033226453	7.276000E+00	  0.033226453	3.046600E+01
68	  0.033426855	-1.882000E+00	  0.033426855	1.144460E+02	  0.033426855	7.596000E+00	  0.033426855	3.166600E+01
69	  0.033627257	-1.925000E+00	  0.033627257	1.124010E+02	  0.033627257	7.950000E+00	  0.033627257	3.288300E+01
70	  0.033827655	-1.967000E+00	  0.033827655	1.103560E+02	  0.033827655	8.317000E+00	  0.033827655	3.412600E+01
71	  0.034028057	-2.010000E+00	  0.034028057	1.082860E+02	  0.034028057	8.710000E+00	  0.034028057	3.541000E+01
72	  0.034228459	-2.053000E+00	  0.034228459	1.062260E+02	  0.034228459	9.127000E+00	  0.034228459	3.671600E+01
73	  0.034428857	-2.102000E+00	  0.034428857	1.041320E+02	  0.034428857	9.594000E+00	  0.034428857	3.807000E+01
74	  0.034629259	-2.146000E+00	  0.034629259	1.020470E+02	  0.034629259	1.007000E+01	  0.034629259	3.945300E+01
75	  0.034829661	-2.193000E+00	  0.034829661	9.996700E+01	  0.034829661	1.058700E+01	  0.034829661	4.086200E+01
76	  0.035030060	-2.243000E+00	  0.035030060	9.788100E+01	  0.035030060	1.115300E+01	  0.035030060	4.230700E+01
77	  0.035230462	-2.288000E+00	  0.035230462	9.580500E+01	  0.035230462	1.173000E+01	  0.035230462	4.378500E+01
78	  0.035430863	-2.338000E+00	  0.035430863	9.372500E+01	  0.035430863	1.237000E+01	  0.035430863	4.529800E+01
79	  0.035631265	-2.390000E+00	  0.035631265	9.163800E+01	  0.035631265	1.306400E+01	  0.035631265	4.685400E+01
80	  0.035831664	-2.439000E+00	  0.035831664	8.954600E+01	  0.035831664	1.379100E+01	  0.035831664	4.845700E+01
81	  0.036032066	-2.491000E+00	  0.036032066	8.745200E+01	  0.036032066	1.458200E+01	  0.036032066	5.010200E+01
82	  0.036232468	-2.540000E+00	  0.036232468	8.537000E+01	  0.036232468	1.541400E+01	  0.036232468	5.178400E+01
83	  0.036432866	-2.595000E+00	  0.036432866	8.325800E+01	  0.036432866	1.634700E+01	  0.036432866	5.353000E+01
84	  0.036633268	-2.649000E+00	  0.036633268	8.115900E+01	  0.036633268	1.733900E+01	  0.036633268	5.531400E+01
85	  0.036833670	-2.701000E+00	  0.036833670	7.905700E+01	  0.036833670	1.840100E+01	  0.036833670	5.715200E+01
86	  0.037034072	-2.756000E+00	  0.037034072	7.693500E+01	  0.037034072	1.956500E+01	  0.037034072	5.905500E+01
87	  0.037234470	-2.814000E+00	  0.037234470	7.483500E+01	  0.037234470	2.083200E+01	  0.037234470	6.098100E+01
88	  0.037434869	-2.874000E+00	  0.037434869	7.271500E+01	  0.037434869	2.222500E+01	  0.037434869	6.297200E+01
89	  0.037635271	-2.937000E+00	  0.037635271	7.059100E+01	  0.037635271	2.375300E+01	  0.037635271	6.500800E+01
90	  0.037835669	-3.010000E+00	  0.037835669	6.854100E+01	  0.037835669	2.544100E+01	  0.037835669	6.697200E+01
91	  0.038036071	-3.069000E+00	  0.038036071	6.652800E+01	  0.038036071	2.713500E+01	  0.038036071	6.898700E+01
92	  0.038236473	-3.119000E+00	  0.038236473	6.447900E+01	  0.038236473	2.892300E+01	  0.038236473	7.112700E+01
93	  0.038436871	-3.173000E+00	  0.038436871	6.236900E+01	  0.038436871	3.093400E+01	  0.038436871	7.337500E+01
94	  0.038637273	-3.225000E+00	  0.038637273	6.027300E+01	  0.038637273	3.310500E+01	  0.038637273	7.565700E+01
95	  0.038837675	-3.276000E+00	  0.038837675	5.814700E+01	  0.038837675	3.547900E+01	  0.038837675	7.803400E+01
96	  0.039038073	-3.330000E+00	  0.039038073	5.605200E+01	  0.039038073	3.806900E+01	  0.039038073	8.038900E+01
97	  0.039238475	-3.385000E+00	  0.039238475	5.397800E+01	  0.039238475	4.088600E+01	  0.039238475	8.272300E+01
98	  0.039438877	-3.438000E+00	  0.039438877	5.188000E+01	  0.039438877	4.396200E+01	  0.039438877	8.513000E+01
99	  0.039639279	-3.493000E+00	  0.039639279	4.978200E+01	  0.039639279	4.734500E+01	  0.039639279	8.751100E+01
100	  0.039839678	-3.548000E+00	  0.039839678	4.767400E+01	  0.039839678	5.106300E+01	  0.039839678	8.987600E+01
101	  0.040040080	-3.603000E+00	  0.040040080	4.556400E+01	  0.040040080	5.512200E+01	  0.040040080	9.221000E+01
102	  0.040240481	-3.656000E+00	  0.040240481	4.346600E+01	  0.040240481	5.952400E+01	  0.040240481	9.445600E+01
103	  0.040440880	-3.709000E+00	  0.040440880	4.139400E+01	  0.040440880	6.427600E+01	  0.040440880	9.655100E+01
104	  0.040641282	-3.765000E+00	  0.040641282	3.931200E+01	  0.040641282	6.949900E+01	  0.040641282	9.845400E+01
105	  0.040841684	-3.819000E+00	  0.040841684	3.724700E+01	  0.040841684	7.511800E+01	  0.040841684	1.001320E+02
106	  0.041042086	-3.874000E+00	  0.041042086	3.520400E+01	  0.041042086	8.114700E+01	  0.041042086	1.014810E+02
107	  0.041242484	-3.931000E+00	  0.041242484	3.311300E+01	  0.041242484	8.781300E+01	  0.041242484	1.024550E+02
108	  0.041442886	-3.987000E+00	  0.041442886	3.104800E+01	  0.041442886	9.487900E+01	  0.041442886	1.029520E+02
109	  0.041643288	-4.038000E+00	  0.041643288	2.898400E+01	  0.041643288	1.023990E+02	  0.041643288	1.029650E+02
110	  0.041843686	-4.093000E+00	  0.041843686	2.691300E+01	  0.041843686	1.103980E+02	  0.041843686	1.022120E+02
111	  0.042044088	-4.145000E+00	  0.042044088	2.487000E+01	  0.042044088	1.186710E+02	  0.042044088	1.007000E+02
112	  0.042244490	-4.201000E+00	  0.042244490	2.283100E+01	  0.042244490	1.272030E+02	  0.042244490	9.816700E+01
113	  0.042444889	-4.254000E+00	  0.042444889	2.081000E+01	  0.042444889	1.358130E+02	  0.042444889	9.466900E+01
114	  0.042645290	-4.310000E+00	  0.042645290	1.878500E+01	  0.042645290	1.444200E+02	  0.042645290	8.998100E+01
115	  0.042845692	-4.364000E+00	  0.042845692	1.676500E+01	  0.042845692	1.528040E+02	  0.042845692	8.413800E+01
116	  0.043046094	-4.417000E+00	  0.043046094	1.475700E+01	  0.043046094	1.607150E+02	  0.043046094	7.712000E+01
117	  0.043246493	-4.471000E+00	  0.043246493	1.275500E+01	  0.043246493	1.679180E+02	  0.043246493	6.892300E+01
118	  0.043446895	-4.522000E+00	  0.043446895	1.075200E+01	  0.043446895	1.742970E+02	  0.043446895	5.971700E+01
119	  0.043647297	-4.574000E+00	  0.043647297	8.767000E+00	  0.043647297	1.794770E+02	  0.043647297	4.961900E+01
120	  0.043847695	-4.626000E+00	  0.043847695	6.816000E+00	  0.043847695	1.832360E+02	  0.043847695	3.896000E+01
121	  0.044048097	-4.677000E+00	  0.044048097	4.863000E+00	  0.044048097	1.856780E+02	  0.044048097	2.787000E+01
122	  0.044248499	-4.728000E+00	  0.044248499	2.926000E+00	  0.044248499	1.865870E+02	  0.044248499	1.665900E+01
123	  0.044448901	-4.778000E+00	  0.044448901	1.022000E+00	  0.044448901	1.861430E+02	  0.044448901	5.745000E+00
124	  0.044649299	-4.825000E+00	  0.044649299	-8.940000E-01	  0.044649299	1.844460E+02	  0.044649299	-4.926000E+00
125	  0.044849701	-4.873000E+00	  0.044849701	-2.776000E+00	  0.044849701	1.815510E+02	  0.044849701	-1.488200E+01
126	  0.045050103	-4.918000E+00	  0.045050103	-4.666000E+00	  0.045050103	1.777190E+02	  0.045050103	-2.421700E+01
127	  0.045250501	-4.959000E+00	  0.045250501	-6.535000E+00	  0.045250501	1.731610E+02	  0.045250501	-3.271200E+01
128	  0.045450903	-4.996000E+00	  0.045450903	-8.400000E+00	  0.045450903	1.680090E+02	  0.045450903	-4.040200E+01
129	  0.045651305	-5.038000E+00	  0.045651305	-1.024200E+01	  0.045651305	1.622650E+02	  0.045651305	-4.705900E+01
130	  0.045851704	-5.075000E+00	  0.045851704	-1.207000E+01	  0.045851704	1.562970E+02	  0.045851704	-5.286900E+01
131	  0.046052102	-5.108000E+00	  0.046052102	-1.389500E+01	  0.046052102	1.502000E+02	  0.046052102	-5.793000E+01
132	  0.046252504	-5.145000E+00	  0.046252504	-1.569300E+01	  0.046252504	1.440020E+02	  0.046252504	-6.205800E+01
133	  0.046452906	-5.177000E+00	  0.046452906	-1.750400E+01	  0.046452906	1.378180E+02	  0.046452906	-6.558500E+01
134	  0.046653304	-5.211000E+00	  0.046653304	-1.932700E+01	  0.046653304	1.316400E+02	  0.046653304	-6.843900E+01
135	  0.046853706	-5.244000E+00	  0.046853706	-2.114000E+01	  0.046853706	1.256270E+02	  0.046853706	-7.066900E+01
136	  0.047054108	-5.274000E+00	  0.047054108	-2.296000E+01	  0.047054108	1.197880E+02	  0.047054108	-7.242500E+01
137	  0.047254506	-5.307000E+00	  0.047254506	-2.476000E+01	  0.047254506	1.141930E+02	  0.047254506	-7.360000E+01
138	  0.047454908	-5.337000E+00	  0.047454908	-2.657800E+01	  0.047454908	1.088030E+02	  0.047454908	-7.444200E+01
139	  0.047655310	-5.368000E+00	  0.047655310	-2.834900E+01	  0.047655310	1.037820E+02	  0.047655310	-7.487500E+01
140	  0.047855709	-5.400000E+00	  0.047855709	-3.010100E+01	  0.047855709	9.905400E+01	  0.047855709	-7.497400E+01
141	  0.048056111	-5.430000E+00	  0.048056111	-3.186400E+01	  0.048056111	9.454900E+01	  0.048056111	-7.486800E+01
142	  0.048256513	-5.461000E+00	  0.048256513	-3.361400E+01	  0.048256513	9.031500E+01	  0.048256513	-7.451400E+01
143	  0.048456915	-5.494000E+00	  0.048456915	-3.533700E+01	  0.048456915	8.637900E+01	  0.048456915	-7.395500E+01
144	  0.048657313	-5.519000E+00	  0.048657313	-3.710000E+01	  0.048657313	8.257300E+01	  0.048657313	-7.334200E+01
145	  0.048857715	-5.545000E+00	  0.048857715	-3.884100E+01	  0.048857715	7.902800E+01	  0.048857715	-7.259800E+01
146	  0.049058117	-5.571000E+00	  0.049058117	-4.058100E+01	  0.049058117	7.568900E+01	  0.049058117	-7.173400E+01
147	  0.049258515	-5.593000E+00	  0.049258515	-4.230900E+01	  0.049258515	7.255600E+01	  0.049258515	-7.083900E+01
148	  0.049458917	-5.617000E+00	  0.049458917	-4.400200E+01	  0.049458917	6.966300E+01	  0.049458917	-6.986200E+01
149	  0.049659319	-5.640000E+00	  0.049659319	-4.570700E+01	  0.049659319	6.691600E+01	  0.049659319	-6.882100E+01
150	  0.049859721	-5.667000E+00	  0.049859721	-4.740800E+01	  0.049859721	6.434800E+01	  0.049859721	-6.768900E+01
151	  0.050060119	-5.688000E+00	  0.050060119	-4.908800E+01	  0.050060119	6.193300E+01	  0.050060119	-6.659900E+01
152	  0.050260521	-5.708000E+00	  0.050260521	-5.076000E+01	  0.050260521	5.966100E+01	  0.050260521	-6.549700E+01
153	  0.050460923	-5.726000E+00	  0.050460923	-5.243600E+01	  0.050460923	5.750600E+01	  0.050460923	-6.437000E+01
154	  0.050661322	-5.743000E+00	  0.050661322	-5.409900E+01	  0.050661322	5.547800E+01	  0.050661322	-6.325300E+01
155	  0.050861724	-5.757000E+00	  0.050861724	-5.575900E+01	  0.050861724	5.355500E+01	  0.050861724	-6.213700E+01
156	  0.051062126	-5.778000E+00	  0.051062126	-5.739700E+01	  0.051062126	5.178400E+01	  0.051062126	-6.098000E+01
157	  0.051262524	-5.795000E+00	  0.051262524	-5.902100E+01	  0.051262524	5.010900E+01	  0.051262524	-5.985200E+01
158	  0.051462926	-5.812000E+00	  0.051462926	-6.061500E+01	  0.051462926	4.855200E+01	  0.051462926	-5.874100E+01
159	  0.051663328	-5.822000E+00	  0.051663328	-6.223800E+01	  0.051663328	4.702100E+01	  0.051663328	-5.765100E+01
160	  0.051863730	-5.837000E+00	  0.051863730	-6.381700E+01	  0.051863730	4.562600E+01	  0.051863730	-5.656200E+01
161	  0.052064128	-5.850000E+00	  0.052064128	-6.540900E+01	  0.052064128	4.428100E+01	  0.052064128	-5.548200E+01
162	  0.052264530	-5.863000E+00	  0.052264530	-6.696800E+01	  0.052264530	4.302900E+01	  0.052264530	-5.442600E+01
163	  0.052464932	-5.873000E+00	  0.052464932	-6.851200E+01	  0.052464932	4.183700E+01	  0.052464932	-5.340200E+01
164	  0.052665330	-5.884000E+00	  0.052665330	-7.006300E+01	  0.052665330	4.069900E+01	  0.052665330	-5.237600E+01
165	  0.052865732	-5.898000E+00	  0.052865732	-7.159100E+01	  0.052865732	3.964600E+01	  0.052865732	-5.135500E+01
166	  0.053066134	-5.908000E+00	  0.053066134	-7.308700E+01	  0.053066134	3.864700E+01	  0.053066134	-5.038000E+01
167	  0.053266536	-5.924000E+00	  0.053266536	-7.456600E+01	  0.053266536	3.772800E+01	  0.053266536	-4.939900E+01
168	  0.053466935	-5.934000E+00	  0.053466935	-7.608900E+01	  0.053466935	3.680200E+01	  0.053466935	-4.842400E+01
169	  0.053667337	-5.944000E+00	  0.053667337	-7.759500E+01	  0.053667337	3.592400E+01	  0.053667337	-4.747200E+01
170	  0.053867739	-5.957000E+00	  0.053867739	-7.905700E+01	  0.053867739	3.512400E+01	  0.053867739	-4.654100E+01
171	  0.054068137	-5.965000E+00	  0.054068137	-8.054500E+01	  0.054068137	3.432200E+01	  0.054068137	-4.562600E+01
172	  0.054268539	-5.980000E+00	  0.054268539	-8.199800E+01	  0.054268539	3.360300E+01	  0.054268539	-4.471400E+01
173	  0.054468941	-5.989000E+00	  0.054468941	-8.344100E+01	  0.054468941	3.289600E+01	  0.054468941	-4.383800E+01
174	  0.054669335	-6.003000E+00	  0.054669335	-8.489200E+01	  0.054669335	3.223500E+01	  0.054669335	-4.294900E+01
175	  0.054869737	-6.015000E+00	  0.054869737	-8.632800E+01	  0.054869737	3.160000E+01	  0.054869737	-4.208900E+01
176	  0.055070139	-6.028000E+00	  0.055070139	-8.776400E+01	  0.055070139	3.099700E+01	  0.055070139	-4.123200E+01
177	  0.055270538	-6.034000E+00	  0.055270538	-8.919200E+01	  0.055270538	3.039400E+01	  0.055270538	-4.041200E+01
178	  0.055470940	-6.045000E+00	  0.055470940	-9.062000E+01	  0.055470940	2.983300E+01	  0.055470940	-3.958600E+01
179	  0.055671342	-6.053000E+00	  0.055671342	-9.205000E+01	  0.055671342	2.928300E+01	  0.055671342	-3.877700E+01
180	  0.055871744	-6.060000E+00	  0.055871744	-9.345300E+01	  0.055871744	2.876200E+01	  0.055871744	-3.799200E+01
181	  0.056072142	-6.069000E+00	  0.056072142	-9.490000E+01	  0.056072142	2.825500E+01	  0.056072142	-3.718500E+01
182	  0.056272544	-6.076000E+00	  0.056272544	-9.628200E+01	  0.056272544	2.778300E+01	  0.056272544	-3.642800E+01
183	  0.056472946	-6.083000E+00	  0.056472946	-9.766900E+01	  0.056472946	2.732400E+01	  0.056472946	-3.567700E+01
184	  0.056673344	-6.089000E+00	  0.056673344	-9.905100E+01	  0.056673344	2.688500E+01	  0.056673344	-3.493600E+01
185	  0.056873746	-6.094000E+00	  0.056873746	-1.004360E+02	  0.056873746	2.645600E+01	  0.056873746	-3.420500E+01
186	  0.057074148	-6.100000E+00	  0.057074148	-1.018130E+02	  0.057074148	2.604900E+01	  0.057074148	-3.348300E+01
187	  0.057274550	-6.101000E+00	  0.057274550	-1.031690E+02	  0.057274550	2.564600E+01	  0.057274550	-3.278700E+01
188	  0.057474948	-6.104000E+00	  0.057474948	-1.045300E+02	  0.057474948	2.526600E+01	  0.057474948	-3.209100E+01
189	  0.057675350	-6.110000E+00	  0.057675350	-1.058800E+02	  0.057675350	2.490900E+01	  0.057675350	-3.140200E+01
190	  0.057875752	-6.110000E+00	  0.057875752	-1.072190E+02	  0.057875752	2.455100E+01	  0.057875752	-3.073500E+01
191	  0.058076151	-6.115000E+00	  0.058076151	-1.085550E+02	  0.058076151	2.421900E+01	  0.058076151	-3.006700E+01
192	  0.058276553	-6.116000E+00	  0.058276553	-1.098460E+02	  0.058276553	2.390200E+01	  0.058276553	-2.943300E+01
193	  0.058476955	-6.117000E+00	  0.058476955	-1.111400E+02	  0.058476955	2.359200E+01	  0.058476955	-2.880300E+01
194	  0.058677353	-6.116000E+00	  0.058677353	-1.124300E+02	  0.058677353	2.328900E+01	  0.058677353	-2.818200E+01
195	  0.058877755	-6.117000E+00	  0.058877755	-1.137260E+02	  0.058877755	2.300000E+01	  0.058877755	-2.756000E+01
196	  0.059078157	-6.116000E+00	  0.059078157	-1.149840E+02	  0.059078157	2.272300E+01	  0.059078157	-2.696500E+01
197	  0.059278559	-6.117000E+00	  0.059278559	-1.162410E+02	  0.059278559	2.246200E+01	  0.059278559	-2.637100E+01
198	  0.059478957	-6.118000E+00	  0.059478957	-1.174880E+02	  0.059478957	2.221300E+01	  0.059478957	-2.578500E+01
199	  0.059679359	-6.119000E+00	  0.059679359	-1.187340E+02	  0.059679359	2.196800E+01	  0.059679359	-2.520600E+01
200	  0.059879761	-6.120000E+00	  0.059879761	-1.199490E+02	  0.059879761	2.174300E+01	  0.059879761	-2.464300E+01
201	  0.060080159	-6.122000E+00	  0.060080159	-1.211610E+02	  0.060080159	2.152500E+01	  0.060080159	-2.408600E+01
202	  0.060280561	-6.123000E+00	  0.060280561	-1.223760E+02	  0.060280561	2.131100E+01	  0.060280561	-2.353200E+01
203	  0.060480963	-6.127000E+00	  0.060480963	-1.235810E+02	  0.060480963	2.111600E+01	  0.060480963	-2.298200E+01
204	  0.060681365	-6.126000E+00	  0.060681365	-1.247770E+02	  0.060681365	2.091300E+01	  0.060681365	-2.244600E+01
205	  0.060881764	-6.128000E+00	  0.060881764	-1.259840E+02	  0.060881764	2.072400E+01	  0.060881764	-2.190500E+01
206	  0.061082166	-6.132000E+00	  0.061082166	-1.271870E+02	  0.061082166	2.055000E+01	  0.061082166	-2.136700E+01
207	  0.061282568	-6.132000E+00	  0.061282568	-1.283750E+02	  0.061282568	2.037000E+01	  0.061282568	-2.084300E+01
208	  0.061482966	-6.133000E+00	  0.061482966	-1.295520E+02	  0.061482966	2.020200E+01	  0.061482966	-2.032600E+01
209	  0.061683368	-6.138000E+00	  0.061683368	-1.307460E+02	  0.061683368	2.004700E+01	  0.061683368	-1.980100E+01
210	  0.061883770	-6.136000E+00	  0.061883770	-1.319180E+02	  0.061883770	1.988100E+01	  0.061883770	-1.929500E+01
211	  0.062084168	-6.139000E+00	  0.062084168	-1.330630E+02	  0.062084168	1.973900E+01	  0.062084168	-1.879900E+01
212	  0.062284570	-6.141000E+00	  0.062284570	-1.342560E+02	  0.062284570	1.959300E+01	  0.062284570	-1.828500E+01
213	  0.062484972	-6.133000E+00	  0.062484972	-1.353770E+02	  0.062484972	1.943200E+01	  0.062484972	-1.781400E+01
214	  0.062685370	-6.139000E+00	  0.062685370	-1.365760E+02	  0.062685370	1.930700E+01	  0.062685370	-1.730000E+01
215	  0.062885776	-6.133000E+00	  0.062885776	-1.377260E+02	  0.062885776	1.915800E+01	  0.062885776	-1.681800E+01
216	  0.063086174	-6.132000E+00	  0.063086174	-1.389010E+02	  0.063086174	1.902600E+01	  0.063086174	-1.632500E+01
217	  0.063286573	-6.132000E+00	  0.063286573	-1.400380E+02	  0.063286573	1.890500E+01	  0.063286573	-1.584800E+01
218	  0.063486971	-6.133000E+00	  0.063486971	-1.411990E+02	  0.063486971	1.878900E+01	  0.063486971	-1.536400E+01
219	  0.063687377	-6.126000E+00	  0.063687377	-1.423230E+02	  0.063687377	1.865900E+01	  0.063687377	-1.490200E+01
220	  0.063887775	-6.124000E+00	  0.063887775	-1.434530E+02	  0.063887775	1.854500E+01	  0.063887775	-1.443600E+01
221	  0.064088173	-6.121000E+00	  0.064088173	-1.446220E+02	  0.064088173	1.843100E+01	  0.064088173	-1.395600E+01
222	  0.064288579	-6.119000E+00	  0.064288579	-1.457330E+02	  0.064288579	1.832800E+01	  0.064288579	-1.350100E+01
223	  0.064488977	-6.120000E+00	  0.064488977	-1.468490E+02	  0.064488977	1.823600E+01	  0.064488977	-1.304500E+01
224	  0.064689375	-6.117000E+00	  0.064689375	-1.479770E+02	  0.064689375	1.813600E+01	  0.064689375	-1.258700E+01
225	  0.064889781	-6.111000E+00	  0.064889781	-1.490910E+02	  0.064889781	1.803200E+01	  0.064889781	-1.213800E+01
226	  0.065090179	-6.106000E+00	  0.065090179	-1.501900E+02	  0.065090179	1.793800E+01	  0.065090179	-1.169500E+01
227	  0.065290578	-6.105000E+00	  0.065290578	-1.512750E+02	  0.065290578	1.785700E+01	  0.065290578	-1.125800E+01
228	  0.065490983	-6.102000E+00	  0.065490983	-1.523390E+02	  0.065490983	1.777700E+01	  0.065490983	-1.083200E+01
229	  0.065691382	-6.096000E+00	  0.065691382	-1.534510E+02	  0.065691382	1.768700E+01	  0.065691382	-1.038800E+01
230	  0.065891780	-6.095000E+00	  0.065891780	-1.545310E+02	  0.065891780	1.761600E+01	  0.065891780	-9.957000E+00
231	  0.066092186	-6.092000E+00	  0.066092186	-1.555610E+02	  0.066092186	1.754700E+01	  0.066092186	-9.547000E+00
232	  0.066292584	-6.090000E+00	  0.066292584	-1.566490E+02	  0.066292584	1.748000E+01	  0.066292584	-9.115000E+00
233	  0.066492982	-6.089000E+00	  0.066492982	-1.576990E+02	  0.066492982	1.741900E+01	  0.066492982	-8.698000E+00
234	  0.066693388	-6.089000E+00	  0.066693388	-1.587610E+02	  0.066693388	1.736500E+01	  0.066693388	-8.278000E+00
235	  0.066893786	-6.088000E+00	  0.066893786	-1.597670E+02	  0.066893786	1.731300E+01	  0.066893786	-7.880000E+00
236	  0.067094192	-6.083000E+00	  0.067094192	-1.608320E+02	  0.067094192	1.725200E+01	  0.067094192	-7.461000E+00
237	  0.067294590	-6.085000E+00	  0.067294590	-1.618430E+02	  0.067294590	1.721300E+01	  0.067294590	-7.063000E+00
238	  0.067494988	-6.088000E+00	  0.067494988	-1.629050E+02	  0.067494988	1.717600E+01	  0.067494988	-6.645000E+00
239	  0.067695394	-6.086000E+00	  0.067695394	-1.639410E+02	  0.067695394	1.713200E+01	  0.067695394	-6.239000E+00
240	  0.067895792	-6.087000E+00	  0.067895792	-1.649770E+02	  0.067895792	1.709600E+01	  0.067895792	-5.833000E+00
241	  0.068096191	-6.092000E+00	  0.068096191	-1.660220E+02	  0.068096191	1.707400E+01	  0.068096191	-5.423000E+00
242	  0.068296596	-6.096000E+00	  0.068296596	-1.670950E+02	  0.068296596	1.705000E+01	  0.068296596	-5.004000E+00
243	  0.068496995	-6.095000E+00	  0.068496995	-1.681010E+02	  0.068496995	1.701900E+01	  0.068496995	-4.612000E+00
244	  0.068697393	-6.101000E+00	  0.068697393	-1.691340E+02	  0.068697393	1.700800E+01	  0.068697393	-4.209000E+00
245	  0.068897791	-6.097000E+00	  0.068897791	-1.701610E+02	  0.068897791	1.697200E+01	  0.068897791	-3.810000E+00
246	  0.069098189	-6.099000E+00	  0.069098189	-1.712150E+02	  0.069098189	1.695500E+01	  0.069098189	-3.401000E+00
247	  0.069298595	-6.100000E+00	  0.069298595	-1.722440E+02	  0.069298595	1.693800E+01	  0.069298595	-3.001000E+00
248	  0.069498993	-6.100000E+00	  0.069498993	-1.733050E+02	  0.069498993	1.692300E+01	  0.069498993	-2.590000E+00
249	  0.069699399	-6.108000E+00	  0.069699399	-1.743440E+02	  0.069699399	1.692600E+01	  0.069699399	-2.187000E+00
250	  0.069899797	-6.107000E+00	  0.069899797	-1.753470E+02	  0.069899797	1.691300E+01	  0.069899797	-1.799000E+00
251	  0.070100196	-6.105000E+00	  0.070100196	-1.763860E+02	  0.070100196	1.689800E+01	  0.070100196	-1.397000E+00
252	  0.070300601	-6.108000E+00	  0.070300601	-1.774140E+02	  0.070300601	1.689800E+01	  0.070300601	-9.990000E-01
253	  0.070501000	-6.107000E+00	  0.070501000	-1.784490E+02	  0.070501000	1.689100E+01	  0.070501000	-5.990000E-01
254	  0.070701398	-6.107000E+00	  0.070701398	-1.794650E+02	  0.070701398	1.688700E+01	  0.070701398	-2.060000E-01
255	  0.070901804	-6.105000E+00	  0.070901804	1.795230E+02	  0.070901804	1.688200E+01	  0.070901804	1.840000E-01
256	  0.071102202	-6.105000E+00	  0.071102202	1.785020E+02	  0.071102202	1.688500E+01	  0.071102202	5.790000E-01
257	  0.071302600	-6.106000E+00	  0.071302600	1.775010E+02	  0.071302600	1.689400E+01	  0.071302600	9.650000E-01
258	  0.071503006	-6.110000E+00	  0.071503006	1.764970E+02	  0.071503006	1.691000E+01	  0.071503006	1.353000E+00
259	  0.071703404	-6.110000E+00	  0.071703404	1.754990E+02	  0.071703404	1.691800E+01	  0.071703404	1.740000E+00
260	  0.071903802	-6.110000E+00	  0.071903802	1.744710E+02	  0.071903802	1.693200E+01	  0.071903802	2.137000E+00
261	  0.072104208	-6.114000E+00	  0.072104208	1.734870E+02	  0.072104208	1.695500E+01	  0.072104208	2.518000E+00
262	  0.072304606	-6.111000E+00	  0.072304606	1.725250E+02	  0.072304606	1.696100E+01	  0.072304606	2.891000E+00
263	  0.072505005	-6.113000E+00	  0.072505005	1.715630E+02	  0.072505005	1.698500E+01	  0.072505005	3.264000E+00
264	  0.072705410	-6.113000E+00	  0.072705410	1.705810E+02	  0.072705410	1.700500E+01	  0.072705410	3.645000E+00
265	  0.072905809	-6.117000E+00	  0.072905809	1.696090E+02	  0.072905809	1.703800E+01	  0.072905809	4.021000E+00
266	  0.073106214	-6.119000E+00	  0.073106214	1.686410E+02	  0.073106214	1.706800E+01	  0.073106214	4.397000E+00
267	  0.073306613	-6.126000E+00	  0.073306613	1.676790E+02	  0.073306613	1.711100E+01	  0.073306613	4.770000E+00
268	  0.073507011	-6.134000E+00	  0.073507011	1.667160E+02	  0.073507011	1.715900E+01	  0.073507011	5.144000E+00
269	  0.073707417	-6.133000E+00	  0.073707417	1.657530E+02	  0.073707417	1.718800E+01	  0.073707417	5.520000E+00
270	  0.073907815	-6.140000E+00	  0.073907815	1.647980E+02	  0.073907815	1.723900E+01	  0.073907815	5.891000E+00
271	  0.074108213	-6.144000E+00	  0.074108213	1.638810E+02	  0.074108213	1.728400E+01	  0.074108213	6.248000E+00
272	  0.074308619	-6.153000E+00	  0.074308619	1.629300E+02	  0.074308619	1.734400E+01	  0.074308619	6.618000E+00
273	  0.074509017	-6.158000E+00	  0.074509017	1.619330E+02	  0.074509017	1.739700E+01	  0.074509017	7.007000E+00
274	  0.074709415	-6.163000E+00	  0.074709415	1.610170E+02	  0.074709415	1.745100E+01	  0.074709415	7.365000E+00
275	  0.074909821	-6.177000E+00	  0.074909821	1.600520E+02	  0.074909821	1.753000E+01	  0.074909821	7.740000E+00
276	  0.075110219	-6.184000E+00	  0.075110219	1.590950E+02	  0.075110219	1.759600E+01	  0.075110219	8.114000E+00
277	  0.075310618	-6.194000E+00	  0.075310618	1.581670E+02	  0.075310618	1.767000E+01	  0.075310618	8.476000E+00
278	  0.075511023	-6.199000E+00	  0.075511023	1.572470E+02	  0.075511023	1.773100E+01	  0.075511023	8.838000E+00
279	  0.075711422	-6.210000E+00	  0.075711422	1.563130E+02	  0.075711422	1.781100E+01	  0.075711422	9.203000E+00
280	  0.075911827	-6.220000E+00	  0.075911827	1.553550E+02	  0.075911827	1.789500E+01	  0.075911827	9.579000E+00
281	  0.076112226	-6.225000E+00	  0.076112226	1.544290E+02	  0.076112226	1.796500E+01	  0.076112226	9.944000E+00
282	  0.076312624	-6.239000E+00	  0.076312624	1.534780E+02	  0.076312624	1.806000E+01	  0.076312624	1.031700E+01
283	  0.076513030	-6.246000E+00	  0.076513030	1.525470E+02	  0.076513030	1.814100E+01	  0.076513030	1.068400E+01
284	  0.076713428	-6.258000E+00	  0.076713428	1.516120E+02	  0.076713428	1.823700E+01	  0.076713428	1.105200E+01
285	  0.076913826	-6.266000E+00	  0.076913826	1.506870E+02	  0.076913826	1.832600E+01	  0.076913826	1.141800E+01
286	  0.077114232	-6.275000E+00	  0.077114232	1.497570E+02	  0.077114232	1.841800E+01	  0.077114232	1.178700E+01
287	  0.077314630	-6.288000E+00	  0.077314630	1.488920E+02	  0.077314630	1.852000E+01	  0.077314630	1.212700E+01
288	  0.077515028	-6.295000E+00	  0.077515028	1.479750E+02	  0.077515028	1.861200E+01	  0.077515028	1.249300E+01
289	  0.077715434	-6.308000E+00	  0.077715434	1.470670E+02	  0.077715434	1.872100E+01	  0.077715434	1.285300E+01
290	  0.077915832	-6.318000E+00	  0.077915832	1.461670E+02	  0.077915832	1.882400E+01	  0.077915832	1.321100E+01
291	  0.078116231	-6.328000E+00	  0.078116231	1.452680E+02	  0.078116231	1.893000E+01	  0.078116231	1.357000E+01
292	  0.078316636	-6.338000E+00	  0.078316636	1.443890E+02	  0.078316636	1.903800E+01	  0.078316636	1.392100E+01
293	  0.078517035	-6.349000E+00	  0.078517035	1.434960E+02	  0.078517035	1.915100E+01	  0.078517035	1.427800E+01
294	  0.078717433	-6.362000E+00	  0.078717433	1.426360E+02	  0.078717433	1.927000E+01	  0.078717433	1.462000E+01
295	  0.078917839	-6.377000E+00	  0.078917839	1.417790E+02	  0.078917839	1.939600E+01	  0.078917839	1.496100E+01
296	  0.079118237	-6.386000E+00	  0.079118237	1.409210E+02	  0.079118237	1.950800E+01	  0.079118237	1.530700E+01
297	  0.079318643	-6.401000E+00	  0.079318643	1.400920E+02	  0.079318643	1.963600E+01	  0.079318643	1.563800E+01
298	  0.079519041	-6.419000E+00	  0.079519041	1.392440E+02	  0.079519041	1.977600E+01	  0.079519041	1.597500E+01
299	  0.079719439	-6.432000E+00	  0.079719439	1.383920E+02	  0.079719439	1.990900E+01	  0.079719439	1.631700E+01
300	  0.079919845	-6.446000E+00	  0.079919845	1.375570E+02	  0.079919845	2.004100E+01	  0.079919845	1.665200E+01
301	  0.080120243	-6.462000E+00	  0.080120243	1.367220E+02	  0.080120243	2.018300E+01	  0.080120243	1.698700E+01
302	  0.080320641	-6.477000E+00	  0.080320641	1.358800E+02	  0.080320641	2.032700E+01	  0.080320641	1.732500E+01
303	  0.080521047	-6.495000E+00	  0.080521047	1.350700E+02	  0.080521047	2.047800E+01	  0.080521047	1.764800E+01
304	  0.080721445	-6.514000E+00	  0.080721445	1.342500E+02	  0.080721445	2.063600E+01	  0.080721445	1.797400E+01
305	  0.080921844	-6.532000E+00	  0.080921844	1.334240E+02	  0.080921844	2.079300E+01	  0.080921844	1.830500E+01
306	  0.081122249	-6.554000E+00	  0.081122249	1.326330E+02	  0.081122249	2.096100E+01	  0.081122249	1.861700E+01
307	  0.081322648	-6.574000E+00	  0.081322648	1.318120E+02	  0.081322648	2.112900E+01	  0.081322648	1.894500E+01
308	  0.081523046	-6.590000E+00	  0.081523046	1.309860E+02	  0.081523046	2.129000E+01	  0.081523046	1.927800E+01
309	  0.081723452	-6.607000E+00	  0.081723452	1.301580E+02	  0.081723452	2.145900E+01	  0.081723452	1.961100E+01
310	  0.081923850	-6.627000E+00	  0.081923850	1.293310E+02	  0.081923850	2.163600E+01	  0.081923850	1.994200E+01
311	  0.082124248	-6.644000E+00	  0.082124248	1.285340E+02	  0.082124248	2.180800E+01	  0.082124248	2.026300E+01
312	  0.082324654	-6.666000E+00	  0.082324654	1.277180E+02	  0.082324654	2.199600E+01	  0.082324654	2.058700E+01
313	  0.082525052	-6.688000E+00	  0.082525052	1.269480E+02	  0.082525052	2.218100E+01	  0.082525052	2.089300E+01
314	  0.082725458	-6.707000E+00	  0.082725458	1.261400E+02	  0.082725458	2.236700E+01	  0.082725458	2.121700E+01
315	  0.082925856	-6.732000E+00	  0.082925856	1.253410E+02	  0.082925856	2.257100E+01	  0.082925856	2.153100E+01
316	  0.083126254	-6.750000E+00	  0.083126254	1.245310E+02	  0.083126254	2.276100E+01	  0.083126254	2.185800E+01
317	  0.083326660	-6.773000E+00	  0.083326660	1.236960E+02	  0.083326660	2.297200E+01	  0.083326660	2.219100E+01
318	  0.083527058	-6.795000E+00	  0.083527058	1.229200E+02	  0.083527058	2.317400E+01	  0.083527058	2.249900E+01
319	  0.083727457	-6.813000E+00	  0.083727457	1.221070E+02	  0.083727457	2.337600E+01	  0.083727457	2.282800E+01
320	  0.083927862	-6.839000E+00	  0.083927862	1.213210E+02	  0.083927862	2.359800E+01	  0.083927862	2.313500E+01
321	  0.084128261	-6.860000E+00	  0.084128261	1.205270E+02	  0.084128261	2.381000E+01	  0.084128261	2.345300E+01
322	  0.084328659	-6.879000E+00	  0.084328659	1.197470E+02	  0.084328659	2.402000E+01	  0.084328659	2.376500E+01
323	  0.084529065	-6.904000E+00	  0.084529065	1.189790E+02	  0.084529065	2.424600E+01	  0.084529065	2.406600E+01
324	  0.084729463	-6.924000E+00	  0.084729463	1.181870E+02	  0.084729463	2.446600E+01	  0.084729463	2.438300E+01
325	  0.084929854	-6.945000E+00	  0.084929854	1.173850E+02	  0.084929854	2.469500E+01	  0.084929854	2.470500E+01
326	  0.085130259	-6.961000E+00	  0.085130259	1.166300E+02	  0.085130259	2.490400E+01	  0.085130259	2.501100E+01
327	  0.085330658	-6.986000E+00	  0.085330658	1.158340E+02	  0.085330658	2.515200E+01	  0.085330658	2.532300E+01
328	  0.085531056	-7.011000E+00	  0.085531056	1.150820E+02	  0.085531056	2.539100E+01	  0.085531056	2.561700E+01
329	  0.085731462	-7.028000E+00	  0.085731462	1.142870E+02	  0.085731462	2.562500E+01	  0.085731462	2.593800E+01
330	  0.085931860	-7.053000E+00	  0.085931860	1.135750E+02	  0.085931860	2.586400E+01	  0.085931860	2.621300E+01
331	  0.086132258	-7.077000E+00	  0.086132258	1.128210E+02	  0.086132258	2.611300E+01	  0.086132258	2.650700E+01
332	  0.086332664	-7.101000E+00	  0.086332664	1.121170E+02	  0.086332664	2.635500E+01	  0.086332664	2.677800E+01
333	  0.086533062	-7.125000E+00	  0.086533062	1.113640E+02	  0.086533062	2.661300E+01	  0.086533062	2.707000E+01
334	  0.086733460	-7.148000E+00	  0.086733460	1.106180E+02	  0.086733460	2.686900E+01	  0.086733460	2.736000E+01
335	  0.086933866	-7.170000E+00	  0.086933866	1.098930E+02	  0.086933866	2.712100E+01	  0.086933866	2.764300E+01
336	  0.087134264	-7.197000E+00	  0.087134264	1.091570E+02	  0.087134264	2.739300E+01	  0.087134264	2.792100E+01
337	  0.087334670	-7.224000E+00	  0.087334670	1.084320E+02	  0.087334670	2.766800E+01	  0.087334670	2.819200E+01
338	  0.087535068	-7.250000E+00	  0.087535068	1.077340E+02	  0.087535068	2.793500E+01	  0.087535068	2.845300E+01
339	  0.087735467	-7.281000E+00	  0.087735467	1.070090E+02	  0.087735467	2.822800E+01	  0.087735467	2.871700E+01
340	  0.087935872	-7.311000E+00	  0.087935872	1.063130E+02	  0.087935872	2.851500E+01	  0.087935872	2.896700E+01
341	  0.088136271	-7.340000E+00	  0.088136271	1.055790E+02	  0.088136271	2.881100E+01	  0.088136271	2.923500E+01
342	  0.088336669	-7.370000E+00	  0.088336669	1.048790E+02	  0.088336669	2.910900E+01	  0.088336669	2.948300E+01
343	  0.088537075	-7.393000E+00	  0.088537075	1.041700E+02	  0.088537075	2.939000E+01	  0.088537075	2.974900E+01
344	  0.088737473	-7.426000E+00	  0.088737473	1.034610E+02	  0.088737473	2.970300E+01	  0.088737473	2.999500E+01
345	  0.088937871	-7.455000E+00	  0.088937871	1.027540E+02	  0.088937871	3.000800E+01	  0.088937871	3.024600E+01
346	  0.089138277	-7.488000E+00	  0.089138277	1.020670E+02	  0.089138277	3.032300E+01	  0.089138277	3.047800E+01
347	  0.089338675	-7.515000E+00	  0.089338675	1.014080E+02	  0.089338675	3.061600E+01	  0.089338675	3.070700E+01
348	  0.089539073	-7.550000E+00	  0.089539073	1.007450E+02	  0.089539073	3.093600E+01	  0.089539073	3.092100E+01
349	  0.089739479	-7.578000E+00	  0.089739479	1.000710E+02	  0.089739479	3.124500E+01	  0.089739479	3.115100E+01
350	  0.089939877	-7.613000E+00	  0.089939877	9.942200E+01	  0.089939877	3.156600E+01	  0.089939877	3.135600E+01
351	  0.090140276	-7.641000E+00	  0.090140276	9.877700E+01	  0.090140276	3.187100E+01	  0.090140276	3.157100E+01
352	  0.090340681	-7.674000E+00	  0.090340681	9.813100E+01	  0.090340681	3.219500E+01	  0.090340681	3.177200E+01
353	  0.090541080	-7.704000E+00	  0.090541080	9.749900E+01	  0.090541080	3.250800E+01	  0.090541080	3.197300E+01
354	  0.090741485	-7.733000E+00	  0.090741485	9.685300E+01	  0.090741485	3.282600E+01	  0.090741485	3.218100E+01
355	  0.090941884	-7.768000E+00	  0.090941884	9.625700E+01	  0.090941884	3.314700E+01	  0.090941884	3.235000E+01
356	  0.091142282	-7.797000E+00	  0.091142282	9.562000E+01	  0.091142282	3.346800E+01	  0.091142282	3.255000E+01
357	  0.091342688	-7.835000E+00	  0.091342688	9.501800E+01	  0.091342688	3.380600E+01	  0.091342688	3.270900E+01
358	  0.091543086	-7.866000E+00	  0.091543086	9.438200E+01	  0.091543086	3.413900E+01	  0.091543086	3.289800E+01
359	  0.091743484	-7.898000E+00	  0.091743484	9.378700E+01	  0.091743484	3.446300E+01	  0.091743484	3.306600E+01
360	  0.091943890	-7.932000E+00	  0.091943890	9.319700E+01	  0.091943890	3.479200E+01	  0.091943890	3.322400E+01
361	  0.092144288	-7.960000E+00	  0.092144288	9.258900E+01	  0.092144288	3.511800E+01	  0.092144288	3.340000E+01
362	  0.092344686	-7.993000E+00	  0.092344686	9.203600E+01	  0.092344686	3.543400E+01	  0.092344686	3.354300E+01
363	  0.092545092	-8.023000E+00	  0.092545092	9.144300E+01	  0.092545092	3.576400E+01	  0.092545092	3.370400E+01
364	  0.092745490	-8.058000E+00	  0.092745490	9.090000E+01	  0.092745490	3.608900E+01	  0.092745490	3.382800E+01
365	  0.092945889	-8.095000E+00	  0.092945889	9.032900E+01	  0.092945889	3.643400E+01	  0.092945889	3.395600E+01
366	  0.093146294	-8.127000E+00	  0.093146294	8.979000E+01	  0.093146294	3.675400E+01	  0.093146294	3.408200E+01
367	  0.093346693	-8.161000E+00	  0.093346693	8.923600E+01	  0.093346693	3.708600E+01	  0.093346693	3.420700E+01
368	  0.093547091	-8.192000E+00	  0.093547091	8.870600E+01	  0.093547091	3.740500E+01	  0.093547091	3.432700E+01
369	  0.093747497	-8.229000E+00	  0.093747497	8.812100E+01	  0.093747497	3.776400E+01	  0.093747497	3.444900E+01
370	  0.093947895	-8.262000E+00	  0.093947895	8.762400E+01	  0.093947895	3.807700E+01	  0.093947895	3.454600E+01
371	  0.094148301	-8.295000E+00	  0.094148301	8.707900E+01	  0.094148301	3.841400E+01	  0.094148301	3.465700E+01
372	  0.094348699	-8.333000E+00	  0.094348699	8.656800E+01	  0.094348699	3.875100E+01	  0.094348699	3.473600E+01
373	  0.094549097	-8.362000E+00	  0.094549097	8.605600E+01	  0.094549097	3.906600E+01	  0.094549097	3.484200E+01
374	  0.094749503	-8.403000E+00	  0.094749503	8.558300E+01	  0.094749503	3.939300E+01	  0.094749503	3.489500E+01
375	  0.094949901	-8.436000E+00	  0.094949901	8.506200E+01	  0.094949901	3.972700E+01	  0.094949901	3.498500E+01
376	  0.095150299	-8.464000E+00	  0.095150299	8.455200E+01	  0.095150299	4.004600E+01	  0.095150299	3.508300E+01
377	  0.095350705	-8.500000E+00	  0.095350705	8.404900E+01	  0.095350705	4.038200E+01	  0.095350705	3.515200E+01
378	  0.095551103	-8.533000E+00	  0.095551103	8.352100E+01	  0.095551103	4.072200E+01	  0.095551103	3.523900E+01
379	  0.095751502	-8.566000E+00	  0.095751502	8.302900E+01	  0.095751502	4.104900E+01	  0.095751502	3.530600E+01
380	  0.095951907	-8.595000E+00	  0.095951907	8.254100E+01	  0.095951907	4.136600E+01	  0.095951907	3.538400E+01
381	  0.096152306	-8.631000E+00	  0.096152306	8.207100E+01	  0.096152306	4.169200E+01	  0.096152306	3.542700E+01
382	  0.096352704	-8.659000E+00	  0.096352704	8.156900E+01	  0.096352704	4.201600E+01	  0.096352704	3.550900E+01
383	  0.096553110	-8.685000E+00	  0.096553110	8.112000E+01	  0.096553110	4.231100E+01	  0.096553110	3.557400E+01
384	  0.096753508	-8.715000E+00	  0.096753508	8.064300E+01	  0.096753508	4.263200E+01	  0.096753508	3.563100E+01
385	  0.096953906	-8.743000E+00	  0.096953906	8.018700E+01	  0.096953906	4.293600E+01	  0.096953906	3.568900E+01
386	  0.097154312	-8.769000E+00	  0.097154312	7.970300E+01	  0.097154312	4.325200E+01	  0.097154312	3.576000E+01
387	  0.097354710	-8.791000E+00	  0.097354710	7.925900E+01	  0.097354710	4.354300E+01	  0.097354710	3.582700E+01
388	  0.097555116	-8.818000E+00	  0.097555116	7.881300E+01	  0.097555116	4.384400E+01	  0.097555116	3.587600E+01
389	  0.097755514	-8.839000E+00	  0.097755514	7.835300E+01	  0.097755514	4.414400E+01	  0.097755514	3.594700E+01
390	  0.097955912	-8.867000E+00	  0.097955912	7.793700E+01	  0.097955912	4.443300E+01	  0.097955912	3.598000E+01
391	  0.098156318	-8.881000E+00	  0.098156318	7.751200E+01	  0.098156318	4.470100E+01	  0.098156318	3.606100E+01
392	  0.098356716	-8.906000E+00	  0.098356716	7.709000E+01	  0.098356716	4.499100E+01	  0.098356716	3.609900E+01
393	  0.098557115	-8.919000E+00	  0.098557115	7.667100E+01	  0.098557115	4.525600E+01	  0.098557115	3.618000E+01
394	  0.098757520	-8.945000E+00	  0.098757520	7.626100E+01	  0.098757520	4.554300E+01	  0.098757520	3.620700E+01
395	  0.098957919	-8.962000E+00	  0.098957919	7.584900E+01	  0.098957919	4.581600E+01	  0.098957919	3.626600E+01
396	  0.099158317	-8.970000E+00	  0.099158317	7.545600E+01	  0.099158317	4.605900E+01	  0.099158317	3.635400E+01
397	  0.099358723	-8.990000E+00	  0.099358723	7.508200E+01	  0.099358723	4.631800E+01	  0.099358723	3.638500E+01
398	  0.099559121	-9.005000E+00	  0.099559121	7.469300E+01	  0.099559121	4.657700E+01	  0.099559121	3.644000E+01
399	  0.099759519	-9.017000E+00	  0.099759519	7.434800E+01	  0.099759519	4.680300E+01	  0.099759519	3.649500E+01
400	  0.099959925	-9.031000E+00	  0.099959925	7.396500E+01	  0.099959925	4.706000E+01	  0.099959925	3.654600E+01
401	  0.100160323	-9.024000E+00	  0.100160323	7.357900E+01	  0.100160323	4.728000E+01	  0.100160323	3.668300E+01
402	  0.100360721	-9.053000E+00	  0.100360721	7.325300E+01	  0.100360721	4.753000E+01	  0.100360721	3.665800E+01
403	  0.100561127	-9.058000E+00	  0.100561127	7.292000E+01	  0.100561127	4.774300E+01	  0.100561127	3.672900E+01
404	  0.100761525	-9.064000E+00	  0.100761525	7.254300E+01	  0.100761525	4.798600E+01	  0.100761525	3.680700E+01
405	  0.100961931	-9.069000E+00	  0.100961931	7.216300E+01	  0.100961931	4.822900E+01	  0.100961931	3.689200E+01
406	  0.101162329	-9.075000E+00	  0.101162329	7.181400E+01	  0.101162329	4.845800E+01	  0.101162329	3.695800E+01
407	  0.101362728	-9.092000E+00	  0.101362728	7.151700E+01	  0.101362728	4.867200E+01	  0.101362728	3.696700E+01
408	  0.101563133	-9.100000E+00	  0.101563133	7.110600E+01	  0.101563133	4.894600E+01	  0.101563133	3.703900E+01
409	  0.101763532	-9.099000E+00	  0.101763532	7.077700E+01	  0.101763532	4.915200E+01	  0.101763532	3.712900E+01
410	  0.101963930	-9.100000E+00	  0.101963930	7.042200E+01	  0.101963930	4.938100E+01	  0.101963930	3.721500E+01
411	  0.102164328	-9.101000E+00	  0.102164328	7.009600E+01	  0.102164328	4.959300E+01	  0.102164328	3.729200E+01
412	  0.102364726	-9.110000E+00	  0.102364726	6.969800E+01	  0.102364726	4.986500E+01	  0.102364726	3.735300E+01
413	  0.102565125	-9.103000E+00	  0.102565125	6.929900E+01	  0.102565125	5.011400E+01	  0.102565125	3.748000E+01
414	  0.102765530	-9.102000E+00	  0.102765530	6.898400E+01	  0.102765530	5.032000E+01	  0.102765530	3.756200E+01
415	  0.102965929	-9.103000E+00	  0.102965929	6.854600E+01	  0.102965929	5.061200E+01	  0.102965929	3.766200E+01
416	  0.103166327	-9.098000E+00	  0.103166327	6.825000E+01	  0.103166327	5.080200E+01	  0.103166327	3.775300E+01
417	  0.103366733	-9.089000E+00	  0.103366733	6.781500E+01	  0.103366733	5.108000E+01	  0.103366733	3.789500E+01
418	  0.103567131	-9.090000E+00	  0.103567131	6.743500E+01	  0.103567131	5.134000E+01	  0.103567131	3.797500E+01
419	  0.103767529	-9.074000E+00	  0.103767529	6.702700E+01	  0.103767529	5.159400E+01	  0.103767529	3.814200E+01
420	  0.103967935	-9.063000E+00	  0.103967935	6.658900E+01	  0.103967935	5.188000E+01	  0.103967935	3.829100E+01
421	  0.104168333	-9.054000E+00	  0.104168333	6.620300E+01	  0.104168333	5.213600E+01	  0.104168333	3.841600E+01
422	  0.104368731	-9.040000E+00	  0.104368731	6.580100E+01	  0.104368731	5.239900E+01	  0.104368731	3.856700E+01
423	  0.104569137	-9.033000E+00	  0.104569137	6.539700E+01	  0.104569137	5.267500E+01	  0.104569137	3.868800E+01
424	  0.104769535	-9.009000E+00	  0.104769535	6.491100E+01	  0.104769535	5.298800E+01	  0.104769535	3.890700E+01
425	  0.104969934	-9.000000E+00	  0.104969934	6.449400E+01	  0.104969934	5.327800E+01	  0.104969934	3.903600E+01
426	  0.105170339	-8.975000E+00	  0.105170339	6.405100E+01	  0.105170339	5.356800E+01	  0.105170339	3.924500E+01
427	  0.105370738	-8.958000E+00	  0.105370738	6.360600E+01	  0.105370738	5.387300E+01	  0.105370738	3.941800E+01
428	  0.105571143	-8.940000E+00	  0.105571143	6.309600E+01	  0.105571143	5.423000E+01	  0.105571143	3.960700E+01
429	  0.105771542	-8.917000E+00	  0.105771542	6.264300E+01	  0.105771542	5.454200E+01	  0.105771542	3.981200E+01
430	  0.105971940	-8.902000E+00	  0.105971940	6.221200E+01	  0.105971940	5.485000E+01	  0.105971940	3.997200E+01
431	  0.106172346	-8.870000E+00	  0.106172346	6.168600E+01	  0.106172346	5.521600E+01	  0.106172346	4.023300E+01
432	  0.106372744	-8.854000E+00	  0.106372744	6.118200E+01	  0.106372744	5.558900E+01	  0.106372744	4.040800E+01
433	  0.106573142	-8.832000E+00	  0.106573142	6.068900E+01	  0.106573142	5.595200E+01	  0.106573142	4.061100E+01
434	  0.106773548	-8.809000E+00	  0.106773548	6.019400E+01	  0.106773548	5.632000E+01	  0.106773548	4.081700E+01
435	  0.106973946	-8.790000E+00	  0.106973946	5.972400E+01	  0.106973946	5.667800E+01	  0.106973946	4.099900E+01
436	  0.107174344	-8.764000E+00	  0.107174344	5.917000E+01	  0.107174344	5.710100E+01	  0.107174344	4.123400E+01
437	  0.107374750	-8.742000E+00	  0.107374750	5.859300E+01	  0.107374750	5.755600E+01	  0.107374750	4.144500E+01
438	  0.107575148	-8.725000E+00	  0.107575148	5.810900E+01	  0.107575148	5.794400E+01	  0.107575148	4.161200E+01
439	  0.107775547	-8.697000E+00	  0.107775547	5.749900E+01	  0.107775547	5.843400E+01	  0.107775547	4.186100E+01
440	  0.107975952	-8.670000E+00	  0.107975952	5.694600E+01	  0.107975952	5.888300E+01	  0.107975952	4.209700E+01
441	  0.108176351	-8.651000E+00	  0.108176351	5.641800E+01	  0.108176351	5.932600E+01	  0.108176351	4.227700E+01
442	  0.108376749	-8.632000E+00	  0.108376749	5.580000E+01	  0.108376749	5.985400E+01	  0.108376749	4.246600E+01
443	  0.108577155	-8.621000E+00	  0.108577155	5.525400E+01	  0.108577155	6.033200E+01	  0.108577155	4.259900E+01
444	  0.108777553	-8.603000E+00	  0.108777553	5.461100E+01	  0.108777553	6.090000E+01	  0.108777553	4.277500E+01
445	  0.108977959	-8.579000E+00	  0.108977959	5.398400E+01	  0.108977959	6.145700E+01	  0.108977959	4.298500E+01
446	  0.109178357	-8.561000E+00	  0.109178357	5.335700E+01	  0.109178357	6.202800E+01	  0.109178357	4.315400E+01
447	  0.109378755	-8.547000E+00	  0.109378755	5.271700E+01	  0.109378755	6.262200E+01	  0.109378755	4.329700E+01
448	  0.109579161	-8.529000E+00	  0.109579161	5.207300E+01	  0.109579161	6.322700E+01	  0.109579161	4.345900E+01
449	  0.109779559	-8.514000E+00	  0.109779559	5.145100E+01	  0.109779559	6.382100E+01	  0.109779559	4.359100E+01
450	  0.109979957	-8.502000E+00	  0.109979957	5.075400E+01	  0.109979957	6.449900E+01	  0.109979957	4.370900E+01
451	  0.110180363	-8.480000E+00	  0.110180363	5.009600E+01	  0.110180363	6.514500E+01	  0.110180363	4.387600E+01
452	  0.110380761	-8.475000E+00	  0.110380761	4.935600E+01	  0.110380761	6.588700E+01	  0.110380761	4.392300E+01
453	  0.110581160	-8.456000E+00	  0.110581160	4.865000E+01	  0.110581160	6.660500E+01	  0.110581160	4.405800E+01
454	  0.110781565	-8.446000E+00	  0.110781565	4.794600E+01	  0.110781565	6.733100E+01	  0.110781565	4.412100E+01
455	  0.110981964	-8.436000E+00	  0.110981964	4.722800E+01	  0.110981964	6.808100E+01	  0.110981964	4.417000E+01
456	  0.111182362	-8.433000E+00	  0.111182362	4.648700E+01	  0.111182362	6.886400E+01	  0.111182362	4.416000E+01
457	  0.111382768	-8.417000E+00	  0.111382768	4.577000E+01	  0.111382768	6.963700E+01	  0.111382768	4.423400E+01
458	  0.111583166	-8.407000E+00	  0.111583166	4.499100E+01	  0.111583166	7.048500E+01	  0.111583166	4.424200E+01
459	  0.111783572	-8.390000E+00	  0.111783572	4.424100E+01	  0.111783572	7.131700E+01	  0.111783572	4.429200E+01
460	  0.111983970	-8.384000E+00	  0.111983970	4.350000E+01	  0.111983970	7.214400E+01	  0.111983970	4.424700E+01
461	  0.112184368	-8.378000E+00	  0.112184368	4.270600E+01	  0.112184368	7.303900E+01	  0.112184368	4.418100E+01
462	  0.112384774	-8.362000E+00	  0.112384774	4.189000E+01	  0.112384774	7.398100E+01	  0.112384774	4.416100E+01
463	  0.112585172	-8.361000E+00	  0.112585172	4.111100E+01	  0.112585172	7.487500E+01	  0.112585172	4.402200E+01
464	  0.112785570	-8.348000E+00	  0.112785570	4.030800E+01	  0.112785570	7.582100E+01	  0.112785570	4.394300E+01
465	  0.112985976	-8.344000E+00	  0.112985976	3.952100E+01	  0.112985976	7.674800E+01	  0.112985976	4.378400E+01
466	  0.113186374	-8.335000E+00	  0.113186374	3.866400E+01	  0.113186374	7.777600E+01	  0.113186374	4.362500E+01
467	  0.113386773	-8.325000E+00	  0.113386773	3.786300E+01	  0.113386773	7.874700E+01	  0.113386773	4.345500E+01
468	  0.113587178	-8.318000E+00	  0.113587178	3.699300E+01	  0.113587178	7.980600E+01	  0.113587178	4.322400E+01
469	  0.113787577	-8.315000E+00	  0.113787577	3.611000E+01	  0.113787577	8.088100E+01	  0.113787577	4.292500E+01
470	  0.113987975	-8.316000E+00	  0.113987975	3.526500E+01	  0.113987975	8.190500E+01	  0.113987975	4.258200E+01
471	  0.114188381	-8.308000E+00	  0.114188381	3.437800E+01	  0.114188381	8.301100E+01	  0.114188381	4.225900E+01
472	  0.114388779	-8.308000E+00	  0.114388779	3.348200E+01	  0.114388779	8.411000E+01	  0.114388779	4.183400E+01
473	  0.114589177	-8.309000E+00	  0.114589177	3.256600E+01	  0.114589177	8.523300E+01	  0.114589177	4.135700E+01
474	  0.114789583	-8.305000E+00	  0.114789583	3.166500E+01	  0.114789583	8.635600E+01	  0.114789583	4.088600E+01
475	  0.114989981	-8.310000E+00	  0.114989981	3.074100E+01	  0.114989981	8.747300E+01	  0.114989981	4.029600E+01
476	  0.115190387	-8.315000E+00	  0.115190387	2.975400E+01	  0.115190387	8.866800E+01	  0.115190387	3.962900E+01
477	  0.115390785	-8.323000E+00	  0.115390785	2.879800E+01	  0.115390785	8.980100E+01	  0.115390785	3.891100E+01
478	  0.115591183	-8.330000E+00	  0.115591183	2.783100E+01	  0.115591183	9.094300E+01	  0.115591183	3.814900E+01
479	  0.115791589	-8.342000E+00	  0.115791589	2.684700E+01	  0.115791589	9.206300E+01	  0.115791589	3.728500E+01
480	  0.115991987	-8.360000E+00	  0.115991987	2.581600E+01	  0.115991987	9.319200E+01	  0.115991987	3.629100E+01
481	  0.116192386	-8.376000E+00	  0.116192386	2.477500E+01	  0.116192386	9.432300E+01	  0.116192386	3.526400E+01
482	  0.116392791	-8.394000E+00	  0.116392791	2.373500E+01	  0.116392791	9.540600E+01	  0.116392791	3.416300E+01
483	  0.116593190	-8.410000E+00	  0.116593190	2.266600E+01	  0.116593190	9.650500E+01	  0.116593190	3.300100E+01
484	  0.116793588	-8.441000E+00	  0.116793588	2.158100E+01	  0.116793588	9.748700E+01	  0.116793588	3.167200E+01
485	  0.116993994	-8.467000E+00	  0.116993994	2.051300E+01	  0.116993994	9.843100E+01	  0.116993994	3.034000E+01
486	  0.117194392	-8.504000E+00	  0.117194392	1.939400E+01	  0.117194392	9.930700E+01	  0.117194392	2.884700E+01
487	  0.117394790	-8.534000E+00	  0.117394790	1.828000E+01	  0.117394790	1.001640E+02	  0.117394790	2.735500E+01
488	  0.117595196	-8.570000E+00	  0.117595196	1.709800E+01	  0.117595196	1.009750E+02	  0.117595196	2.570600E+01
489	  0.117795594	-8.611000E+00	  0.117795594	1.598700E+01	  0.117795594	1.016230E+02	  0.117795594	2.408900E+01
490	  0.117995992	-8.652000E+00	  0.117995992	1.476300E+01	  0.117995992	1.022830E+02	  0.117995992	2.229100E+01
491	  0.118196398	-8.702000E+00	  0.118196398	1.358800E+01	  0.118196398	1.027450E+02	  0.118196398	2.048800E+01
492	  0.118396796	-8.758000E+00	  0.118396796	1.233300E+01	  0.118396796	1.031290E+02	  0.118396796	1.853900E+01
493	  0.118597202	-8.810000E+00	  0.118597202	1.112100E+01	  0.118597202	1.034300E+02	  0.118597202	1.666100E+01
494	  0.118797600	-8.870000E+00	  0.118797600	9.855000E+00	  0.118797600	1.035920E+02	  0.118797600	1.467400E+01
