! Anritsu VNA Master:             	Model: MS2036C/10/77
! SN:             	1601066
! /bd0/18may10/252.ns.m8.txt
! Existing Calibration Information:
! TYPE:             	Current Settings	Active Cal Settings
! TIME:             	05/10/2018 05:54:47 PM	05/10/2018 05:49:06 PM
! INTERNAL TEMP:    	59.8 C	59.5 C
! # POINTS:         	490	490
! START FREQ:       	20.000 MHz	20.000 MHz
! STOP FREQ:        	117.995 991 MHz	117.995 991 MHz
! SOURCE POWER:     	High	High
! IFBW:             	50 Hz	50 Hz
! AVG FACTOR:       	  1 	  1 
! REF PLANE 1:      	0 mm	0 mm
! REF PLANE 2:      	0 mm	0 mm
! CAL TYPE:         	Full S22	Full S22
! CAL METHOD:       	SOLT	SOLT
! CAL LINE TYPE:    	Coax	Coax
! DUT PORT 1:       	K-Conn(M)	K-Conn(M)
! DUT PORT 2:       	K-Conn(M)	K-Conn(M)
! CAL STATUS:       	OK: Accuracy High	--
! PROP-V:       	0.700
! CABLE LOSS:       	0.000 dB/m
! REF IMPEDANCE:       	50.0
! Trace Specific Parameters:	TR1	TR2	TR3	TR4
! TRACE.#.Y (GRAPH TYPE)	LOG MAG	PHASE	REAL IMPEDANCE	IMAGINARY IMPEDANCE
! TRACE.#.X 	FREQ.GHZ	FREQ.GHZ	FREQ.GHZ	FREQ.GHZ
! S-PARAMETER	S22	S22	S22	S22
! SMOOTH/APERTURE %	0	0	0	0
! WINDOW	NSL	NSL	NSL	NSL
! GATING	OFF	OFF	OFF	OFF
! FGTD	OFF	OFF	OFF	OFF
Marker Information per Trace:	TR1	TR2	TR3	TR4
!MK1	--	"MK1 TR2:  20.000 MHz,PH:-125.41°"	--	--
!MK2	--	--	"MK2 TR3:  70.100 200 MHz,Z:(16.681 ohm, -1.577 ohm)"	--
!MK3	--	--	--	--
!MK4	--	--	--	--
!MK5	--	--	--	--
!MK6	--	--	--	--
!MK7	--	--	--	--
!MK8	--	--	--	--
PNT	TR1.FREQ.GHZ	TR1.LOG MAG.dB	TR2.FREQ.GHZ	TR2.PHASE.deg	TR3.FREQ.GHZ	TR3.REAL IMPEDANCE.ohm	TR4.FREQ.GHZ	TR4.IMAGINARY IMPEDANCE.ohm
1	  0.020000000	-6.310000E-01	  0.020000000	-1.254140E+02	  0.020000000	2.298000E+00	  0.020000000	-2.575500E+01
2	  0.020200402	-6.330000E-01	  0.020200402	-1.268590E+02	  0.020200402	2.276000E+00	  0.020200402	-2.496300E+01
3	  0.020400802	-6.370000E-01	  0.020400802	-1.283150E+02	  0.020400802	2.262000E+00	  0.020400802	-2.417600E+01
4	  0.020601204	-6.410000E-01	  0.020601204	-1.297780E+02	  0.020601204	2.248000E+00	  0.020601204	-2.339400E+01
5	  0.020801604	-6.440000E-01	  0.020801604	-1.312870E+02	  0.020801604	2.234000E+00	  0.020801604	-2.259700E+01
6	  0.021002004	-6.470000E-01	  0.021002004	-1.327950E+02	  0.021002004	2.216000E+00	  0.021002004	-2.181000E+01
7	  0.021202406	-6.510000E-01	  0.021202406	-1.343140E+02	  0.021202406	2.206000E+00	  0.021202406	-2.102700E+01
8	  0.021402806	-6.540000E-01	  0.021402806	-1.358100E+02	  0.021402806	2.191000E+00	  0.021402806	-2.026400E+01
9	  0.021603208	-6.550000E-01	  0.021603208	-1.373220E+02	  0.021603208	2.174000E+00	  0.021603208	-1.950100E+01
10	  0.021803608	-6.600000E-01	  0.021803608	-1.388320E+02	  0.021803608	2.167000E+00	  0.021803608	-1.874600E+01
11	  0.022004008	-6.670000E-01	  0.022004008	-1.403380E+02	  0.022004008	2.171000E+00	  0.022004008	-1.800100E+01
12	  0.022204408	-6.720000E-01	  0.022204408	-1.418720E+02	  0.022204408	2.165000E+00	  0.022204408	-1.724900E+01
13	  0.022404809	-6.790000E-01	  0.022404809	-1.434080E+02	  0.022404809	2.168000E+00	  0.022404809	-1.650300E+01
14	  0.022605211	-6.820000E-01	  0.022605211	-1.449810E+02	  0.022605211	2.159000E+00	  0.022605211	-1.574700E+01
15	  0.022805611	-6.840000E-01	  0.022805611	-1.465570E+02	  0.022805611	2.145000E+00	  0.022805611	-1.499500E+01
16	  0.023006011	-6.880000E-01	  0.023006011	-1.481150E+02	  0.023006011	2.142000E+00	  0.023006011	-1.425800E+01
17	  0.023206413	-6.930000E-01	  0.023206413	-1.496680E+02	  0.023206413	2.140000E+00	  0.023206413	-1.352900E+01
18	  0.023406813	-6.990000E-01	  0.023406813	-1.512210E+02	  0.023406813	2.144000E+00	  0.023406813	-1.280500E+01
19	  0.023607215	-7.070000E-01	  0.023607215	-1.527960E+02	  0.023607215	2.154000E+00	  0.023607215	-1.207600E+01
20	  0.023807615	-7.140000E-01	  0.023807615	-1.543890E+02	  0.023807615	2.161000E+00	  0.023807615	-1.134400E+01
21	  0.024008015	-7.210000E-01	  0.024008015	-1.559990E+02	  0.024008015	2.169000E+00	  0.024008015	-1.060800E+01
22	  0.024208417	-7.280000E-01	  0.024208417	-1.576460E+02	  0.024208417	2.176000E+00	  0.024208417	-9.861000E+00
23	  0.024408817	-7.350000E-01	  0.024408817	-1.592780E+02	  0.024408817	2.185000E+00	  0.024408817	-9.124000E+00
24	  0.024609219	-7.410000E-01	  0.024609219	-1.609120E+02	  0.024609219	2.192000E+00	  0.024609219	-8.390000E+00
25	  0.024809619	-7.490000E-01	  0.024809619	-1.625610E+02	  0.024809619	2.205000E+00	  0.024809619	-7.653000E+00
26	  0.025010020	-7.580000E-01	  0.025010020	-1.642160E+02	  0.025010020	2.224000E+00	  0.025010020	-6.917000E+00
27	  0.025210422	-7.680000E-01	  0.025210422	-1.658740E+02	  0.025210422	2.245000E+00	  0.025210422	-6.182000E+00
28	  0.025410822	-7.790000E-01	  0.025410822	-1.675540E+02	  0.025410822	2.269000E+00	  0.025410822	-5.440000E+00
29	  0.025611224	-7.900000E-01	  0.025611224	-1.692400E+02	  0.025611224	2.292000E+00	  0.025611224	-4.698000E+00
30	  0.025811624	-8.020000E-01	  0.025811624	-1.709330E+02	  0.025811624	2.322000E+00	  0.025811624	-3.955000E+00
31	  0.026012026	-8.110000E-01	  0.026012026	-1.726520E+02	  0.026012026	2.342000E+00	  0.026012026	-3.203000E+00
32	  0.026212426	-8.220000E-01	  0.026212426	-1.743620E+02	  0.026212426	2.372000E+00	  0.026212426	-2.456000E+00
33	  0.026412826	-8.360000E-01	  0.026412826	-1.760860E+02	  0.026412826	2.409000E+00	  0.026412826	-1.704000E+00
34	  0.026613226	-8.500000E-01	  0.026613226	-1.778310E+02	  0.026613226	2.446000E+00	  0.026613226	-9.440000E-01
35	  0.026813626	-8.660000E-01	  0.026813626	-1.795740E+02	  0.026813626	2.491000E+00	  0.026813626	-1.850000E-01
36	  0.027014028	-8.810000E-01	  0.027014028	1.786630E+02	  0.027014028	2.535000E+00	  0.027014028	5.810000E-01
37	  0.027214428	-8.970000E-01	  0.027214428	1.769110E+02	  0.027214428	2.583000E+00	  0.027214428	1.344000E+00
38	  0.027414829	-9.170000E-01	  0.027414829	1.751430E+02	  0.027414829	2.641000E+00	  0.027414829	2.114000E+00
39	  0.027615231	-9.330000E-01	  0.027615231	1.733590E+02	  0.027615231	2.693000E+00	  0.027615231	2.892000E+00
40	  0.027815631	-9.530000E-01	  0.027815631	1.715750E+02	  0.027815631	2.755000E+00	  0.027815631	3.671000E+00
41	  0.028016033	-9.720000E-01	  0.028016033	1.697510E+02	  0.028016033	2.817000E+00	  0.028016033	4.469000E+00
42	  0.028216433	-9.930000E-01	  0.028216433	1.679440E+02	  0.028216433	2.888000E+00	  0.028216433	5.262000E+00
43	  0.028416833	-1.015000E+00	  0.028416833	1.661230E+02	  0.028416833	2.964000E+00	  0.028416833	6.063000E+00
44	  0.028617235	-1.037000E+00	  0.028617235	1.642840E+02	  0.028617235	3.040000E+00	  0.028617235	6.875000E+00
45	  0.028817635	-1.060000E+00	  0.028817635	1.624570E+02	  0.028817635	3.120000E+00	  0.028817635	7.685000E+00
46	  0.029018037	-1.085000E+00	  0.029018037	1.606290E+02	  0.029018037	3.211000E+00	  0.029018037	8.499000E+00
47	  0.029218437	-1.112000E+00	  0.029218437	1.587830E+02	  0.029218437	3.309000E+00	  0.029218437	9.325000E+00
48	  0.029418837	-1.141000E+00	  0.029418837	1.569070E+02	  0.029418837	3.415000E+00	  0.029418837	1.016800E+01
49	  0.029619239	-1.167000E+00	  0.029619239	1.550360E+02	  0.029619239	3.520000E+00	  0.029619239	1.101500E+01
50	  0.029819639	-1.196000E+00	  0.029819639	1.531590E+02	  0.029819639	3.633000E+00	  0.029819639	1.187000E+01
51	  0.030020041	-1.226000E+00	  0.030020041	1.512670E+02	  0.030020041	3.754000E+00	  0.030020041	1.273800E+01
52	  0.030220442	-1.255000E+00	  0.030220442	1.493820E+02	  0.030220442	3.876000E+00	  0.030220442	1.361000E+01
53	  0.030420844	-1.285000E+00	  0.030420844	1.475080E+02	  0.030420844	4.005000E+00	  0.030420844	1.448300E+01
54	  0.030621244	-1.318000E+00	  0.030621244	1.456320E+02	  0.030621244	4.147000E+00	  0.030621244	1.536500E+01
55	  0.030821642	-1.353000E+00	  0.030821642	1.437500E+02	  0.030821642	4.302000E+00	  0.030821642	1.625700E+01
56	  0.031022044	-1.385000E+00	  0.031022044	1.418400E+02	  0.031022044	4.451000E+00	  0.031022044	1.717100E+01
57	  0.031222444	-1.413000E+00	  0.031222444	1.399530E+02	  0.031222444	4.594000E+00	  0.031222444	1.808500E+01
58	  0.031422846	-1.448000E+00	  0.031422846	1.380400E+02	  0.031422846	4.766000E+00	  0.031422846	1.902000E+01
59	  0.031623244	-1.484000E+00	  0.031623244	1.361040E+02	  0.031623244	4.947000E+00	  0.031623244	1.997800E+01
60	  0.031823646	-1.517000E+00	  0.031823646	1.341660E+02	  0.031823646	5.126000E+00	  0.031823646	2.094900E+01
61	  0.032024048	-1.551000E+00	  0.032024048	1.322440E+02	  0.032024048	5.318000E+00	  0.032024048	2.192300E+01
62	  0.032224450	-1.585000E+00	  0.032224450	1.303080E+02	  0.032224450	5.517000E+00	  0.032224450	2.291800E+01
63	  0.032424849	-1.621000E+00	  0.032424849	1.283450E+02	  0.032424849	5.731000E+00	  0.032424849	2.394200E+01
64	  0.032625251	-1.656000E+00	  0.032625251	1.263780E+02	  0.032625251	5.954000E+00	  0.032625251	2.498200E+01
65	  0.032825653	-1.692000E+00	  0.032825653	1.243860E+02	  0.032825653	6.188000E+00	  0.032825653	2.605200E+01
66	  0.033026051	-1.725000E+00	  0.033026051	1.223790E+02	  0.033026051	6.428000E+00	  0.033026051	2.714900E+01
67	  0.033226453	-1.764000E+00	  0.033226453	1.203760E+02	  0.033226453	6.701000E+00	  0.033226453	2.826000E+01
68	  0.033426855	-1.799000E+00	  0.033426855	1.183650E+02	  0.033426855	6.972000E+00	  0.033426855	2.939700E+01
69	  0.033627257	-1.835000E+00	  0.033627257	1.163620E+02	  0.033627257	7.258000E+00	  0.033627257	3.054900E+01
70	  0.033827655	-1.876000E+00	  0.033827655	1.143620E+02	  0.033827655	7.582000E+00	  0.033827655	3.171900E+01
71	  0.034028057	-1.916000E+00	  0.034028057	1.123290E+02	  0.034028057	7.919000E+00	  0.034028057	3.293300E+01
72	  0.034228459	-1.957000E+00	  0.034228459	1.102950E+02	  0.034228459	8.278000E+00	  0.034228459	3.417100E+01
73	  0.034428857	-2.001000E+00	  0.034428857	1.082360E+02	  0.034428857	8.677000E+00	  0.034428857	3.544900E+01
74	  0.034629259	-2.040000E+00	  0.034629259	1.061650E+02	  0.034629259	9.075000E+00	  0.034629259	3.676700E+01
75	  0.034829661	-2.087000E+00	  0.034829661	1.040890E+02	  0.034829661	9.534000E+00	  0.034829661	3.811100E+01
76	  0.035030060	-2.134000E+00	  0.035030060	1.020110E+02	  0.035030060	1.002100E+01	  0.035030060	3.948900E+01
77	  0.035230462	-2.182000E+00	  0.035230462	9.994100E+01	  0.035230462	1.054000E+01	  0.035230462	4.089200E+01
78	  0.035430863	-2.231000E+00	  0.035430863	9.784800E+01	  0.035430863	1.110200E+01	  0.035430863	4.234400E+01
79	  0.035631265	-2.280000E+00	  0.035631265	9.577200E+01	  0.035631265	1.169700E+01	  0.035631265	4.381900E+01
80	  0.035831664	-2.329000E+00	  0.035831664	9.367900E+01	  0.035831664	1.233100E+01	  0.035831664	4.534600E+01
81	  0.036032066	-2.380000E+00	  0.036032066	9.158500E+01	  0.036032066	1.302500E+01	  0.036032066	4.690900E+01
82	  0.036232468	-2.431000E+00	  0.036232468	8.947200E+01	  0.036232468	1.376400E+01	  0.036232468	4.853000E+01
83	  0.036432866	-2.482000E+00	  0.036432866	8.736500E+01	  0.036432866	1.455700E+01	  0.036432866	5.019000E+01
84	  0.036633268	-2.534000E+00	  0.036633268	8.524500E+01	  0.036633268	1.541200E+01	  0.036633268	5.190500E+01
85	  0.036833670	-2.586000E+00	  0.036833670	8.313900E+01	  0.036833670	1.633300E+01	  0.036833670	5.365300E+01
86	  0.037034072	-2.642000E+00	  0.037034072	8.101500E+01	  0.037034072	1.734400E+01	  0.037034072	5.546200E+01
87	  0.037234470	-2.695000E+00	  0.037234470	7.888900E+01	  0.037234470	1.842300E+01	  0.037234470	5.732600E+01
88	  0.037434869	-2.750000E+00	  0.037434869	7.677300E+01	  0.037434869	1.958800E+01	  0.037434869	5.923200E+01
89	  0.037635271	-2.808000E+00	  0.037635271	7.465400E+01	  0.037635271	2.087100E+01	  0.037635271	6.118200E+01
90	  0.037835669	-2.870000E+00	  0.037835669	7.250900E+01	  0.037835669	2.229600E+01	  0.037835669	6.320100E+01
91	  0.038036071	-2.933000E+00	  0.038036071	7.038900E+01	  0.038036071	2.383400E+01	  0.038036071	6.524100E+01
92	  0.038236473	-2.999000E+00	  0.038236473	6.832200E+01	  0.038236473	2.549500E+01	  0.038236473	6.725600E+01
93	  0.038436871	-3.056000E+00	  0.038436871	6.624000E+01	  0.038436871	2.722600E+01	  0.038436871	6.937200E+01
94	  0.038637273	-3.110000E+00	  0.038637273	6.413500E+01	  0.038637273	2.909700E+01	  0.038637273	7.157900E+01
95	  0.038837675	-3.163000E+00	  0.038837675	6.202800E+01	  0.038837675	3.113200E+01	  0.038837675	7.383800E+01
96	  0.039038073	-3.217000E+00	  0.039038073	5.992600E+01	  0.039038073	3.334200E+01	  0.039038073	7.613900E+01
97	  0.039238475	-3.273000E+00	  0.039238475	5.783500E+01	  0.039238475	3.575700E+01	  0.039238475	7.845500E+01
98	  0.039438877	-3.329000E+00	  0.039438877	5.575400E+01	  0.039438877	3.838100E+01	  0.039438877	8.078700E+01
99	  0.039639279	-3.386000E+00	  0.039639279	5.365900E+01	  0.039639279	4.127400E+01	  0.039639279	8.314400E+01
100	  0.039839678	-3.444000E+00	  0.039839678	5.154700E+01	  0.039839678	4.445300E+01	  0.039839678	8.553400E+01
101	  0.040040080	-3.498000E+00	  0.040040080	4.944200E+01	  0.040040080	4.788500E+01	  0.040040080	8.793600E+01
102	  0.040240481	-3.555000E+00	  0.040240481	4.734700E+01	  0.040240481	5.165200E+01	  0.040240481	9.026400E+01
103	  0.040440880	-3.612000E+00	  0.040440880	4.525200E+01	  0.040440880	5.576200E+01	  0.040440880	9.253600E+01
104	  0.040641282	-3.667000E+00	  0.040641282	4.318400E+01	  0.040641282	6.017700E+01	  0.040641282	9.470500E+01
105	  0.040841684	-3.724000E+00	  0.040841684	4.111500E+01	  0.040841684	6.501800E+01	  0.040841684	9.670700E+01
106	  0.041042086	-3.781000E+00	  0.041042086	3.907100E+01	  0.041042086	7.020900E+01	  0.041042086	9.851600E+01
107	  0.041242484	-3.841000E+00	  0.041242484	3.698800E+01	  0.041242484	7.597200E+01	  0.041242484	1.000650E+02
108	  0.041442886	-3.895000E+00	  0.041442886	3.492800E+01	  0.041442886	8.209700E+01	  0.041442886	1.013680E+02
109	  0.041643288	-3.952000E+00	  0.041643288	3.284400E+01	  0.041643288	8.879000E+01	  0.041643288	1.022600E+02
110	  0.041843686	-4.007000E+00	  0.041843686	3.075300E+01	  0.041843686	9.598500E+01	  0.041843686	1.026860E+02
111	  0.042044088	-4.063000E+00	  0.042044088	2.870900E+01	  0.042044088	1.034830E+02	  0.042044088	1.024740E+02
112	  0.042244490	-4.118000E+00	  0.042244490	2.663600E+01	  0.042244490	1.115090E+02	  0.042244490	1.015940E+02
113	  0.042444889	-4.174000E+00	  0.042444889	2.460200E+01	  0.042444889	1.197340E+02	  0.042444889	9.983300E+01
114	  0.042645290	-4.231000E+00	  0.042645290	2.255300E+01	  0.042645290	1.282640E+02	  0.042645290	9.709300E+01
115	  0.042845692	-4.282000E+00	  0.042845692	2.051700E+01	  0.042845692	1.368980E+02	  0.042845692	9.348200E+01
116	  0.043046094	-4.338000E+00	  0.043046094	1.848200E+01	  0.043046094	1.454390E+02	  0.043046094	8.857100E+01
117	  0.043246493	-4.392000E+00	  0.043246493	1.643000E+01	  0.043246493	1.538400E+02	  0.043246493	8.247900E+01
118	  0.043446895	-4.443000E+00	  0.043446895	1.440700E+01	  0.043446895	1.617020E+02	  0.043446895	7.532700E+01
119	  0.043647297	-4.492000E+00	  0.043647297	1.239100E+01	  0.043647297	1.688770E+02	  0.043647297	6.704600E+01
120	  0.043847695	-4.544000E+00	  0.043847695	1.039200E+01	  0.043847695	1.749750E+02	  0.043847695	5.766000E+01
121	  0.044048097	-4.593000E+00	  0.044048097	8.393000E+00	  0.044048097	1.799920E+02	  0.044048097	4.743200E+01
122	  0.044248499	-4.642000E+00	  0.044248499	6.406000E+00	  0.044248499	1.836730E+02	  0.044248499	3.657600E+01
123	  0.044448901	-4.692000E+00	  0.044448901	4.441000E+00	  0.044448901	1.858340E+02	  0.044448901	2.538400E+01
124	  0.044649299	-4.738000E+00	  0.044649299	2.477000E+00	  0.044649299	1.866750E+02	  0.044649299	1.407900E+01
125	  0.044849701	-4.784000E+00	  0.044849701	5.250000E-01	  0.044849701	1.860470E+02	  0.044849701	2.948000E+00
126	  0.045050103	-4.828000E+00	  0.045050103	-1.421000E+00	  0.045050103	1.841220E+02	  0.045050103	-7.809000E+00
127	  0.045250501	-4.873000E+00	  0.045250501	-3.365000E+00	  0.045250501	1.809590E+02	  0.045250501	-1.797700E+01
128	  0.045450903	-4.913000E+00	  0.045450903	-5.290000E+00	  0.045450903	1.768690E+02	  0.045450903	-2.734700E+01
129	  0.045651305	-4.957000E+00	  0.045651305	-7.220000E+00	  0.045651305	1.717900E+02	  0.045651305	-3.584900E+01
130	  0.045851704	-4.997000E+00	  0.045851704	-9.110000E+00	  0.045851704	1.662390E+02	  0.045851704	-4.331500E+01
131	  0.046052102	-5.039000E+00	  0.046052102	-1.100300E+01	  0.046052102	1.601610E+02	  0.046052102	-4.984700E+01
132	  0.046252504	-5.079000E+00	  0.046252504	-1.287400E+01	  0.046252504	1.538460E+02	  0.046252504	-5.540100E+01
133	  0.046452906	-5.118000E+00	  0.046452906	-1.473200E+01	  0.046452906	1.474480E+02	  0.046452906	-6.009200E+01
134	  0.046653304	-5.155000E+00	  0.046653304	-1.659300E+01	  0.046653304	1.410150E+02	  0.046653304	-6.401700E+01
135	  0.046853706	-5.189000E+00	  0.046853706	-1.845300E+01	  0.046853706	1.346560E+02	  0.046853706	-6.726200E+01
136	  0.047054108	-5.225000E+00	  0.047054108	-2.032400E+01	  0.047054108	1.283490E+02	  0.047054108	-6.980700E+01
137	  0.047254506	-5.259000E+00	  0.047254506	-2.217900E+01	  0.047254506	1.222850E+02	  0.047254506	-7.176700E+01
138	  0.047454908	-5.289000E+00	  0.047454908	-2.400100E+01	  0.047454908	1.165510E+02	  0.047454908	-7.323400E+01
139	  0.047655310	-5.319000E+00	  0.047655310	-2.583800E+01	  0.047655310	1.109970E+02	  0.047655310	-7.425400E+01
140	  0.047855709	-5.353000E+00	  0.047855709	-2.765100E+01	  0.047855709	1.057420E+02	  0.047855709	-7.479100E+01
141	  0.048056111	-5.385000E+00	  0.048056111	-2.943900E+01	  0.048056111	1.008200E+02	  0.048056111	-7.502100E+01
142	  0.048256513	-5.418000E+00	  0.048256513	-3.123200E+01	  0.048256513	9.613700E+01	  0.048256513	-7.495700E+01
143	  0.048456915	-5.446000E+00	  0.048456915	-3.303700E+01	  0.048456915	9.168500E+01	  0.048456915	-7.472500E+01
144	  0.048657313	-5.471000E+00	  0.048657313	-3.481200E+01	  0.048657313	8.754900E+01	  0.048657313	-7.433000E+01
145	  0.048857715	-5.497000E+00	  0.048857715	-3.660900E+01	  0.048857715	8.359400E+01	  0.048857715	-7.374900E+01
146	  0.049058117	-5.521000E+00	  0.049058117	-3.839500E+01	  0.049058117	7.988700E+01	  0.049058117	-7.303500E+01
147	  0.049258515	-5.545000E+00	  0.049258515	-4.013500E+01	  0.049258515	7.648500E+01	  0.049258515	-7.221300E+01
148	  0.049458917	-5.566000E+00	  0.049458917	-4.188500E+01	  0.049458917	7.325200E+01	  0.049458917	-7.132800E+01
149	  0.049659319	-5.594000E+00	  0.049659319	-4.360000E+01	  0.049659319	7.028500E+01	  0.049659319	-7.029400E+01
150	  0.049859721	-5.616000E+00	  0.049859721	-4.531800E+01	  0.049859721	6.746900E+01	  0.049859721	-6.926600E+01
151	  0.050060119	-5.637000E+00	  0.050060119	-4.703300E+01	  0.050060119	6.482000E+01	  0.050060119	-6.818500E+01
152	  0.050260521	-5.658000E+00	  0.050260521	-4.874300E+01	  0.050260521	6.232400E+01	  0.050260521	-6.707900E+01
153	  0.050460923	-5.679000E+00	  0.050460923	-5.044000E+01	  0.050460923	5.999300E+01	  0.050460923	-6.593800E+01
154	  0.050661322	-5.694000E+00	  0.050661322	-5.212900E+01	  0.050661322	5.778100E+01	  0.050661322	-6.482700E+01
155	  0.050861724	-5.711000E+00	  0.050861724	-5.379800E+01	  0.050861724	5.572200E+01	  0.050861724	-6.369400E+01
156	  0.051062126	-5.729000E+00	  0.051062126	-5.546500E+01	  0.051062126	5.378300E+01	  0.051062126	-6.253800E+01
157	  0.051262524	-5.749000E+00	  0.051262524	-5.710200E+01	  0.051262524	5.199200E+01	  0.051262524	-6.137400E+01
158	  0.051462926	-5.766000E+00	  0.051462926	-5.872600E+01	  0.051462926	5.030200E+01	  0.051462926	-6.023500E+01
159	  0.051663328	-5.787000E+00	  0.051663328	-6.033600E+01	  0.051663328	4.872600E+01	  0.051663328	-5.908100E+01
160	  0.051863730	-5.800000E+00	  0.051863730	-6.196700E+01	  0.051863730	4.718400E+01	  0.051863730	-5.796300E+01
161	  0.052064128	-5.817000E+00	  0.052064128	-6.357000E+01	  0.052064128	4.576300E+01	  0.052064128	-5.684200E+01
162	  0.052264530	-5.826000E+00	  0.052264530	-6.518100E+01	  0.052264530	4.437300E+01	  0.052264530	-5.576700E+01
163	  0.052464932	-5.838000E+00	  0.052464932	-6.676600E+01	  0.052464932	4.308900E+01	  0.052464932	-5.469100E+01
164	  0.052665330	-5.852000E+00	  0.052665330	-6.836200E+01	  0.052665330	4.186400E+01	  0.052665330	-5.360900E+01
165	  0.052865732	-5.869000E+00	  0.052865732	-6.989400E+01	  0.052865732	4.076400E+01	  0.052865732	-5.255600E+01
166	  0.053066134	-5.883000E+00	  0.053066134	-7.144900E+01	  0.053066134	3.968700E+01	  0.053066134	-5.151100E+01
167	  0.053266536	-5.896000E+00	  0.053266536	-7.299200E+01	  0.053266536	3.866300E+01	  0.053266536	-5.049300E+01
168	  0.053466935	-5.910000E+00	  0.053466935	-7.453900E+01	  0.053466935	3.768800E+01	  0.053466935	-4.947700E+01
169	  0.053667337	-5.921000E+00	  0.053667337	-7.607500E+01	  0.053667337	3.675700E+01	  0.053667337	-4.848800E+01
170	  0.053867739	-5.933000E+00	  0.053867739	-7.760500E+01	  0.053867739	3.587300E+01	  0.053867739	-4.751000E+01
171	  0.054068137	-5.945000E+00	  0.054068137	-7.914200E+01	  0.054068137	3.502600E+01	  0.054068137	-4.653700E+01
172	  0.054268539	-5.954000E+00	  0.054268539	-8.063800E+01	  0.054268539	3.423000E+01	  0.054268539	-4.560900E+01
173	  0.054468941	-5.967000E+00	  0.054468941	-8.212900E+01	  0.054468941	3.348500E+01	  0.054468941	-4.468000E+01
174	  0.054669335	-5.978000E+00	  0.054669335	-8.360500E+01	  0.054669335	3.277200E+01	  0.054669335	-4.377800E+01
175	  0.054869737	-5.988000E+00	  0.054869737	-8.508400E+01	  0.054869737	3.208500E+01	  0.054869737	-4.288800E+01
176	  0.055070139	-5.999000E+00	  0.055070139	-8.653600E+01	  0.055070139	3.144300E+01	  0.055070139	-4.201900E+01
177	  0.055270538	-6.012000E+00	  0.055270538	-8.799600E+01	  0.055270538	3.083300E+01	  0.055270538	-4.114900E+01
178	  0.055470940	-6.019000E+00	  0.055470940	-8.942800E+01	  0.055470940	3.023600E+01	  0.055470940	-4.032300E+01
179	  0.055671342	-6.024000E+00	  0.055671342	-9.085200E+01	  0.055671342	2.966200E+01	  0.055671342	-3.951300E+01
180	  0.055871744	-6.027000E+00	  0.055871744	-9.227600E+01	  0.055871744	2.910000E+01	  0.055871744	-3.872000E+01
181	  0.056072142	-6.037000E+00	  0.056072142	-9.368400E+01	  0.056072142	2.859500E+01	  0.056072142	-3.792200E+01
182	  0.056272544	-6.041000E+00	  0.056272544	-9.505600E+01	  0.056272544	2.809900E+01	  0.056272544	-3.716900E+01
183	  0.056472946	-6.047000E+00	  0.056472946	-9.644200E+01	  0.056472946	2.762500E+01	  0.056472946	-3.641000E+01
184	  0.056673344	-6.049000E+00	  0.056673344	-9.777400E+01	  0.056673344	2.717200E+01	  0.056673344	-3.569700E+01
185	  0.056873746	-6.056000E+00	  0.056873746	-9.912400E+01	  0.056873746	2.674600E+01	  0.056873746	-3.497000E+01
186	  0.057074148	-6.058000E+00	  0.057074148	-1.004620E+02	  0.057074148	2.632500E+01	  0.057074148	-3.426600E+01
187	  0.057274550	-6.059000E+00	  0.057274550	-1.017850E+02	  0.057274550	2.591800E+01	  0.057274550	-3.357900E+01
188	  0.057474948	-6.057000E+00	  0.057474948	-1.030850E+02	  0.057474948	2.552400E+01	  0.057474948	-3.291500E+01
189	  0.057675350	-6.058000E+00	  0.057675350	-1.043950E+02	  0.057675350	2.515000E+01	  0.057675350	-3.224500E+01
190	  0.057875752	-6.058000E+00	  0.057875752	-1.057190E+02	  0.057875752	2.478100E+01	  0.057875752	-3.157700E+01
191	  0.058076151	-6.057000E+00	  0.058076151	-1.070160E+02	  0.058076151	2.443000E+01	  0.058076151	-3.092800E+01
192	  0.058276553	-6.055000E+00	  0.058276553	-1.082900E+02	  0.058276553	2.409400E+01	  0.058276553	-3.029800E+01
193	  0.058476955	-6.056000E+00	  0.058476955	-1.095630E+02	  0.058476955	2.377700E+01	  0.058476955	-2.966900E+01
194	  0.058677353	-6.052000E+00	  0.058677353	-1.108660E+02	  0.058677353	2.344900E+01	  0.058677353	-2.903700E+01
195	  0.058877755	-6.051000E+00	  0.058877755	-1.121430E+02	  0.058877755	2.314700E+01	  0.058877755	-2.841900E+01
196	  0.059078157	-6.045000E+00	  0.059078157	-1.134150E+02	  0.059078157	2.284200E+01	  0.059078157	-2.781400E+01
197	  0.059278559	-6.041000E+00	  0.059278559	-1.146820E+02	  0.059278559	2.255100E+01	  0.059278559	-2.721500E+01
198	  0.059478957	-6.036000E+00	  0.059478957	-1.159620E+02	  0.059478957	2.226700E+01	  0.059478957	-2.661300E+01
199	  0.059679359	-6.036000E+00	  0.059679359	-1.172330E+02	  0.059679359	2.201000E+01	  0.059679359	-2.601300E+01
200	  0.059879761	-6.032000E+00	  0.059879761	-1.185010E+02	  0.059879761	2.174900E+01	  0.059879761	-2.542400E+01
201	  0.060080159	-6.030000E+00	  0.060080159	-1.197390E+02	  0.060080159	2.150800E+01	  0.060080159	-2.485100E+01
202	  0.060280561	-6.027000E+00	  0.060280561	-1.210100E+02	  0.060280561	2.126300E+01	  0.060280561	-2.426900E+01
203	  0.060480963	-6.028000E+00	  0.060480963	-1.222650E+02	  0.060480963	2.104400E+01	  0.060480963	-2.369200E+01
204	  0.060681365	-6.025000E+00	  0.060681365	-1.235070E+02	  0.060681365	2.082300E+01	  0.060681365	-2.313000E+01
205	  0.060881764	-6.018000E+00	  0.060881764	-1.247550E+02	  0.060881764	2.059700E+01	  0.060881764	-2.257200E+01
206	  0.061082166	-6.018000E+00	  0.061082166	-1.260130E+02	  0.061082166	2.039500E+01	  0.061082166	-2.200700E+01
207	  0.061282568	-6.017000E+00	  0.061282568	-1.272410E+02	  0.061282568	2.020400E+01	  0.061282568	-2.145900E+01
208	  0.061482966	-6.014000E+00	  0.061482966	-1.284850E+02	  0.061482966	2.001000E+01	  0.061482966	-2.090900E+01
209	  0.061683368	-6.011000E+00	  0.061683368	-1.297090E+02	  0.061683368	1.982600E+01	  0.061683368	-2.037100E+01
210	  0.061883770	-6.011000E+00	  0.061883770	-1.309400E+02	  0.061883770	1.965500E+01	  0.061883770	-1.983100E+01
211	  0.062084168	-6.008000E+00	  0.062084168	-1.321320E+02	  0.062084168	1.948900E+01	  0.062084168	-1.931300E+01
212	  0.062284570	-6.006000E+00	  0.062284570	-1.333660E+02	  0.062284570	1.932100E+01	  0.062284570	-1.878000E+01
213	  0.062484972	-5.993000E+00	  0.062484972	-1.345530E+02	  0.062484972	1.913900E+01	  0.062484972	-1.827800E+01
214	  0.062685370	-5.993000E+00	  0.062685370	-1.357510E+02	  0.062685370	1.899300E+01	  0.062685370	-1.776400E+01
215	  0.062885776	-5.992000E+00	  0.062885776	-1.369520E+02	  0.062885776	1.885300E+01	  0.062885776	-1.725100E+01
216	  0.063086174	-5.986000E+00	  0.063086174	-1.381290E+02	  0.063086174	1.870300E+01	  0.063086174	-1.675500E+01
217	  0.063286573	-5.984000E+00	  0.063286573	-1.393110E+02	  0.063286573	1.857100E+01	  0.063286573	-1.625700E+01
218	  0.063486971	-5.981000E+00	  0.063486971	-1.404780E+02	  0.063486971	1.844300E+01	  0.063486971	-1.576700E+01
219	  0.063687377	-5.975000E+00	  0.063687377	-1.416120E+02	  0.063687377	1.831200E+01	  0.063687377	-1.529500E+01
220	  0.063887775	-5.972000E+00	  0.063887775	-1.427720E+02	  0.063887775	1.819500E+01	  0.063887775	-1.481200E+01
221	  0.064088173	-5.972000E+00	  0.064088173	-1.439300E+02	  0.064088173	1.808700E+01	  0.064088173	-1.433000E+01
222	  0.064288579	-5.966000E+00	  0.064288579	-1.450610E+02	  0.064288579	1.797000E+01	  0.064288579	-1.386500E+01
223	  0.064488977	-5.968000E+00	  0.064488977	-1.462420E+02	  0.064488977	1.787600E+01	  0.064488977	-1.337700E+01
224	  0.064689375	-5.968000E+00	  0.064689375	-1.473150E+02	  0.064689375	1.778700E+01	  0.064689375	-1.293600E+01
225	  0.064889781	-5.964000E+00	  0.064889781	-1.484740E+02	  0.064889781	1.768500E+01	  0.064889781	-1.246300E+01
226	  0.065090179	-5.966000E+00	  0.065090179	-1.495610E+02	  0.065090179	1.760900E+01	  0.065090179	-1.201900E+01
227	  0.065290578	-5.965000E+00	  0.065290578	-1.506790E+02	  0.065290578	1.752500E+01	  0.065290578	-1.156400E+01
228	  0.065490983	-5.967000E+00	  0.065490983	-1.517600E+02	  0.065490983	1.745600E+01	  0.065490983	-1.112500E+01
229	  0.065691382	-5.967000E+00	  0.065691382	-1.528860E+02	  0.065691382	1.738100E+01	  0.065691382	-1.067000E+01
230	  0.065891780	-5.965000E+00	  0.065891780	-1.539780E+02	  0.065891780	1.730800E+01	  0.065891780	-1.023100E+01
231	  0.066092186	-5.968000E+00	  0.066092186	-1.550780E+02	  0.066092186	1.724900E+01	  0.066092186	-9.788000E+00
232	  0.066292584	-5.968000E+00	  0.066292584	-1.561580E+02	  0.066292584	1.718600E+01	  0.066292584	-9.355000E+00
233	  0.066492982	-5.967000E+00	  0.066492982	-1.572530E+02	  0.066492982	1.712300E+01	  0.066492982	-8.918000E+00
234	  0.066693388	-5.973000E+00	  0.066693388	-1.583000E+02	  0.066693388	1.708400E+01	  0.066693388	-8.499000E+00
235	  0.066893786	-5.975000E+00	  0.066893786	-1.593740E+02	  0.066893786	1.703600E+01	  0.066893786	-8.071000E+00
236	  0.067094192	-5.973000E+00	  0.067094192	-1.604290E+02	  0.067094192	1.698200E+01	  0.067094192	-7.653000E+00
237	  0.067294590	-5.978000E+00	  0.067294590	-1.614960E+02	  0.067294590	1.695000E+01	  0.067294590	-7.230000E+00
238	  0.067494988	-5.980000E+00	  0.067494988	-1.625550E+02	  0.067494988	1.690900E+01	  0.067494988	-6.811000E+00
239	  0.067695394	-5.982000E+00	  0.067695394	-1.636160E+02	  0.067695394	1.687400E+01	  0.067695394	-6.392000E+00
240	  0.067895792	-5.988000E+00	  0.067895792	-1.646420E+02	  0.067895792	1.685100E+01	  0.067895792	-5.988000E+00
241	  0.068096191	-5.991000E+00	  0.068096191	-1.657300E+02	  0.068096191	1.682300E+01	  0.068096191	-5.559000E+00
242	  0.068296596	-5.993000E+00	  0.068296596	-1.667510E+02	  0.068296596	1.679700E+01	  0.068296596	-5.158000E+00
243	  0.068496995	-5.993000E+00	  0.068496995	-1.677830E+02	  0.068496995	1.676700E+01	  0.068496995	-4.755000E+00
244	  0.068697393	-5.999000E+00	  0.068697393	-1.688190E+02	  0.068697393	1.675500E+01	  0.068697393	-4.349000E+00
245	  0.068897791	-6.004000E+00	  0.068897791	-1.698590E+02	  0.068897791	1.674000E+01	  0.068897791	-3.942000E+00
246	  0.069098189	-6.005000E+00	  0.069098189	-1.708560E+02	  0.069098189	1.672200E+01	  0.069098189	-3.553000E+00
247	  0.069298595	-6.007000E+00	  0.069298595	-1.718750E+02	  0.069298595	1.670700E+01	  0.069298595	-3.156000E+00
248	  0.069498993	-6.008000E+00	  0.069498993	-1.729200E+02	  0.069498993	1.669300E+01	  0.069498993	-2.749000E+00
249	  0.069699399	-6.014000E+00	  0.069699399	-1.739390E+02	  0.069699399	1.669200E+01	  0.069699399	-2.352000E+00
250	  0.069899797	-6.018000E+00	  0.069899797	-1.749340E+02	  0.069899797	1.668900E+01	  0.069899797	-1.965000E+00
251	  0.070100196	-6.018000E+00	  0.070100196	-1.759340E+02	  0.070100196	1.668000E+01	  0.070100196	-1.577000E+00
252	  0.070300601	-6.020000E+00	  0.070300601	-1.769280E+02	  0.070300601	1.667700E+01	  0.070300601	-1.191000E+00
253	  0.070501000	-6.025000E+00	  0.070501000	-1.778830E+02	  0.070501000	1.668500E+01	  0.070501000	-8.200000E-01
254	  0.070701398	-6.027000E+00	  0.070701398	-1.788770E+02	  0.070701398	1.668400E+01	  0.070701398	-4.350000E-01
255	  0.070901804	-6.030000E+00	  0.070901804	-1.798630E+02	  0.070901804	1.669100E+01	  0.070901804	-5.200000E-02
256	  0.071102202	-6.035000E+00	  0.071102202	1.791610E+02	  0.071102202	1.670400E+01	  0.071102202	3.240000E-01
257	  0.071302600	-6.039000E+00	  0.071302600	1.781820E+02	  0.071302600	1.671800E+01	  0.071302600	7.040000E-01
258	  0.071503006	-6.043000E+00	  0.071503006	1.772090E+02	  0.071503006	1.673300E+01	  0.071503006	1.081000E+00
259	  0.071703404	-6.055000E+00	  0.071703404	1.762320E+02	  0.071703404	1.677100E+01	  0.071703404	1.459000E+00
260	  0.071903802	-6.056000E+00	  0.071903802	1.752730E+02	  0.071903802	1.678300E+01	  0.071903802	1.831000E+00
261	  0.072104208	-6.060000E+00	  0.072104208	1.743160E+02	  0.072104208	1.680500E+01	  0.072104208	2.202000E+00
262	  0.072304606	-6.068000E+00	  0.072304606	1.733670E+02	  0.072304606	1.683800E+01	  0.072304606	2.569000E+00
263	  0.072505005	-6.072000E+00	  0.072505005	1.724230E+02	  0.072505005	1.686400E+01	  0.072505005	2.935000E+00
264	  0.072705410	-6.077000E+00	  0.072705410	1.714720E+02	  0.072705410	1.689500E+01	  0.072705410	3.304000E+00
265	  0.072905809	-6.083000E+00	  0.072905809	1.705060E+02	  0.072905809	1.692800E+01	  0.072905809	3.678000E+00
266	  0.073106214	-6.090000E+00	  0.073106214	1.695710E+02	  0.073106214	1.696800E+01	  0.073106214	4.041000E+00
267	  0.073306613	-6.100000E+00	  0.073306613	1.686330E+02	  0.073306613	1.701800E+01	  0.073306613	4.404000E+00
268	  0.073507011	-6.107000E+00	  0.073507011	1.676880E+02	  0.073507011	1.706300E+01	  0.073507011	4.771000E+00
269	  0.073707417	-6.109000E+00	  0.073707417	1.667760E+02	  0.073707417	1.709400E+01	  0.073707417	5.126000E+00
270	  0.073907815	-6.117000E+00	  0.073907815	1.658370E+02	  0.073907815	1.714400E+01	  0.073907815	5.490000E+00
271	  0.074108213	-6.125000E+00	  0.074108213	1.649300E+02	  0.074108213	1.719700E+01	  0.074108213	5.842000E+00
272	  0.074308619	-6.128000E+00	  0.074308619	1.640090E+02	  0.074308619	1.723700E+01	  0.074308619	6.202000E+00
273	  0.074509017	-6.136000E+00	  0.074509017	1.630500E+02	  0.074509017	1.729300E+01	  0.074509017	6.576000E+00
274	  0.074709415	-6.140000E+00	  0.074709415	1.621650E+02	  0.074709415	1.734200E+01	  0.074709415	6.921000E+00
275	  0.074909821	-6.150000E+00	  0.074909821	1.612400E+02	  0.074909821	1.740600E+01	  0.074909821	7.281000E+00
276	  0.075110219	-6.161000E+00	  0.075110219	1.603510E+02	  0.075110219	1.747600E+01	  0.075110219	7.627000E+00
277	  0.075310618	-6.163000E+00	  0.075310618	1.594440E+02	  0.075310618	1.752500E+01	  0.075310618	7.984000E+00
278	  0.075511023	-6.173000E+00	  0.075511023	1.585560E+02	  0.075511023	1.759300E+01	  0.075511023	8.330000E+00
279	  0.075711422	-6.179000E+00	  0.075711422	1.577060E+02	  0.075711422	1.765500E+01	  0.075711422	8.664000E+00
280	  0.075911827	-6.186000E+00	  0.075911827	1.568230E+02	  0.075911827	1.772200E+01	  0.075911827	9.010000E+00
281	  0.076112226	-6.192000E+00	  0.076112226	1.559310E+02	  0.076112226	1.778700E+01	  0.076112226	9.361000E+00
282	  0.076312624	-6.204000E+00	  0.076312624	1.550530E+02	  0.076312624	1.787000E+01	  0.076312624	9.705000E+00
283	  0.076513030	-6.212000E+00	  0.076513030	1.541650E+02	  0.076513030	1.794800E+01	  0.076513030	1.005400E+01
284	  0.076713428	-6.223000E+00	  0.076713428	1.533240E+02	  0.076713428	1.802900E+01	  0.076713428	1.038500E+01
285	  0.076913826	-6.231000E+00	  0.076913826	1.524340E+02	  0.076913826	1.810900E+01	  0.076913826	1.073600E+01
286	  0.077114232	-6.238000E+00	  0.077114232	1.515760E+02	  0.077114232	1.818800E+01	  0.077114232	1.107600E+01
287	  0.077314630	-6.249000E+00	  0.077314630	1.507280E+02	  0.077314630	1.827800E+01	  0.077314630	1.141000E+01
288	  0.077515028	-6.259000E+00	  0.077515028	1.498850E+02	  0.077515028	1.836600E+01	  0.077515028	1.174300E+01
289	  0.077715434	-6.268000E+00	  0.077715434	1.490390E+02	  0.077715434	1.845400E+01	  0.077715434	1.207900E+01
290	  0.077915832	-6.279000E+00	  0.077915832	1.481790E+02	  0.077915832	1.855300E+01	  0.077915832	1.241900E+01
291	  0.078116231	-6.290000E+00	  0.078116231	1.473000E+02	  0.078116231	1.865400E+01	  0.078116231	1.276800E+01
292	  0.078316636	-6.304000E+00	  0.078316636	1.464780E+02	  0.078316636	1.875900E+01	  0.078316636	1.309300E+01
293	  0.078517035	-6.313000E+00	  0.078517035	1.456170E+02	  0.078517035	1.886000E+01	  0.078517035	1.343600E+01
294	  0.078717433	-6.330000E+00	  0.078717433	1.447650E+02	  0.078717433	1.898100E+01	  0.078717433	1.377300E+01
295	  0.078917839	-6.342000E+00	  0.078917839	1.439260E+02	  0.078917839	1.909100E+01	  0.078917839	1.410700E+01
296	  0.079118237	-6.353000E+00	  0.079118237	1.431090E+02	  0.079118237	1.919900E+01	  0.079118237	1.443300E+01
297	  0.079318643	-6.366000E+00	  0.079318643	1.422650E+02	  0.079318643	1.931700E+01	  0.079318643	1.477000E+01
298	  0.079519041	-6.380000E+00	  0.079519041	1.414080E+02	  0.079519041	1.944200E+01	  0.079519041	1.511100E+01
299	  0.079719439	-6.390000E+00	  0.079719439	1.405970E+02	  0.079719439	1.955300E+01	  0.079719439	1.543800E+01
300	  0.079919845	-6.406000E+00	  0.079919845	1.397390E+02	  0.079919845	1.968700E+01	  0.079919845	1.578000E+01
301	  0.080120243	-6.420000E+00	  0.080120243	1.389030E+02	  0.080120243	1.981700E+01	  0.080120243	1.611500E+01
302	  0.080320641	-6.433000E+00	  0.080320641	1.380800E+02	  0.080320641	1.994600E+01	  0.080320641	1.644500E+01
303	  0.080521047	-6.449000E+00	  0.080521047	1.372340E+02	  0.080521047	2.008900E+01	  0.080521047	1.678400E+01
304	  0.080721445	-6.465000E+00	  0.080721445	1.364090E+02	  0.080721445	2.023100E+01	  0.080721445	1.711400E+01
305	  0.080921844	-6.474000E+00	  0.080921844	1.355730E+02	  0.080921844	2.035800E+01	  0.080921844	1.745500E+01
306	  0.081122249	-6.491000E+00	  0.081122249	1.347650E+02	  0.081122249	2.050700E+01	  0.081122249	1.777800E+01
307	  0.081322648	-6.501000E+00	  0.081322648	1.339640E+02	  0.081322648	2.063700E+01	  0.081322648	1.810500E+01
308	  0.081523046	-6.520000E+00	  0.081523046	1.331580E+02	  0.081523046	2.079500E+01	  0.081523046	1.842700E+01
309	  0.081723452	-6.528000E+00	  0.081723452	1.323100E+02	  0.081723452	2.093100E+01	  0.081723452	1.877700E+01
310	  0.081923850	-6.540000E+00	  0.081923850	1.315220E+02	  0.081923850	2.107600E+01	  0.081923850	1.909800E+01
311	  0.082124248	-6.553000E+00	  0.082124248	1.306990E+02	  0.082124248	2.123000E+01	  0.082124248	1.943400E+01
312	  0.082324654	-6.568000E+00	  0.082324654	1.299120E+02	  0.082324654	2.138700E+01	  0.082324654	1.975300E+01
313	  0.082525052	-6.582000E+00	  0.082525052	1.291490E+02	  0.082525052	2.153800E+01	  0.082525052	2.006400E+01
314	  0.082725458	-6.601000E+00	  0.082725458	1.284020E+02	  0.082725458	2.170500E+01	  0.082725458	2.036400E+01
315	  0.082925856	-6.617000E+00	  0.082925856	1.276090E+02	  0.082925856	2.187400E+01	  0.082925856	2.068600E+01
316	  0.083126254	-6.634000E+00	  0.083126254	1.268290E+02	  0.083126254	2.204700E+01	  0.083126254	2.100100E+01
317	  0.083326660	-6.648000E+00	  0.083326660	1.260760E+02	  0.083326660	2.221100E+01	  0.083326660	2.130900E+01
318	  0.083527058	-6.661000E+00	  0.083527058	1.253040E+02	  0.083527058	2.237500E+01	  0.083527058	2.162700E+01
319	  0.083727457	-6.681000E+00	  0.083727457	1.245690E+02	  0.083727457	2.255700E+01	  0.083727457	2.192200E+01
320	  0.083927862	-6.699000E+00	  0.083927862	1.238240E+02	  0.083927862	2.273900E+01	  0.083927862	2.222200E+01
321	  0.084128261	-6.717000E+00	  0.084128261	1.230620E+02	  0.084128261	2.292600E+01	  0.084128261	2.253100E+01
322	  0.084328659	-6.737000E+00	  0.084328659	1.223320E+02	  0.084328659	2.311700E+01	  0.084328659	2.282300E+01
323	  0.084529065	-6.761000E+00	  0.084529065	1.215820E+02	  0.084529065	2.332600E+01	  0.084529065	2.311900E+01
324	  0.084729463	-6.782000E+00	  0.084729463	1.208310E+02	  0.084729463	2.352800E+01	  0.084729463	2.342000E+01
325	  0.084929854	-6.799000E+00	  0.084929854	1.200710E+02	  0.084929854	2.372700E+01	  0.084929854	2.372900E+01
326	  0.085130259	-6.822000E+00	  0.085130259	1.193400E+02	  0.085130259	2.393800E+01	  0.085130259	2.401800E+01
327	  0.085330658	-6.843000E+00	  0.085330658	1.185790E+02	  0.085330658	2.415300E+01	  0.085330658	2.432300E+01
328	  0.085531056	-6.864000E+00	  0.085531056	1.178390E+02	  0.085531056	2.436700E+01	  0.085531056	2.461800E+01
329	  0.085731462	-6.889000E+00	  0.085731462	1.170950E+02	  0.085731462	2.459600E+01	  0.085731462	2.491000E+01
330	  0.085931860	-6.907000E+00	  0.085931860	1.163690E+02	  0.085931860	2.480400E+01	  0.085931860	2.520400E+01
331	  0.086132258	-6.931000E+00	  0.086132258	1.156590E+02	  0.086132258	2.503100E+01	  0.086132258	2.548100E+01
332	  0.086332664	-6.957000E+00	  0.086332664	1.149060E+02	  0.086332664	2.527500E+01	  0.086332664	2.577500E+01
333	  0.086533062	-6.978000E+00	  0.086533062	1.141580E+02	  0.086533062	2.550800E+01	  0.086533062	2.607300E+01
334	  0.086733460	-7.002000E+00	  0.086733460	1.134550E+02	  0.086733460	2.574400E+01	  0.086733460	2.634600E+01
335	  0.086933866	-7.024000E+00	  0.086933866	1.127180E+02	  0.086933866	2.598500E+01	  0.086933866	2.663600E+01
336	  0.087134264	-7.043000E+00	  0.087134264	1.119720E+02	  0.087134264	2.622200E+01	  0.087134264	2.693600E+01
337	  0.087334670	-7.071000E+00	  0.087334670	1.112670E+02	  0.087334670	2.647800E+01	  0.087334670	2.720300E+01
338	  0.087535068	-7.096000E+00	  0.087535068	1.105570E+02	  0.087535068	2.673200E+01	  0.087535068	2.747500E+01
339	  0.087735467	-7.123000E+00	  0.087735467	1.098450E+02	  0.087735467	2.699500E+01	  0.087735467	2.774500E+01
340	  0.087935872	-7.148000E+00	  0.087935872	1.091480E+02	  0.087935872	2.725300E+01	  0.087935872	2.801100E+01
341	  0.088136271	-7.174000E+00	  0.088136271	1.084500E+02	  0.088136271	2.751700E+01	  0.088136271	2.827400E+01
342	  0.088336669	-7.199000E+00	  0.088336669	1.077550E+02	  0.088336669	2.777900E+01	  0.088336669	2.853800E+01
343	  0.088537075	-7.219000E+00	  0.088537075	1.070470E+02	  0.088537075	2.803700E+01	  0.088537075	2.881500E+01
344	  0.088737473	-7.242000E+00	  0.088737473	1.063670E+02	  0.088737473	2.829800E+01	  0.088737473	2.907300E+01
345	  0.088937871	-7.268000E+00	  0.088937871	1.056670E+02	  0.088937871	2.857800E+01	  0.088937871	2.933400E+01
346	  0.089138277	-7.300000E+00	  0.089138277	1.049810E+02	  0.089138277	2.887300E+01	  0.089138277	2.957700E+01
347	  0.089338675	-7.322000E+00	  0.089338675	1.043360E+02	  0.089338675	2.913200E+01	  0.089338675	2.981900E+01
348	  0.089539073	-7.354000E+00	  0.089539073	1.037170E+02	  0.089539073	2.941300E+01	  0.089539073	3.002900E+01
349	  0.089739479	-7.379000E+00	  0.089739479	1.030330E+02	  0.089739479	2.969900E+01	  0.089739479	3.028100E+01
350	  0.089939877	-7.407000E+00	  0.089939877	1.024230E+02	  0.089939877	2.997400E+01	  0.089939877	3.049200E+01
351	  0.090140276	-7.437000E+00	  0.090140276	1.017660E+02	  0.090140276	3.027200E+01	  0.090140276	3.071900E+01
352	  0.090340681	-7.459000E+00	  0.090340681	1.011540E+02	  0.090340681	3.053700E+01	  0.090340681	3.094100E+01
353	  0.090541080	-7.494000E+00	  0.090541080	1.005170E+02	  0.090541080	3.085100E+01	  0.090541080	3.114300E+01
354	  0.090741485	-7.525000E+00	  0.090741485	9.989700E+01	  0.090741485	3.115000E+01	  0.090741485	3.134700E+01
355	  0.090941884	-7.558000E+00	  0.090941884	9.931800E+01	  0.090941884	3.144500E+01	  0.090941884	3.152500E+01
356	  0.091142282	-7.594000E+00	  0.091142282	9.867900E+01	  0.091142282	3.177100E+01	  0.091142282	3.172200E+01
357	  0.091342688	-7.625000E+00	  0.091342688	9.810100E+01	  0.091342688	3.206600E+01	  0.091342688	3.190000E+01
358	  0.091543086	-7.655000E+00	  0.091543086	9.748500E+01	  0.091543086	3.237300E+01	  0.091543086	3.209700E+01
359	  0.091743484	-7.688000E+00	  0.091743484	9.689500E+01	  0.091743484	3.268200E+01	  0.091743484	3.227200E+01
360	  0.091943890	-7.721000E+00	  0.091943890	9.629100E+01	  0.091943890	3.300100E+01	  0.091943890	3.245100E+01
361	  0.092144288	-7.750000E+00	  0.092144288	9.569500E+01	  0.092144288	3.330700E+01	  0.092144288	3.263600E+01
362	  0.092344686	-7.782000E+00	  0.092344686	9.511300E+01	  0.092344686	3.361900E+01	  0.092344686	3.280400E+01
363	  0.092545092	-7.813000E+00	  0.092545092	9.452600E+01	  0.092545092	3.393400E+01	  0.092545092	3.297500E+01
364	  0.092745490	-7.849000E+00	  0.092745490	9.395100E+01	  0.092745490	3.426300E+01	  0.092745490	3.312400E+01
365	  0.092945889	-7.877000E+00	  0.092945889	9.339800E+01	  0.092945889	3.456100E+01	  0.092945889	3.328400E+01
366	  0.093146294	-7.916000E+00	  0.093146294	9.281300E+01	  0.093146294	3.490400E+01	  0.093146294	3.342600E+01
367	  0.093346693	-7.941000E+00	  0.093346693	9.228200E+01	  0.093346693	3.519200E+01	  0.093346693	3.358000E+01
368	  0.093547091	-7.979000E+00	  0.093547091	9.168900E+01	  0.093547091	3.554100E+01	  0.093547091	3.372400E+01
369	  0.093747497	-8.006000E+00	  0.093747497	9.116900E+01	  0.093747497	3.583300E+01	  0.093747497	3.386400E+01
370	  0.093947895	-8.035000E+00	  0.093947895	9.060800E+01	  0.093947895	3.615100E+01	  0.093947895	3.401300E+01
371	  0.094148301	-8.070000E+00	  0.094148301	9.006600E+01	  0.094148301	3.648000E+01	  0.094148301	3.413400E+01
372	  0.094348699	-8.097000E+00	  0.094348699	8.951600E+01	  0.094348699	3.679300E+01	  0.094348699	3.428000E+01
373	  0.094549097	-8.133000E+00	  0.094549097	8.902700E+01	  0.094549097	3.710500E+01	  0.094549097	3.437300E+01
374	  0.094749503	-8.155000E+00	  0.094749503	8.852200E+01	  0.094749503	3.739100E+01	  0.094749503	3.450900E+01
375	  0.094949901	-8.187000E+00	  0.094949901	8.802600E+01	  0.094949901	3.769800E+01	  0.094949901	3.461300E+01
376	  0.095150299	-8.213000E+00	  0.095150299	8.751000E+01	  0.095150299	3.800300E+01	  0.095150299	3.473700E+01
377	  0.095350705	-8.243000E+00	  0.095350705	8.702600E+01	  0.095350705	3.830500E+01	  0.095350705	3.483700E+01
378	  0.095551103	-8.272000E+00	  0.095551103	8.652700E+01	  0.095551103	3.861300E+01	  0.095551103	3.494300E+01
379	  0.095751502	-8.297000E+00	  0.095751502	8.602300E+01	  0.095751502	3.891700E+01	  0.095751502	3.505900E+01
380	  0.095951907	-8.327000E+00	  0.095951907	8.557200E+01	  0.095951907	3.920900E+01	  0.095951907	3.513800E+01
381	  0.096152306	-8.352000E+00	  0.096152306	8.509200E+01	  0.096152306	3.950400E+01	  0.096152306	3.524100E+01
382	  0.096352704	-8.378000E+00	  0.096352704	8.465200E+01	  0.096352704	3.978400E+01	  0.096352704	3.532400E+01
383	  0.096553110	-8.398000E+00	  0.096553110	8.422100E+01	  0.096553110	4.004500E+01	  0.096553110	3.542300E+01
384	  0.096753508	-8.425000E+00	  0.096753508	8.378200E+01	  0.096753508	4.033100E+01	  0.096753508	3.549600E+01
385	  0.096953906	-8.448000E+00	  0.096953906	8.334400E+01	  0.096953906	4.060700E+01	  0.096953906	3.558400E+01
386	  0.097154312	-8.476000E+00	  0.097154312	8.290600E+01	  0.097154312	4.089700E+01	  0.097154312	3.565000E+01
387	  0.097354710	-8.501000E+00	  0.097354710	8.249700E+01	  0.097354710	4.116600E+01	  0.097354710	3.571600E+01
388	  0.097555116	-8.526000E+00	  0.097555116	8.208300E+01	  0.097555116	4.144000E+01	  0.097555116	3.578000E+01
389	  0.097755514	-8.546000E+00	  0.097755514	8.166800E+01	  0.097755514	4.170200E+01	  0.097755514	3.586200E+01
390	  0.097955912	-8.567000E+00	  0.097955912	8.125700E+01	  0.097955912	4.196600E+01	  0.097955912	3.593600E+01
391	  0.098156318	-8.597000E+00	  0.098156318	8.086600E+01	  0.098156318	4.224300E+01	  0.098156318	3.596900E+01
392	  0.098356716	-8.614000E+00	  0.098356716	8.045200E+01	  0.098356716	4.250400E+01	  0.098356716	3.605200E+01
393	  0.098557115	-8.636000E+00	  0.098557115	8.006600E+01	  0.098557115	4.276100E+01	  0.098557115	3.610900E+01
394	  0.098757520	-8.652000E+00	  0.098757520	7.967000E+01	  0.098757520	4.301000E+01	  0.098757520	3.619000E+01
395	  0.098957919	-8.671000E+00	  0.098957919	7.925800E+01	  0.098957919	4.327900E+01	  0.098957919	3.625900E+01
396	  0.099158317	-8.694000E+00	  0.099158317	7.885500E+01	  0.099158317	4.355000E+01	  0.099158317	3.631400E+01
397	  0.099358723	-8.711000E+00	  0.099358723	7.843500E+01	  0.099358723	4.382000E+01	  0.099358723	3.639200E+01
398	  0.099559121	-8.731000E+00	  0.099559121	7.806000E+01	  0.099559121	4.407400E+01	  0.099559121	3.644100E+01
399	  0.099759519	-8.744000E+00	  0.099759519	7.763600E+01	  0.099759519	4.434100E+01	  0.099759519	3.653100E+01
400	  0.099959925	-8.752000E+00	  0.099959925	7.727600E+01	  0.099959925	4.456200E+01	  0.099959925	3.662000E+01
401	  0.100160323	-8.757000E+00	  0.100160323	7.686300E+01	  0.100160323	4.481000E+01	  0.100160323	3.673200E+01
402	  0.100360721	-8.778000E+00	  0.100360721	7.651300E+01	  0.100360721	4.505600E+01	  0.100360721	3.676500E+01
403	  0.100561127	-8.782000E+00	  0.100561127	7.603500E+01	  0.100561127	4.534200E+01	  0.100561127	3.690100E+01
404	  0.100761525	-8.795000E+00	  0.100761525	7.569500E+01	  0.100761525	4.556700E+01	  0.100761525	3.695800E+01
405	  0.100961931	-8.803000E+00	  0.100961931	7.529000E+01	  0.100961931	4.582400E+01	  0.100961931	3.705000E+01
406	  0.101162329	-8.804000E+00	  0.101162329	7.486500E+01	  0.101162329	4.607900E+01	  0.101162329	3.717800E+01
407	  0.101362728	-8.809000E+00	  0.101362728	7.450500E+01	  0.101362728	4.630500E+01	  0.101362728	3.726800E+01
408	  0.101563133	-8.818000E+00	  0.101563133	7.416300E+01	  0.101563133	4.653000E+01	  0.101563133	3.733700E+01
409	  0.101763532	-8.822000E+00	  0.101763532	7.373700E+01	  0.101763532	4.679800E+01	  0.101763532	3.744700E+01
410	  0.101963930	-8.818000E+00	  0.101963930	7.339800E+01	  0.101963930	4.699700E+01	  0.101963930	3.756600E+01
411	  0.102164328	-8.821000E+00	  0.102164328	7.294300E+01	  0.102164328	4.728500E+01	  0.102164328	3.768900E+01
412	  0.102364726	-8.819000E+00	  0.102364726	7.255000E+01	  0.102364726	4.752600E+01	  0.102364726	3.781200E+01
413	  0.102565125	-8.817000E+00	  0.102565125	7.207500E+01	  0.102565125	4.782200E+01	  0.102565125	3.795600E+01
414	  0.102765530	-8.812000E+00	  0.102765530	7.175600E+01	  0.102765530	4.801400E+01	  0.102765530	3.807200E+01
415	  0.102965929	-8.812000E+00	  0.102965929	7.140000E+01	  0.102965929	4.824400E+01	  0.102965929	3.817100E+01
416	  0.103166327	-8.801000E+00	  0.103166327	7.098200E+01	  0.103166327	4.849400E+01	  0.103166327	3.833600E+01
417	  0.103366733	-8.798000E+00	  0.103366733	7.058200E+01	  0.103366733	4.874800E+01	  0.103366733	3.846200E+01
418	  0.103567131	-8.789000E+00	  0.103567131	7.015900E+01	  0.103567131	4.901000E+01	  0.103567131	3.861800E+01
419	  0.103767529	-8.791000E+00	  0.103767529	6.979400E+01	  0.103767529	4.925500E+01	  0.103767529	3.871200E+01
420	  0.103967935	-8.780000E+00	  0.103967935	6.932900E+01	  0.103967935	4.954700E+01	  0.103967935	3.888700E+01
421	  0.104168333	-8.777000E+00	  0.104168333	6.892600E+01	  0.104168333	4.981300E+01	  0.104168333	3.901000E+01
422	  0.104368731	-8.766000E+00	  0.104368731	6.851800E+01	  0.104368731	5.007100E+01	  0.104368731	3.917100E+01
423	  0.104569137	-8.760000E+00	  0.104569137	6.810400E+01	  0.104569137	5.034700E+01	  0.104569137	3.930400E+01
424	  0.104769535	-8.750000E+00	  0.104769535	6.765000E+01	  0.104769535	5.064400E+01	  0.104769535	3.946900E+01
425	  0.104969934	-8.754000E+00	  0.104969934	6.721200E+01	  0.104969934	5.095800E+01	  0.104969934	3.956500E+01
426	  0.105170339	-8.738000E+00	  0.105170339	6.673800E+01	  0.105170339	5.126600E+01	  0.105170339	3.976000E+01
427	  0.105370738	-8.731000E+00	  0.105370738	6.629900E+01	  0.105370738	5.156800E+01	  0.105370738	3.990500E+01
428	  0.105571143	-8.715000E+00	  0.105571143	6.583000E+01	  0.105571143	5.188200E+01	  0.105571143	4.009600E+01
429	  0.105771542	-8.713000E+00	  0.105771542	6.537300E+01	  0.105771542	5.221100E+01	  0.105771542	4.022000E+01
430	  0.105971940	-8.706000E+00	  0.105971940	6.485400E+01	  0.105971940	5.258200E+01	  0.105971940	4.037900E+01
431	  0.106172346	-8.696000E+00	  0.106172346	6.438900E+01	  0.106172346	5.291400E+01	  0.106172346	4.053400E+01
432	  0.106372744	-8.692000E+00	  0.106372744	6.389500E+01	  0.106372744	5.328000E+01	  0.106372744	4.067000E+01
433	  0.106573142	-8.683000E+00	  0.106573142	6.336800E+01	  0.106573142	5.366700E+01	  0.106573142	4.083500E+01
434	  0.106773548	-8.681000E+00	  0.106773548	6.283500E+01	  0.106773548	5.407300E+01	  0.106773548	4.096600E+01
435	  0.106973946	-8.664000E+00	  0.106973946	6.234300E+01	  0.106973946	5.443300E+01	  0.106973946	4.115600E+01
436	  0.107174344	-8.658000E+00	  0.107174344	6.177000E+01	  0.107174344	5.487400E+01	  0.107174344	4.131000E+01
437	  0.107374750	-8.650000E+00	  0.107374750	6.124200E+01	  0.107374750	5.528300E+01	  0.107374750	4.146000E+01
438	  0.107575148	-8.638000E+00	  0.107575148	6.068200E+01	  0.107575148	5.571800E+01	  0.107575148	4.163900E+01
439	  0.107775547	-8.637000E+00	  0.107775547	6.019200E+01	  0.107775547	5.611500E+01	  0.107775547	4.174000E+01
440	  0.107975952	-8.623000E+00	  0.107975952	5.966400E+01	  0.107975952	5.653300E+01	  0.107975952	4.191200E+01
441	  0.108176351	-8.608000E+00	  0.108176351	5.912800E+01	  0.108176351	5.696000E+01	  0.108176351	4.209500E+01
442	  0.108376749	-8.601000E+00	  0.108376749	5.856900E+01	  0.108376749	5.742300E+01	  0.108376749	4.222800E+01
443	  0.108577155	-8.598000E+00	  0.108577155	5.801400E+01	  0.108577155	5.789200E+01	  0.108577155	4.234000E+01
444	  0.108777553	-8.586000E+00	  0.108777553	5.745700E+01	  0.108777553	5.835900E+01	  0.108777553	4.249800E+01
445	  0.108977959	-8.575000E+00	  0.108977959	5.691000E+01	  0.108977959	5.882400E+01	  0.108977959	4.264500E+01
446	  0.109178357	-8.568000E+00	  0.109178357	5.635100E+01	  0.109178357	5.930900E+01	  0.109178357	4.276800E+01
447	  0.109378755	-8.562000E+00	  0.109378755	5.579300E+01	  0.109378755	5.980100E+01	  0.109378755	4.287800E+01
448	  0.109579161	-8.550000E+00	  0.109579161	5.522200E+01	  0.109579161	6.030400E+01	  0.109579161	4.302200E+01
449	  0.109779559	-8.535000E+00	  0.109779559	5.464800E+01	  0.109779559	6.081500E+01	  0.109779559	4.318400E+01
450	  0.109979957	-8.532000E+00	  0.109979957	5.409900E+01	  0.109979957	6.131900E+01	  0.109979957	4.326400E+01
451	  0.110180363	-8.515000E+00	  0.110180363	5.351300E+01	  0.110180363	6.185300E+01	  0.110180363	4.342700E+01
452	  0.110380761	-8.505000E+00	  0.110380761	5.289000E+01	  0.110380761	6.243500E+01	  0.110380761	4.354600E+01
453	  0.110581160	-8.494000E+00	  0.110581160	5.230400E+01	  0.110581160	6.298900E+01	  0.110581160	4.366400E+01
454	  0.110781565	-8.485000E+00	  0.110781565	5.170000E+01	  0.110781565	6.356800E+01	  0.110781565	4.376200E+01
455	  0.110981964	-8.479000E+00	  0.110981964	5.107200E+01	  0.110981964	6.417900E+01	  0.110981964	4.384200E+01
456	  0.111182362	-8.467000E+00	  0.111182362	5.050600E+01	  0.111182362	6.473400E+01	  0.111182362	4.394600E+01
457	  0.111382768	-8.453000E+00	  0.111382768	4.985200E+01	  0.111382768	6.538400E+01	  0.111382768	4.405800E+01
458	  0.111583166	-8.448000E+00	  0.111583166	4.922600E+01	  0.111583166	6.601600E+01	  0.111583166	4.410600E+01
459	  0.111783572	-8.445000E+00	  0.111783572	4.855700E+01	  0.111783572	6.670000E+01	  0.111783572	4.413600E+01
460	  0.111983970	-8.434000E+00	  0.111983970	4.789600E+01	  0.111983970	6.738400E+01	  0.111983970	4.420600E+01
461	  0.112184368	-8.426000E+00	  0.112184368	4.722300E+01	  0.112184368	6.808800E+01	  0.112184368	4.424300E+01
462	  0.112384774	-8.423000E+00	  0.112384774	4.651100E+01	  0.112384774	6.884200E+01	  0.112384774	4.423300E+01
463	  0.112585172	-8.414000E+00	  0.112585172	4.579000E+01	  0.112585172	6.961700E+01	  0.112585172	4.425400E+01
464	  0.112785570	-8.407000E+00	  0.112785570	4.513400E+01	  0.112785570	7.032900E+01	  0.112785570	4.425200E+01
465	  0.112985976	-8.401000E+00	  0.112985976	4.433600E+01	  0.112985976	7.120500E+01	  0.112985976	4.422100E+01
466	  0.113186374	-8.402000E+00	  0.113186374	4.361600E+01	  0.113186374	7.199900E+01	  0.113186374	4.413000E+01
467	  0.113386773	-8.400000E+00	  0.113386773	4.290000E+01	  0.113386773	7.279800E+01	  0.113386773	4.404100E+01
468	  0.113587178	-8.391000E+00	  0.113587178	4.213500E+01	  0.113587178	7.366900E+01	  0.113587178	4.398800E+01
469	  0.113787577	-8.390000E+00	  0.113787577	4.133400E+01	  0.113787577	7.458100E+01	  0.113787577	4.384800E+01
470	  0.113987975	-8.391000E+00	  0.113987975	4.049700E+01	  0.113987975	7.554000E+01	  0.113987975	4.366300E+01
471	  0.114188381	-8.389000E+00	  0.114188381	3.972700E+01	  0.114188381	7.643200E+01	  0.114188381	4.348900E+01
472	  0.114388779	-8.394000E+00	  0.114388779	3.890700E+01	  0.114388779	7.737900E+01	  0.114388779	4.323500E+01
473	  0.114589177	-8.394000E+00	  0.114589177	3.813100E+01	  0.114589177	7.828800E+01	  0.114589177	4.300600E+01
474	  0.114789583	-8.392000E+00	  0.114789583	3.724800E+01	  0.114789583	7.933200E+01	  0.114789583	4.272900E+01
475	  0.114989981	-8.400000E+00	  0.114989981	3.640000E+01	  0.114989981	8.031900E+01	  0.114989981	4.235900E+01
476	  0.115190387	-8.405000E+00	  0.115190387	3.556900E+01	  0.115190387	8.129600E+01	  0.115190387	4.200000E+01
477	  0.115390785	-8.415000E+00	  0.115390785	3.467500E+01	  0.115390785	8.233300E+01	  0.115390785	4.153500E+01
478	  0.115591183	-8.415000E+00	  0.115591183	3.377600E+01	  0.115591183	8.340800E+01	  0.115591183	4.111900E+01
479	  0.115791589	-8.433000E+00	  0.115791589	3.291600E+01	  0.115791589	8.437700E+01	  0.115791589	4.054600E+01
480	  0.115991987	-8.441000E+00	  0.115991987	3.202200E+01	  0.115991987	8.541500E+01	  0.115991987	4.000000E+01
481	  0.116192386	-8.459000E+00	  0.116192386	3.112500E+01	  0.116192386	8.641400E+01	  0.116192386	3.934100E+01
482	  0.116392791	-8.473000E+00	  0.116392791	3.019600E+01	  0.116392791	8.745900E+01	  0.116392791	3.866300E+01
483	  0.116593190	-8.491000E+00	  0.116593190	2.926300E+01	  0.116593190	8.847500E+01	  0.116593190	3.790500E+01
484	  0.116793588	-8.517000E+00	  0.116793588	2.831700E+01	  0.116793588	8.945700E+01	  0.116793588	3.704500E+01
485	  0.116993994	-8.536000E+00	  0.116993994	2.733700E+01	  0.116993994	9.049100E+01	  0.116993994	3.617300E+01
486	  0.117194392	-8.566000E+00	  0.117194392	2.637200E+01	  0.117194392	9.142800E+01	  0.117194392	3.519000E+01
487	  0.117394790	-8.591000E+00	  0.117394790	2.538700E+01	  0.117394790	9.238900E+01	  0.117394790	3.419200E+01
488	  0.117595196	-8.624000E+00	  0.117595196	2.438000E+01	  0.117595196	9.329700E+01	  0.117595196	3.307600E+01
489	  0.117795594	-8.657000E+00	  0.117795594	2.340700E+01	  0.117795594	9.413300E+01	  0.117795594	3.195800E+01
490	  0.117995992	-8.704000E+00	  0.117995992	2.233800E+01	  0.117995992	9.494400E+01	  0.117995992	3.062200E+01
