! Anritsu VNA Master:             	Model: MS2036C/10/77
! SN:             	1601066
! /bd0/18may10/252.ns.m6.txt
! Existing Calibration Information:
! TYPE:             	Current Settings	Active Cal Settings
! TIME:             	05/10/2018 05:44:59 PM	05/10/2018 05:30:44 PM
! INTERNAL TEMP:    	59.3 C	57.8 C
! # POINTS:         	490	490
! START FREQ:       	20.000 MHz	20.000 MHz
! STOP FREQ:        	117.995 991 MHz	117.995 991 MHz
! SOURCE POWER:     	High	High
! IFBW:             	50 Hz	50 Hz
! AVG FACTOR:       	  1 	  1 
! REF PLANE 1:      	0 mm	0 mm
! REF PLANE 2:      	0 mm	0 mm
! CAL TYPE:         	Full S22	Full S22
! CAL METHOD:       	SOLT	SOLT
! CAL LINE TYPE:    	Coax	Coax
! DUT PORT 1:       	K-Conn(M)	K-Conn(M)
! DUT PORT 2:       	K-Conn(M)	K-Conn(M)
! CAL STATUS:       	OK: Accuracy High	--
! PROP-V:       	0.700
! CABLE LOSS:       	0.000 dB/m
! REF IMPEDANCE:       	50.0
! Trace Specific Parameters:	TR1	TR2	TR3	TR4
! TRACE.#.Y (GRAPH TYPE)	LOG MAG	PHASE	REAL IMPEDANCE	IMAGINARY IMPEDANCE
! TRACE.#.X 	FREQ.GHZ	FREQ.GHZ	FREQ.GHZ	FREQ.GHZ
! S-PARAMETER	S22	S22	S22	S22
! SMOOTH/APERTURE %	0	0	0	0
! WINDOW	NSL	NSL	NSL	NSL
! GATING	OFF	OFF	OFF	OFF
! FGTD	OFF	OFF	OFF	OFF
Marker Information per Trace:	TR1	TR2	TR3	TR4
!MK1	--	"MK1 TR2:  20.000 MHz,PH:-125.40°"	--	--
!MK2	--	--	"MK2 TR3:  70.100 200 MHz,Z:(16.729 ohm, -1.608 ohm)"	--
!MK3	--	--	--	--
!MK4	--	--	--	--
!MK5	--	--	--	--
!MK6	--	--	--	--
!MK7	--	--	--	--
!MK8	--	--	--	--
PNT	TR1.FREQ.GHZ	TR1.LOG MAG.dB	TR2.FREQ.GHZ	TR2.PHASE.deg	TR3.FREQ.GHZ	TR3.REAL IMPEDANCE.ohm	TR4.FREQ.GHZ	TR4.IMAGINARY IMPEDANCE.ohm
1	  0.020000000	-6.460000E-01	  0.020000000	-1.254030E+02	  0.020000000	2.355000E+00	  0.020000000	-2.575900E+01
2	  0.020200402	-6.510000E-01	  0.020200402	-1.268610E+02	  0.020200402	2.342000E+00	  0.020200402	-2.496000E+01
3	  0.020400802	-6.540000E-01	  0.020400802	-1.283180E+02	  0.020400802	2.322000E+00	  0.020400802	-2.417200E+01
4	  0.020601204	-6.560000E-01	  0.020601204	-1.297870E+02	  0.020601204	2.303000E+00	  0.020601204	-2.338700E+01
5	  0.020801604	-6.600000E-01	  0.020801604	-1.312990E+02	  0.020801604	2.289000E+00	  0.020801604	-2.258900E+01
6	  0.021002004	-6.620000E-01	  0.021002004	-1.328070E+02	  0.021002004	2.269000E+00	  0.021002004	-2.180200E+01
7	  0.021202406	-6.650000E-01	  0.021202406	-1.343110E+02	  0.021202406	2.254000E+00	  0.021202406	-2.102700E+01
8	  0.021402806	-6.690000E-01	  0.021402806	-1.358200E+02	  0.021402806	2.243000E+00	  0.021402806	-2.025700E+01
9	  0.021603208	-6.720000E-01	  0.021603208	-1.373360E+02	  0.021603208	2.228000E+00	  0.021603208	-1.949200E+01
10	  0.021803608	-6.760000E-01	  0.021803608	-1.388240E+02	  0.021803608	2.220000E+00	  0.021803608	-1.874900E+01
11	  0.022004008	-6.810000E-01	  0.022004008	-1.403420E+02	  0.022004008	2.215000E+00	  0.022004008	-1.799700E+01
12	  0.022204408	-6.870000E-01	  0.022204408	-1.418600E+02	  0.022204408	2.212000E+00	  0.022204408	-1.725400E+01
13	  0.022404809	-6.920000E-01	  0.022404809	-1.434050E+02	  0.022404809	2.210000E+00	  0.022404809	-1.650400E+01
14	  0.022605211	-6.970000E-01	  0.022605211	-1.449690E+02	  0.022605211	2.204000E+00	  0.022605211	-1.575100E+01
15	  0.022805611	-6.980000E-01	  0.022805611	-1.465410E+02	  0.022805611	2.191000E+00	  0.022805611	-1.500200E+01
16	  0.023006011	-7.020000E-01	  0.023006011	-1.480890E+02	  0.023006011	2.186000E+00	  0.023006011	-1.426900E+01
17	  0.023206413	-7.070000E-01	  0.023206413	-1.496480E+02	  0.023206413	2.184000E+00	  0.023206413	-1.353700E+01
18	  0.023406813	-7.110000E-01	  0.023406813	-1.512080E+02	  0.023406813	2.182000E+00	  0.023406813	-1.281000E+01
19	  0.023607215	-7.200000E-01	  0.023607215	-1.527690E+02	  0.023607215	2.192000E+00	  0.023607215	-1.208800E+01
20	  0.023807615	-7.260000E-01	  0.023807615	-1.543580E+02	  0.023807615	2.198000E+00	  0.023807615	-1.135700E+01
21	  0.024008015	-7.330000E-01	  0.024008015	-1.559620E+02	  0.024008015	2.205000E+00	  0.024008015	-1.062500E+01
22	  0.024208417	-7.400000E-01	  0.024208417	-1.575900E+02	  0.024208417	2.214000E+00	  0.024208417	-9.886000E+00
23	  0.024408817	-7.450000E-01	  0.024408817	-1.592250E+02	  0.024408817	2.215000E+00	  0.024408817	-9.147000E+00
24	  0.024609219	-7.520000E-01	  0.024609219	-1.608540E+02	  0.024609219	2.225000E+00	  0.024609219	-8.416000E+00
25	  0.024809619	-7.590000E-01	  0.024809619	-1.625010E+02	  0.024809619	2.234000E+00	  0.024809619	-7.680000E+00
26	  0.025010020	-7.680000E-01	  0.025010020	-1.641590E+02	  0.025010020	2.252000E+00	  0.025010020	-6.942000E+00
27	  0.025210422	-7.770000E-01	  0.025210422	-1.658210E+02	  0.025210422	2.270000E+00	  0.025210422	-6.205000E+00
28	  0.025410822	-7.890000E-01	  0.025410822	-1.674920E+02	  0.025410822	2.296000E+00	  0.025410822	-5.467000E+00
29	  0.025611224	-7.990000E-01	  0.025611224	-1.691750E+02	  0.025611224	2.320000E+00	  0.025611224	-4.727000E+00
30	  0.025811624	-8.100000E-01	  0.025811624	-1.708790E+02	  0.025811624	2.344000E+00	  0.025811624	-3.979000E+00
31	  0.026012026	-8.210000E-01	  0.026012026	-1.725920E+02	  0.026012026	2.371000E+00	  0.026012026	-3.229000E+00
32	  0.026212426	-8.310000E-01	  0.026212426	-1.743140E+02	  0.026212426	2.397000E+00	  0.026212426	-2.477000E+00
33	  0.026412826	-8.440000E-01	  0.026412826	-1.760390E+02	  0.026412826	2.430000E+00	  0.026412826	-1.724000E+00
34	  0.026613226	-8.600000E-01	  0.026613226	-1.777740E+02	  0.026613226	2.474000E+00	  0.026613226	-9.680000E-01
35	  0.026813626	-8.750000E-01	  0.026813626	-1.795320E+02	  0.026813626	2.516000E+00	  0.026813626	-2.030000E-01
36	  0.027014028	-8.900000E-01	  0.027014028	1.787110E+02	  0.027014028	2.560000E+00	  0.027014028	5.600000E-01
37	  0.027214428	-9.080000E-01	  0.027214428	1.769520E+02	  0.027214428	2.614000E+00	  0.027214428	1.326000E+00
38	  0.027414829	-9.250000E-01	  0.027414829	1.751720E+02	  0.027414829	2.665000E+00	  0.027414829	2.101000E+00
39	  0.027615231	-9.430000E-01	  0.027615231	1.733940E+02	  0.027615231	2.721000E+00	  0.027615231	2.876000E+00
40	  0.027815631	-9.620000E-01	  0.027815631	1.715920E+02	  0.027815631	2.782000E+00	  0.027815631	3.663000E+00
41	  0.028016033	-9.820000E-01	  0.028016033	1.697820E+02	  0.028016033	2.846000E+00	  0.028016033	4.455000E+00
42	  0.028216433	-1.003000E+00	  0.028216433	1.679660E+02	  0.028216433	2.916000E+00	  0.028216433	5.252000E+00
43	  0.028416833	-1.025000E+00	  0.028416833	1.661430E+02	  0.028416833	2.992000E+00	  0.028416833	6.054000E+00
44	  0.028617235	-1.047000E+00	  0.028617235	1.643090E+02	  0.028617235	3.067000E+00	  0.028617235	6.863000E+00
45	  0.028817635	-1.070000E+00	  0.028817635	1.624740E+02	  0.028817635	3.149000E+00	  0.028817635	7.677000E+00
46	  0.029018037	-1.096000E+00	  0.029018037	1.606280E+02	  0.029018037	3.242000E+00	  0.029018037	8.498000E+00
47	  0.029218437	-1.120000E+00	  0.029218437	1.587770E+02	  0.029218437	3.332000E+00	  0.029218437	9.327000E+00
48	  0.029418837	-1.148000E+00	  0.029418837	1.569160E+02	  0.029418837	3.436000E+00	  0.029418837	1.016400E+01
49	  0.029619239	-1.176000E+00	  0.029619239	1.550290E+02	  0.029619239	3.546000E+00	  0.029619239	1.101700E+01
50	  0.029819639	-1.205000E+00	  0.029819639	1.531490E+02	  0.029819639	3.659000E+00	  0.029819639	1.187400E+01
51	  0.030020041	-1.234000E+00	  0.030020041	1.512560E+02	  0.030020041	3.778000E+00	  0.030020041	1.274200E+01
52	  0.030220442	-1.264000E+00	  0.030220442	1.493680E+02	  0.030220442	3.904000E+00	  0.030220442	1.361500E+01
53	  0.030420844	-1.294000E+00	  0.030420844	1.474880E+02	  0.030420844	4.032000E+00	  0.030420844	1.449100E+01
54	  0.030621244	-1.327000E+00	  0.030621244	1.456070E+02	  0.030621244	4.174000E+00	  0.030621244	1.537500E+01
55	  0.030821642	-1.359000E+00	  0.030821642	1.437190E+02	  0.030821642	4.321000E+00	  0.030821642	1.627000E+01
56	  0.031022044	-1.395000E+00	  0.031022044	1.418250E+02	  0.031022044	4.482000E+00	  0.031022044	1.717700E+01
57	  0.031222444	-1.426000E+00	  0.031222444	1.399090E+02	  0.031222444	4.636000E+00	  0.031222444	1.810400E+01
58	  0.031422846	-1.460000E+00	  0.031422846	1.379840E+02	  0.031422846	4.808000E+00	  0.031422846	1.904500E+01
59	  0.031623244	-1.497000E+00	  0.031623244	1.360400E+02	  0.031623244	4.992000E+00	  0.031623244	2.000700E+01
60	  0.031823646	-1.529000E+00	  0.031823646	1.341170E+02	  0.031823646	5.170000E+00	  0.031823646	2.097100E+01
61	  0.032024048	-1.562000E+00	  0.032024048	1.321820E+02	  0.032024048	5.359000E+00	  0.032024048	2.195200E+01
62	  0.032224450	-1.599000E+00	  0.032224450	1.302430E+02	  0.032224450	5.566000E+00	  0.032224450	2.294900E+01
63	  0.032424849	-1.635000E+00	  0.032424849	1.282850E+02	  0.032424849	5.783000E+00	  0.032424849	2.396900E+01
64	  0.032625251	-1.669000E+00	  0.032625251	1.263070E+02	  0.032625251	6.002000E+00	  0.032625251	2.501600E+01
65	  0.032825653	-1.704000E+00	  0.032825653	1.243180E+02	  0.032825653	6.239000E+00	  0.032825653	2.608500E+01
66	  0.033026051	-1.739000E+00	  0.033026051	1.223160E+02	  0.033026051	6.483000E+00	  0.033026051	2.717800E+01
67	  0.033226453	-1.774000E+00	  0.033226453	1.203040E+02	  0.033226453	6.743000E+00	  0.033226453	2.829600E+01
68	  0.033426855	-1.810000E+00	  0.033426855	1.183070E+02	  0.033426855	7.016000E+00	  0.033426855	2.942500E+01
69	  0.033627257	-1.849000E+00	  0.033627257	1.163190E+02	  0.033627257	7.315000E+00	  0.033627257	3.056800E+01
70	  0.033827655	-1.887000E+00	  0.033827655	1.142970E+02	  0.033827655	7.632000E+00	  0.033827655	3.175200E+01
71	  0.034028057	-1.928000E+00	  0.034028057	1.122650E+02	  0.034028057	7.973000E+00	  0.034028057	3.296500E+01
72	  0.034228459	-1.971000E+00	  0.034228459	1.102310E+02	  0.034228459	8.344000E+00	  0.034228459	3.420200E+01
73	  0.034428857	-2.012000E+00	  0.034428857	1.081880E+02	  0.034428857	8.728000E+00	  0.034428857	3.547200E+01
74	  0.034629259	-2.057000E+00	  0.034629259	1.060930E+02	  0.034629259	9.160000E+00	  0.034629259	3.680100E+01
75	  0.034829661	-2.101000E+00	  0.034829661	1.040320E+02	  0.034829661	9.604000E+00	  0.034829661	3.813800E+01
76	  0.035030060	-2.149000E+00	  0.035030060	1.019450E+02	  0.035030060	1.009700E+01	  0.035030060	3.952000E+01
77	  0.035230462	-2.198000E+00	  0.035230462	9.986900E+01	  0.035230462	1.062400E+01	  0.035230462	4.092700E+01
78	  0.035430863	-2.244000E+00	  0.035430863	9.776800E+01	  0.035430863	1.117800E+01	  0.035430863	4.238800E+01
79	  0.035631265	-2.296000E+00	  0.035631265	9.567400E+01	  0.035631265	1.179200E+01	  0.035631265	4.387400E+01
80	  0.035831664	-2.347000E+00	  0.035831664	9.356300E+01	  0.035831664	1.244500E+01	  0.035831664	4.541200E+01
81	  0.036032066	-2.398000E+00	  0.036032066	9.143600E+01	  0.036032066	1.314700E+01	  0.036032066	4.700200E+01
82	  0.036232468	-2.448000E+00	  0.036232468	8.933800E+01	  0.036232468	1.388600E+01	  0.036232468	4.861400E+01
83	  0.036432866	-2.501000E+00	  0.036432866	8.720600E+01	  0.036432866	1.470300E+01	  0.036432866	5.029100E+01
84	  0.036633268	-2.553000E+00	  0.036633268	8.508400E+01	  0.036633268	1.556500E+01	  0.036633268	5.200900E+01
85	  0.036833670	-2.609000E+00	  0.036833670	8.295300E+01	  0.036833670	1.652200E+01	  0.036833670	5.377400E+01
86	  0.037034072	-2.662000E+00	  0.037034072	8.081800E+01	  0.037034072	1.753400E+01	  0.037034072	5.559800E+01
87	  0.037234470	-2.718000E+00	  0.037234470	7.868800E+01	  0.037234470	1.864100E+01	  0.037234470	5.746100E+01
88	  0.037434869	-2.770000E+00	  0.037434869	7.655000E+01	  0.037434869	1.981300E+01	  0.037434869	5.939500E+01
89	  0.037635271	-2.829000E+00	  0.037635271	7.440900E+01	  0.037635271	2.112700E+01	  0.037635271	6.136700E+01
90	  0.037835669	-2.891000E+00	  0.037835669	7.225500E+01	  0.037835669	2.256800E+01	  0.037835669	6.339700E+01
91	  0.038036071	-2.954000E+00	  0.038036071	7.010300E+01	  0.038036071	2.414400E+01	  0.038036071	6.547200E+01
92	  0.038236473	-3.020000E+00	  0.038236473	6.803700E+01	  0.038236473	2.582000E+01	  0.038236473	6.749000E+01
93	  0.038436871	-3.077000E+00	  0.038436871	6.595400E+01	  0.038436871	2.757800E+01	  0.038436871	6.960800E+01
94	  0.038637273	-3.132000E+00	  0.038637273	6.384200E+01	  0.038637273	2.948200E+01	  0.038637273	7.182100E+01
95	  0.038837675	-3.185000E+00	  0.038837675	6.173300E+01	  0.038837675	3.154200E+01	  0.038837675	7.408400E+01
96	  0.039038073	-3.237000E+00	  0.039038073	5.961600E+01	  0.039038073	3.378100E+01	  0.039038073	7.641300E+01
97	  0.039238475	-3.292000E+00	  0.039238475	5.752900E+01	  0.039238475	3.621900E+01	  0.039238475	7.872500E+01
98	  0.039438877	-3.347000E+00	  0.039438877	5.542400E+01	  0.039438877	3.890300E+01	  0.039438877	8.108900E+01
99	  0.039639279	-3.404000E+00	  0.039639279	5.334000E+01	  0.039639279	4.181400E+01	  0.039639279	8.343500E+01
100	  0.039839678	-3.459000E+00	  0.039839678	5.122800E+01	  0.039839678	4.501600E+01	  0.039839678	8.583700E+01
101	  0.040040080	-3.514000E+00	  0.040040080	4.912000E+01	  0.040040080	4.850800E+01	  0.040040080	8.822700E+01
102	  0.040240481	-3.567000E+00	  0.040240481	4.701500E+01	  0.040240481	5.230500E+01	  0.040240481	9.059700E+01
103	  0.040440880	-3.624000E+00	  0.040440880	4.494200E+01	  0.040440880	5.643300E+01	  0.040440880	9.282200E+01
104	  0.040641282	-3.679000E+00	  0.040641282	4.287600E+01	  0.040641282	6.090400E+01	  0.040641282	9.496400E+01
105	  0.040841684	-3.735000E+00	  0.040841684	4.081600E+01	  0.040841684	6.577300E+01	  0.040841684	9.694700E+01
106	  0.041042086	-3.791000E+00	  0.041042086	3.877600E+01	  0.041042086	7.101300E+01	  0.041042086	9.872100E+01
107	  0.041242484	-3.850000E+00	  0.041242484	3.672000E+01	  0.041242484	7.676000E+01	  0.041242484	1.002070E+02
108	  0.041442886	-3.907000E+00	  0.041442886	3.466500E+01	  0.041442886	8.294700E+01	  0.041442886	1.014100E+02
109	  0.041643288	-3.964000E+00	  0.041643288	3.259700E+01	  0.041643288	8.964100E+01	  0.041643288	1.022270E+02
110	  0.041843686	-4.018000E+00	  0.041843686	3.051900E+01	  0.041843686	9.683700E+01	  0.041843686	1.025990E+02
111	  0.042044088	-4.072000E+00	  0.042044088	2.847600E+01	  0.042044088	1.043720E+02	  0.042044088	1.023410E+02
112	  0.042244490	-4.129000E+00	  0.042244490	2.641800E+01	  0.042244490	1.123760E+02	  0.042244490	1.012990E+02
113	  0.042444889	-4.185000E+00	  0.042444889	2.439000E+01	  0.042444889	1.205950E+02	  0.042444889	9.945600E+01
114	  0.042645290	-4.240000E+00	  0.042645290	2.234400E+01	  0.042645290	1.291250E+02	  0.042645290	9.667400E+01
115	  0.042845692	-4.297000E+00	  0.042845692	2.031300E+01	  0.042845692	1.376760E+02	  0.042845692	9.277300E+01
116	  0.043046094	-4.349000E+00	  0.043046094	1.826900E+01	  0.043046094	1.462600E+02	  0.043046094	8.783400E+01
117	  0.043246493	-4.406000E+00	  0.043246493	1.624000E+01	  0.043246493	1.544470E+02	  0.043246493	8.159600E+01
118	  0.043446895	-4.457000E+00	  0.043446895	1.421500E+01	  0.043446895	1.622200E+02	  0.043446895	7.432600E+01
119	  0.043647297	-4.505000E+00	  0.043647297	1.218600E+01	  0.043647297	1.693370E+02	  0.043647297	6.590800E+01
120	  0.043847695	-4.556000E+00	  0.043847695	1.015800E+01	  0.043847695	1.754270E+02	  0.043847695	5.635500E+01
121	  0.044048097	-4.608000E+00	  0.044048097	8.163000E+00	  0.044048097	1.802170E+02	  0.044048097	4.604300E+01
122	  0.044248499	-4.657000E+00	  0.044248499	6.181000E+00	  0.044248499	1.837000E+02	  0.044248499	3.518300E+01
123	  0.044448901	-4.704000E+00	  0.044448901	4.217000E+00	  0.044448901	1.857720E+02	  0.044448901	2.403000E+01
124	  0.044649299	-4.752000E+00	  0.044649299	2.224000E+00	  0.044649299	1.863860E+02	  0.044649299	1.258600E+01
125	  0.044849701	-4.797000E+00	  0.044849701	2.770000E-01	  0.044849701	1.856300E+02	  0.044849701	1.547000E+00
126	  0.045050103	-4.842000E+00	  0.045050103	-1.669000E+00	  0.045050103	1.834990E+02	  0.045050103	-9.110000E+00
127	  0.045250501	-4.887000E+00	  0.045250501	-3.628000E+00	  0.045250501	1.801590E+02	  0.045250501	-1.923100E+01
128	  0.045450903	-4.928000E+00	  0.045450903	-5.546000E+00	  0.045450903	1.759630E+02	  0.045450903	-2.842200E+01
129	  0.045651305	-4.970000E+00	  0.045651305	-7.482000E+00	  0.045651305	1.708540E+02	  0.045651305	-3.683900E+01
130	  0.045851704	-5.007000E+00	  0.045851704	-9.395000E+00	  0.045851704	1.652610E+02	  0.045851704	-4.430400E+01
131	  0.046052102	-5.047000E+00	  0.046052102	-1.128400E+01	  0.046052102	1.591890E+02	  0.046052102	-5.070500E+01
132	  0.046252504	-5.085000E+00	  0.046252504	-1.316100E+01	  0.046252504	1.528810E+02	  0.046252504	-5.619500E+01
133	  0.046452906	-5.122000E+00	  0.046452906	-1.503900E+01	  0.046452906	1.464300E+02	  0.046452906	-6.083800E+01
134	  0.046653304	-5.160000E+00	  0.046653304	-1.690400E+01	  0.046653304	1.399640E+02	  0.046653304	-6.463700E+01
135	  0.046853706	-5.193000E+00	  0.046853706	-1.876300E+01	  0.046853706	1.336240E+02	  0.046853706	-6.776800E+01
136	  0.047054108	-5.229000E+00	  0.047054108	-2.061400E+01	  0.047054108	1.274080E+02	  0.047054108	-7.019300E+01
137	  0.047254506	-5.261000E+00	  0.047254506	-2.247900E+01	  0.047254506	1.213520E+02	  0.047254506	-7.210400E+01
138	  0.047454908	-5.291000E+00	  0.047454908	-2.431300E+01	  0.047454908	1.156100E+02	  0.047454908	-7.349600E+01
139	  0.047655310	-5.321000E+00	  0.047655310	-2.615800E+01	  0.047655310	1.100710E+02	  0.047655310	-7.445500E+01
140	  0.047855709	-5.350000E+00	  0.047855709	-2.792800E+01	  0.047855709	1.049870E+02	  0.047855709	-7.499100E+01
141	  0.048056111	-5.381000E+00	  0.048056111	-2.972600E+01	  0.048056111	1.000710E+02	  0.048056111	-7.517900E+01
142	  0.048256513	-5.410000E+00	  0.048256513	-3.150600E+01	  0.048256513	9.545900E+01	  0.048256513	-7.513500E+01
143	  0.048456915	-5.439000E+00	  0.048456915	-3.329900E+01	  0.048456915	9.106200E+01	  0.048456915	-7.484500E+01
144	  0.048657313	-5.466000E+00	  0.048657313	-3.506300E+01	  0.048657313	8.697700E+01	  0.048657313	-7.437900E+01
145	  0.048857715	-5.492000E+00	  0.048857715	-3.684300E+01	  0.048857715	8.308600E+01	  0.048857715	-7.377600E+01
146	  0.049058117	-5.514000E+00	  0.049058117	-3.861800E+01	  0.049058117	7.942100E+01	  0.049058117	-7.307500E+01
147	  0.049258515	-5.539000E+00	  0.049258515	-4.036200E+01	  0.049258515	7.603600E+01	  0.049258515	-7.221300E+01
148	  0.049458917	-5.563000E+00	  0.049458917	-4.209800E+01	  0.049458917	7.285600E+01	  0.049458917	-7.128200E+01
149	  0.049659319	-5.584000E+00	  0.049659319	-4.380500E+01	  0.049659319	6.990500E+01	  0.049659319	-7.031700E+01
150	  0.049859721	-5.610000E+00	  0.049859721	-4.551000E+01	  0.049859721	6.713800E+01	  0.049859721	-6.923700E+01
151	  0.050060119	-5.631000E+00	  0.050060119	-4.721800E+01	  0.050060119	6.451500E+01	  0.050060119	-6.815000E+01
152	  0.050260521	-5.654000E+00	  0.050260521	-4.891500E+01	  0.050260521	6.206200E+01	  0.050260521	-6.701900E+01
153	  0.050460923	-5.672000E+00	  0.050460923	-5.061800E+01	  0.050460923	5.972200E+01	  0.050460923	-6.589600E+01
154	  0.050661322	-5.690000E+00	  0.050661322	-5.228600E+01	  0.050661322	5.756100E+01	  0.050661322	-6.476800E+01
155	  0.050861724	-5.705000E+00	  0.050861724	-5.394500E+01	  0.050861724	5.551600E+01	  0.050861724	-6.365600E+01
156	  0.051062126	-5.724000E+00	  0.051062126	-5.560100E+01	  0.051062126	5.360500E+01	  0.051062126	-6.248800E+01
157	  0.051262524	-5.745000E+00	  0.051262524	-5.723800E+01	  0.051262524	5.182800E+01	  0.051262524	-6.131300E+01
158	  0.051462926	-5.765000E+00	  0.051462926	-5.886200E+01	  0.051462926	5.015300E+01	  0.051462926	-6.015600E+01
159	  0.051663328	-5.781000E+00	  0.051663328	-6.048600E+01	  0.051663328	4.855300E+01	  0.051663328	-5.902200E+01
160	  0.051863730	-5.799000E+00	  0.051863730	-6.210400E+01	  0.051863730	4.705300E+01	  0.051863730	-5.787900E+01
161	  0.052064128	-5.811000E+00	  0.052064128	-6.371400E+01	  0.052064128	4.560900E+01	  0.052064128	-5.678500E+01
162	  0.052264530	-5.824000E+00	  0.052264530	-6.530800E+01	  0.052264530	4.425800E+01	  0.052264530	-5.569300E+01
163	  0.052464932	-5.837000E+00	  0.052464932	-6.690500E+01	  0.052464932	4.296800E+01	  0.052464932	-5.461100E+01
164	  0.052665330	-5.852000E+00	  0.052665330	-6.848500E+01	  0.052665330	4.176700E+01	  0.052665330	-5.353100E+01
165	  0.052865732	-5.868000E+00	  0.052865732	-7.005600E+01	  0.052865732	4.063700E+01	  0.052865732	-5.246100E+01
166	  0.053066134	-5.880000E+00	  0.053066134	-7.160900E+01	  0.053066134	3.956000E+01	  0.053066134	-5.142700E+01
167	  0.053266536	-5.893000E+00	  0.053266536	-7.317200E+01	  0.053266536	3.853000E+01	  0.053266536	-5.039300E+01
168	  0.053466935	-5.907000E+00	  0.053466935	-7.470200E+01	  0.053466935	3.757300E+01	  0.053466935	-4.938700E+01
169	  0.053667337	-5.919000E+00	  0.053667337	-7.627500E+01	  0.053667337	3.662500E+01	  0.053667337	-4.837200E+01
170	  0.053867739	-5.930000E+00	  0.053867739	-7.779300E+01	  0.053867739	3.574800E+01	  0.053867739	-4.740900E+01
171	  0.054068137	-5.941000E+00	  0.054068137	-7.934200E+01	  0.054068137	3.489800E+01	  0.054068137	-4.643100E+01
172	  0.054268539	-5.949000E+00	  0.054268539	-8.085600E+01	  0.054268539	3.409100E+01	  0.054268539	-4.549800E+01
173	  0.054468941	-5.958000E+00	  0.054468941	-8.233200E+01	  0.054468941	3.334600E+01	  0.054468941	-4.459000E+01
174	  0.054669335	-5.972000E+00	  0.054669335	-8.383500E+01	  0.054669335	3.263600E+01	  0.054669335	-4.366300E+01
175	  0.054869737	-5.981000E+00	  0.054869737	-8.531100E+01	  0.054869737	3.195000E+01	  0.054869737	-4.277800E+01
176	  0.055070139	-5.992000E+00	  0.055070139	-8.675900E+01	  0.055070139	3.131400E+01	  0.055070139	-4.191300E+01
177	  0.055270538	-6.000000E+00	  0.055270538	-8.821600E+01	  0.055270538	3.069100E+01	  0.055270538	-4.105900E+01
178	  0.055470940	-6.006000E+00	  0.055470940	-8.965900E+01	  0.055470940	3.009200E+01	  0.055470940	-4.022800E+01
179	  0.055671342	-6.013000E+00	  0.055671342	-9.107900E+01	  0.055671342	2.952900E+01	  0.055671342	-3.941600E+01
180	  0.055871744	-6.014000E+00	  0.055871744	-9.250100E+01	  0.055871744	2.896600E+01	  0.055871744	-3.862800E+01
181	  0.056072142	-6.020000E+00	  0.056072142	-9.390000E+01	  0.056072142	2.845100E+01	  0.056072142	-3.784800E+01
182	  0.056272544	-6.027000E+00	  0.056272544	-9.525300E+01	  0.056272544	2.797500E+01	  0.056272544	-3.709800E+01
183	  0.056472946	-6.032000E+00	  0.056472946	-9.662600E+01	  0.056472946	2.750600E+01	  0.056472946	-3.634700E+01
184	  0.056673344	-6.036000E+00	  0.056673344	-9.795000E+01	  0.056673344	2.706600E+01	  0.056673344	-3.563200E+01
185	  0.056873746	-6.038000E+00	  0.056873746	-9.925400E+01	  0.056873746	2.664200E+01	  0.056873746	-3.494000E+01
186	  0.057074148	-6.040000E+00	  0.057074148	-1.005920E+02	  0.057074148	2.622300E+01	  0.057074148	-3.423500E+01
187	  0.057274550	-6.041000E+00	  0.057274550	-1.019120E+02	  0.057274550	2.581900E+01	  0.057274550	-3.354900E+01
188	  0.057474948	-6.041000E+00	  0.057474948	-1.031970E+02	  0.057474948	2.543800E+01	  0.057474948	-3.288800E+01
189	  0.057675350	-6.042000E+00	  0.057675350	-1.044900E+02	  0.057675350	2.506800E+01	  0.057675350	-3.222800E+01
190	  0.057875752	-6.044000E+00	  0.057875752	-1.057550E+02	  0.057875752	2.472400E+01	  0.057875752	-3.158400E+01
191	  0.058076151	-6.044000E+00	  0.058076151	-1.070620E+02	  0.058076151	2.437600E+01	  0.058076151	-3.092800E+01
192	  0.058276553	-6.040000E+00	  0.058276553	-1.083250E+02	  0.058276553	2.403600E+01	  0.058276553	-3.030500E+01
193	  0.058476955	-6.042000E+00	  0.058476955	-1.095710E+02	  0.058476955	2.373100E+01	  0.058476955	-2.968700E+01
194	  0.058677353	-6.044000E+00	  0.058677353	-1.108540E+02	  0.058677353	2.342700E+01	  0.058677353	-2.905600E+01
195	  0.058877755	-6.042000E+00	  0.058877755	-1.121170E+02	  0.058877755	2.312500E+01	  0.058877755	-2.844500E+01
196	  0.059078157	-6.037000E+00	  0.059078157	-1.133690E+02	  0.059078157	2.282600E+01	  0.059078157	-2.784900E+01
197	  0.059278559	-6.033000E+00	  0.059278559	-1.146370E+02	  0.059278559	2.253900E+01	  0.059278559	-2.724600E+01
198	  0.059478957	-6.035000E+00	  0.059478957	-1.158840E+02	  0.059478957	2.228000E+01	  0.059478957	-2.665200E+01
199	  0.059679359	-6.032000E+00	  0.059679359	-1.171680E+02	  0.059679359	2.201000E+01	  0.059679359	-2.604900E+01
200	  0.059879761	-6.030000E+00	  0.059879761	-1.184240E+02	  0.059879761	2.175700E+01	  0.059879761	-2.546300E+01
201	  0.060080159	-6.030000E+00	  0.060080159	-1.196570E+02	  0.060080159	2.152300E+01	  0.060080159	-2.488900E+01
202	  0.060280561	-6.032000E+00	  0.060280561	-1.209260E+02	  0.060280561	2.129500E+01	  0.060280561	-2.430100E+01
203	  0.060480963	-6.030000E+00	  0.060480963	-1.221840E+02	  0.060480963	2.106500E+01	  0.060480963	-2.372600E+01
204	  0.060681365	-6.029000E+00	  0.060681365	-1.234390E+02	  0.060681365	2.084800E+01	  0.060681365	-2.315500E+01
205	  0.060881764	-6.026000E+00	  0.060881764	-1.246670E+02	  0.060881764	2.063500E+01	  0.060881764	-2.260300E+01
206	  0.061082166	-6.025000E+00	  0.061082166	-1.259470E+02	  0.061082166	2.042700E+01	  0.061082166	-2.202900E+01
207	  0.061282568	-6.024000E+00	  0.061282568	-1.272070E+02	  0.061282568	2.023000E+01	  0.061282568	-2.146700E+01
208	  0.061482966	-6.021000E+00	  0.061482966	-1.284360E+02	  0.061482966	2.003800E+01	  0.061482966	-2.092400E+01
209	  0.061683368	-6.021000E+00	  0.061683368	-1.296840E+02	  0.061683368	1.985800E+01	  0.061683368	-2.037300E+01
210	  0.061883770	-6.022000E+00	  0.061883770	-1.309130E+02	  0.061883770	1.969200E+01	  0.061883770	-1.983300E+01
211	  0.062084168	-6.017000E+00	  0.062084168	-1.321340E+02	  0.062084168	1.951200E+01	  0.062084168	-1.930600E+01
212	  0.062284570	-6.013000E+00	  0.062284570	-1.333310E+02	  0.062284570	1.934600E+01	  0.062284570	-1.879000E+01
213	  0.062484972	-6.012000E+00	  0.062484972	-1.345110E+02	  0.062484972	1.919800E+01	  0.062484972	-1.828100E+01
214	  0.062685370	-6.010000E+00	  0.062685370	-1.357450E+02	  0.062685370	1.904300E+01	  0.062685370	-1.775300E+01
215	  0.062885776	-6.004000E+00	  0.062885776	-1.369540E+02	  0.062885776	1.888500E+01	  0.062885776	-1.724200E+01
216	  0.063086174	-6.000000E+00	  0.063086174	-1.381280E+02	  0.063086174	1.874400E+01	  0.063086174	-1.674500E+01
217	  0.063286573	-5.996000E+00	  0.063286573	-1.393070E+02	  0.063286573	1.860500E+01	  0.063286573	-1.625000E+01
218	  0.063486971	-5.992000E+00	  0.063486971	-1.404620E+02	  0.063486971	1.847600E+01	  0.063486971	-1.576600E+01
219	  0.063687377	-5.986000E+00	  0.063687377	-1.416140E+02	  0.063687377	1.834500E+01	  0.063687377	-1.528700E+01
220	  0.063887775	-5.981000E+00	  0.063887775	-1.427560E+02	  0.063887775	1.822000E+01	  0.063887775	-1.481300E+01
221	  0.064088173	-5.982000E+00	  0.064088173	-1.439180E+02	  0.064088173	1.811600E+01	  0.064088173	-1.432900E+01
222	  0.064288579	-5.975000E+00	  0.064288579	-1.450790E+02	  0.064288579	1.799200E+01	  0.064288579	-1.385300E+01
223	  0.064488977	-5.975000E+00	  0.064488977	-1.462140E+02	  0.064488977	1.789600E+01	  0.064488977	-1.338500E+01
224	  0.064689375	-5.976000E+00	  0.064689375	-1.473380E+02	  0.064689375	1.780600E+01	  0.064689375	-1.292200E+01
225	  0.064889781	-5.978000E+00	  0.064889781	-1.484540E+02	  0.064889781	1.772400E+01	  0.064889781	-1.246400E+01
226	  0.065090179	-5.973000E+00	  0.065090179	-1.495420E+02	  0.065090179	1.762900E+01	  0.065090179	-1.202300E+01
227	  0.065290578	-5.975000E+00	  0.065290578	-1.506660E+02	  0.065290578	1.755400E+01	  0.065290578	-1.156500E+01
228	  0.065490983	-5.974000E+00	  0.065490983	-1.517460E+02	  0.065490983	1.747400E+01	  0.065490983	-1.112800E+01
229	  0.065691382	-5.976000E+00	  0.065691382	-1.528500E+02	  0.065691382	1.740700E+01	  0.065691382	-1.068100E+01
230	  0.065891780	-5.974000E+00	  0.065891780	-1.539370E+02	  0.065891780	1.733200E+01	  0.065891780	-1.024400E+01
231	  0.066092186	-5.976000E+00	  0.066092186	-1.550200E+02	  0.066092186	1.727300E+01	  0.066092186	-9.808000E+00
232	  0.066292584	-5.983000E+00	  0.066292584	-1.560910E+02	  0.066292584	1.723000E+01	  0.066292584	-9.377000E+00
233	  0.066492982	-5.982000E+00	  0.066492982	-1.571590E+02	  0.066492982	1.716800E+01	  0.066492982	-8.950000E+00
234	  0.066693388	-5.985000E+00	  0.066693388	-1.582630E+02	  0.066693388	1.711900E+01	  0.066693388	-8.509000E+00
235	  0.066893786	-5.990000E+00	  0.066893786	-1.593310E+02	  0.066893786	1.707700E+01	  0.066893786	-8.084000E+00
236	  0.067094192	-5.990000E+00	  0.067094192	-1.603940E+02	  0.067094192	1.702800E+01	  0.067094192	-7.662000E+00
237	  0.067294590	-5.993000E+00	  0.067294590	-1.614540E+02	  0.067294590	1.699000E+01	  0.067294590	-7.242000E+00
238	  0.067494988	-5.998000E+00	  0.067494988	-1.625040E+02	  0.067494988	1.695800E+01	  0.067494988	-6.827000E+00
239	  0.067695394	-6.001000E+00	  0.067695394	-1.635690E+02	  0.067695394	1.692400E+01	  0.067695394	-6.406000E+00
240	  0.067895792	-6.004000E+00	  0.067895792	-1.645970E+02	  0.067895792	1.689500E+01	  0.067895792	-6.001000E+00
241	  0.068096191	-6.008000E+00	  0.068096191	-1.656780E+02	  0.068096191	1.686900E+01	  0.068096191	-5.576000E+00
242	  0.068296596	-6.014000E+00	  0.068296596	-1.667140E+02	  0.068296596	1.685000E+01	  0.068296596	-5.169000E+00
243	  0.068496995	-6.016000E+00	  0.068496995	-1.677230E+02	  0.068496995	1.682600E+01	  0.068496995	-4.774000E+00
244	  0.068697393	-6.021000E+00	  0.068697393	-1.687590E+02	  0.068697393	1.681200E+01	  0.068697393	-4.368000E+00
245	  0.068897791	-6.024000E+00	  0.068897791	-1.698080E+02	  0.068897791	1.679500E+01	  0.068897791	-3.959000E+00
246	  0.069098189	-6.024000E+00	  0.069098189	-1.708130E+02	  0.069098189	1.677200E+01	  0.069098189	-3.567000E+00
247	  0.069298595	-6.026000E+00	  0.069298595	-1.718090E+02	  0.069298595	1.675800E+01	  0.069298595	-3.179000E+00
248	  0.069498993	-6.027000E+00	  0.069498993	-1.728340E+02	  0.069498993	1.674200E+01	  0.069498993	-2.780000E+00
249	  0.069699399	-6.033000E+00	  0.069699399	-1.738750E+02	  0.069699399	1.674200E+01	  0.069699399	-2.375000E+00
250	  0.069899797	-6.034000E+00	  0.069899797	-1.748570E+02	  0.069899797	1.673300E+01	  0.069899797	-1.994000E+00
251	  0.070100196	-6.037000E+00	  0.070100196	-1.758520E+02	  0.070100196	1.672800E+01	  0.070100196	-1.608000E+00
252	  0.070300601	-6.041000E+00	  0.070300601	-1.768440E+02	  0.070300601	1.673100E+01	  0.070300601	-1.223000E+00
253	  0.070501000	-6.042000E+00	  0.070501000	-1.778390E+02	  0.070501000	1.672700E+01	  0.070501000	-8.370000E-01
254	  0.070701398	-6.047000E+00	  0.070701398	-1.788190E+02	  0.070701398	1.673800E+01	  0.070701398	-4.570000E-01
255	  0.070901804	-6.052000E+00	  0.070901804	-1.797680E+02	  0.070901804	1.674800E+01	  0.070901804	-8.900000E-02
256	  0.071102202	-6.057000E+00	  0.071102202	1.792380E+02	  0.071102202	1.676000E+01	  0.071102202	2.950000E-01
257	  0.071302600	-6.063000E+00	  0.071302600	1.782570E+02	  0.071302600	1.677900E+01	  0.071302600	6.740000E-01
258	  0.071503006	-6.067000E+00	  0.071503006	1.772720E+02	  0.071503006	1.679400E+01	  0.071503006	1.056000E+00
259	  0.071703404	-6.075000E+00	  0.071703404	1.763130E+02	  0.071703404	1.682300E+01	  0.071703404	1.427000E+00
260	  0.071903802	-6.084000E+00	  0.071903802	1.753540E+02	  0.071903802	1.685400E+01	  0.071903802	1.798000E+00
261	  0.072104208	-6.089000E+00	  0.072104208	1.743770E+02	  0.072104208	1.687800E+01	  0.072104208	2.176000E+00
262	  0.072304606	-6.092000E+00	  0.072304606	1.734210E+02	  0.072304606	1.690000E+01	  0.072304606	2.546000E+00
263	  0.072505005	-6.104000E+00	  0.072505005	1.724780E+02	  0.072505005	1.694500E+01	  0.072505005	2.910000E+00
264	  0.072705410	-6.107000E+00	  0.072705410	1.715090E+02	  0.072705410	1.697100E+01	  0.072705410	3.285000E+00
265	  0.072905809	-6.113000E+00	  0.072905809	1.705490E+02	  0.072905809	1.700500E+01	  0.072905809	3.657000E+00
266	  0.073106214	-6.123000E+00	  0.073106214	1.695830E+02	  0.073106214	1.705400E+01	  0.073106214	4.031000E+00
267	  0.073306613	-6.131000E+00	  0.073306613	1.686400E+02	  0.073306613	1.709800E+01	  0.073306613	4.396000E+00
268	  0.073507011	-6.139000E+00	  0.073507011	1.677000E+02	  0.073507011	1.714400E+01	  0.073507011	4.760000E+00
269	  0.073707417	-6.147000E+00	  0.073707417	1.667180E+02	  0.073707417	1.719300E+01	  0.073707417	5.141000E+00
270	  0.073907815	-6.153000E+00	  0.073907815	1.658070E+02	  0.073907815	1.723800E+01	  0.073907815	5.494000E+00
271	  0.074108213	-6.162000E+00	  0.074108213	1.648750E+02	  0.074108213	1.729200E+01	  0.074108213	5.856000E+00
272	  0.074308619	-6.167000E+00	  0.074308619	1.639310E+02	  0.074308619	1.734100E+01	  0.074308619	6.223000E+00
273	  0.074509017	-6.174000E+00	  0.074509017	1.629710E+02	  0.074509017	1.739600E+01	  0.074509017	6.596000E+00
274	  0.074709415	-6.181000E+00	  0.074709415	1.620680E+02	  0.074709415	1.745000E+01	  0.074709415	6.948000E+00
275	  0.074909821	-6.187000E+00	  0.074909821	1.611420E+02	  0.074909821	1.750700E+01	  0.074909821	7.309000E+00
276	  0.075110219	-6.189000E+00	  0.075110219	1.602270E+02	  0.075110219	1.755400E+01	  0.075110219	7.667000E+00
277	  0.075310618	-6.199000E+00	  0.075310618	1.593470E+02	  0.075310618	1.762200E+01	  0.075310618	8.010000E+00
278	  0.075511023	-6.204000E+00	  0.075511023	1.584430E+02	  0.075511023	1.768000E+01	  0.075511023	8.364000E+00
279	  0.075711422	-6.207000E+00	  0.075711422	1.575810E+02	  0.075711422	1.773400E+01	  0.075711422	8.703000E+00
280	  0.075911827	-6.216000E+00	  0.075911827	1.566760E+02	  0.075911827	1.780600E+01	  0.075911827	9.057000E+00
281	  0.076112226	-6.222000E+00	  0.076112226	1.558110E+02	  0.076112226	1.787200E+01	  0.076112226	9.397000E+00
282	  0.076312624	-6.229000E+00	  0.076312624	1.549640E+02	  0.076312624	1.794200E+01	  0.076312624	9.730000E+00
283	  0.076513030	-6.238000E+00	  0.076513030	1.540860E+02	  0.076513030	1.801900E+01	  0.076513030	1.007500E+01
284	  0.076713428	-6.245000E+00	  0.076713428	1.532290E+02	  0.076713428	1.809400E+01	  0.076713428	1.041300E+01
285	  0.076913826	-6.254000E+00	  0.076913826	1.523530E+02	  0.076913826	1.817500E+01	  0.076913826	1.075800E+01
286	  0.077114232	-6.261000E+00	  0.077114232	1.515180E+02	  0.077114232	1.825200E+01	  0.077114232	1.108800E+01
287	  0.077314630	-6.270000E+00	  0.077314630	1.506820E+02	  0.077314630	1.833600E+01	  0.077314630	1.141900E+01
288	  0.077515028	-6.280000E+00	  0.077515028	1.498490E+02	  0.077515028	1.842600E+01	  0.077515028	1.174700E+01
289	  0.077715434	-6.295000E+00	  0.077715434	1.490020E+02	  0.077715434	1.852800E+01	  0.077715434	1.208000E+01
290	  0.077915832	-6.302000E+00	  0.077915832	1.481840E+02	  0.077915832	1.861300E+01	  0.077915832	1.240500E+01
291	  0.078116231	-6.319000E+00	  0.078116231	1.473080E+02	  0.078116231	1.872900E+01	  0.078116231	1.274900E+01
292	  0.078316636	-6.331000E+00	  0.078316636	1.464860E+02	  0.078316636	1.883200E+01	  0.078316636	1.307400E+01
293	  0.078517035	-6.346000E+00	  0.078517035	1.456460E+02	  0.078517035	1.894400E+01	  0.078517035	1.340600E+01
294	  0.078717433	-6.357000E+00	  0.078717433	1.447790E+02	  0.078717433	1.905100E+01	  0.078717433	1.375100E+01
295	  0.078917839	-6.371000E+00	  0.078917839	1.439430E+02	  0.078917839	1.916800E+01	  0.078917839	1.408200E+01
296	  0.079118237	-6.389000E+00	  0.079118237	1.431310E+02	  0.079118237	1.929200E+01	  0.079118237	1.440200E+01
297	  0.079318643	-6.402000E+00	  0.079318643	1.422650E+02	  0.079318643	1.941400E+01	  0.079318643	1.474600E+01
298	  0.079519041	-6.420000E+00	  0.079519041	1.414480E+02	  0.079519041	1.954400E+01	  0.079519041	1.506800E+01
299	  0.079719439	-6.436000E+00	  0.079719439	1.406030E+02	  0.079719439	1.967700E+01	  0.079719439	1.540300E+01
300	  0.079919845	-6.449000E+00	  0.079919845	1.397510E+02	  0.079919845	1.980400E+01	  0.079919845	1.574400E+01
301	  0.080120243	-6.466000E+00	  0.080120243	1.388690E+02	  0.080120243	1.994600E+01	  0.080120243	1.609500E+01
302	  0.080320641	-6.484000E+00	  0.080320641	1.380340E+02	  0.080320641	2.008900E+01	  0.080320641	1.642600E+01
303	  0.080521047	-6.498000E+00	  0.080521047	1.371760E+02	  0.080521047	2.023000E+01	  0.080521047	1.676900E+01
304	  0.080721445	-6.514000E+00	  0.080721445	1.363540E+02	  0.080721445	2.037100E+01	  0.080721445	1.709800E+01
305	  0.080921844	-6.527000E+00	  0.080921844	1.354770E+02	  0.080921844	2.051600E+01	  0.080921844	1.745100E+01
306	  0.081122249	-6.547000E+00	  0.081122249	1.346640E+02	  0.081122249	2.067200E+01	  0.081122249	1.777400E+01
307	  0.081322648	-6.562000E+00	  0.081322648	1.338180E+02	  0.081322648	2.082300E+01	  0.081322648	1.811400E+01
308	  0.081523046	-6.573000E+00	  0.081523046	1.329840E+02	  0.081523046	2.096500E+01	  0.081523046	1.845300E+01
309	  0.081723452	-6.586000E+00	  0.081723452	1.321370E+02	  0.081723452	2.111800E+01	  0.081723452	1.879700E+01
310	  0.081923850	-6.598000E+00	  0.081923850	1.313090E+02	  0.081923850	2.126800E+01	  0.081923850	1.913400E+01
311	  0.082124248	-6.609000E+00	  0.082124248	1.305060E+02	  0.082124248	2.141300E+01	  0.082124248	1.946200E+01
312	  0.082324654	-6.624000E+00	  0.082324654	1.297050E+02	  0.082324654	2.157400E+01	  0.082324654	1.978600E+01
313	  0.082525052	-6.640000E+00	  0.082525052	1.289260E+02	  0.082525052	2.173500E+01	  0.082525052	2.010000E+01
314	  0.082725458	-6.652000E+00	  0.082725458	1.281380E+02	  0.082725458	2.189000E+01	  0.082725458	2.042300E+01
315	  0.082925856	-6.666000E+00	  0.082925856	1.273610E+02	  0.082925856	2.205100E+01	  0.082925856	2.074000E+01
316	  0.083126254	-6.683000E+00	  0.083126254	1.265840E+02	  0.083126254	2.222600E+01	  0.083126254	2.105300E+01
317	  0.083326660	-6.699000E+00	  0.083326660	1.258300E+02	  0.083326660	2.239400E+01	  0.083326660	2.135900E+01
318	  0.083527058	-6.716000E+00	  0.083527058	1.250710E+02	  0.083527058	2.257200E+01	  0.083527058	2.166500E+01
319	  0.083727457	-6.727000E+00	  0.083727457	1.242990E+02	  0.083727457	2.273500E+01	  0.083727457	2.198500E+01
320	  0.083927862	-6.749000E+00	  0.083927862	1.235750E+02	  0.083927862	2.292600E+01	  0.083927862	2.227100E+01
321	  0.084128261	-6.767000E+00	  0.084128261	1.228200E+02	  0.084128261	2.311300E+01	  0.084128261	2.257600E+01
322	  0.084328659	-6.787000E+00	  0.084328659	1.220980E+02	  0.084328659	2.330300E+01	  0.084328659	2.286400E+01
323	  0.084529065	-6.805000E+00	  0.084529065	1.213680E+02	  0.084529065	2.349100E+01	  0.084529065	2.315800E+01
324	  0.084729463	-6.826000E+00	  0.084729463	1.206310E+02	  0.084729463	2.369300E+01	  0.084729463	2.345100E+01
325	  0.084929854	-6.846000E+00	  0.084929854	1.198660E+02	  0.084929854	2.390000E+01	  0.084929854	2.375800E+01
326	  0.085130259	-6.870000E+00	  0.085130259	1.191130E+02	  0.085130259	2.412000E+01	  0.085130259	2.405300E+01
327	  0.085330658	-6.889000E+00	  0.085330658	1.183810E+02	  0.085330658	2.432500E+01	  0.085330658	2.434700E+01
328	  0.085531056	-6.916000E+00	  0.085531056	1.176640E+02	  0.085531056	2.455200E+01	  0.085531056	2.462300E+01
329	  0.085731462	-6.938000E+00	  0.085731462	1.169290E+02	  0.085731462	2.477200E+01	  0.085731462	2.491400E+01
330	  0.085931860	-6.960000E+00	  0.085931860	1.161930E+02	  0.085931860	2.499700E+01	  0.085931860	2.520400E+01
331	  0.086132258	-6.986000E+00	  0.086132258	1.154860E+02	  0.086132258	2.522800E+01	  0.086132258	2.547700E+01
332	  0.086332664	-7.011000E+00	  0.086332664	1.147440E+02	  0.086332664	2.547000E+01	  0.086332664	2.576400E+01
333	  0.086533062	-7.038000E+00	  0.086533062	1.140070E+02	  0.086533062	2.571700E+01	  0.086533062	2.604700E+01
334	  0.086733460	-7.063000E+00	  0.086733460	1.132570E+02	  0.086733460	2.596800E+01	  0.086733460	2.633700E+01
335	  0.086933866	-7.084000E+00	  0.086933866	1.124850E+02	  0.086933866	2.621600E+01	  0.086933866	2.664300E+01
336	  0.087134264	-7.112000E+00	  0.087134264	1.117750E+02	  0.087134264	2.647300E+01	  0.087134264	2.691000E+01
337	  0.087334670	-7.137000E+00	  0.087334670	1.110510E+02	  0.087334670	2.672700E+01	  0.087334670	2.718800E+01
338	  0.087535068	-7.163000E+00	  0.087535068	1.103430E+02	  0.087535068	2.698200E+01	  0.087535068	2.745700E+01
339	  0.087735467	-7.189000E+00	  0.087735467	1.095640E+02	  0.087735467	2.726300E+01	  0.087735467	2.775400E+01
340	  0.087935872	-7.216000E+00	  0.087935872	1.088780E+02	  0.087935872	2.752200E+01	  0.087935872	2.801100E+01
341	  0.088136271	-7.239000E+00	  0.088136271	1.081480E+02	  0.088136271	2.778900E+01	  0.088136271	2.829000E+01
342	  0.088336669	-7.266000E+00	  0.088336669	1.074200E+02	  0.088336669	2.807000E+01	  0.088336669	2.856300E+01
343	  0.088537075	-7.288000E+00	  0.088537075	1.067060E+02	  0.088537075	2.833400E+01	  0.088537075	2.883700E+01
344	  0.088737473	-7.307000E+00	  0.088737473	1.060260E+02	  0.088737473	2.858500E+01	  0.088737473	2.910200E+01
345	  0.088937871	-7.331000E+00	  0.088937871	1.053040E+02	  0.088937871	2.886800E+01	  0.088937871	2.937300E+01
346	  0.089138277	-7.356000E+00	  0.089138277	1.046180E+02	  0.089138277	2.914500E+01	  0.089138277	2.962700E+01
347	  0.089338675	-7.382000E+00	  0.089338675	1.039540E+02	  0.089338675	2.942400E+01	  0.089338675	2.986700E+01
348	  0.089539073	-7.409000E+00	  0.089539073	1.032680E+02	  0.089539073	2.971300E+01	  0.089539073	3.011500E+01
349	  0.089739479	-7.434000E+00	  0.089739479	1.026190E+02	  0.089739479	2.999100E+01	  0.089739479	3.034900E+01
350	  0.089939877	-7.463000E+00	  0.089939877	1.020110E+02	  0.089939877	3.027000E+01	  0.089939877	3.055400E+01
351	  0.090140276	-7.490000E+00	  0.090140276	1.013470E+02	  0.090140276	3.056300E+01	  0.090140276	3.078900E+01
352	  0.090340681	-7.514000E+00	  0.090340681	1.007210E+02	  0.090340681	3.083900E+01	  0.090340681	3.101100E+01
353	  0.090541080	-7.542000E+00	  0.090541080	1.000950E+02	  0.090541080	3.113300E+01	  0.090541080	3.122100E+01
354	  0.090741485	-7.571000E+00	  0.090741485	9.947600E+01	  0.090741485	3.142700E+01	  0.090741485	3.142800E+01
355	  0.090941884	-7.601000E+00	  0.090941884	9.889300E+01	  0.090941884	3.171500E+01	  0.090941884	3.161300E+01
356	  0.091142282	-7.633000E+00	  0.091142282	9.828800E+01	  0.091142282	3.202200E+01	  0.091142282	3.180000E+01
357	  0.091342688	-7.665000E+00	  0.091342688	9.771500E+01	  0.091342688	3.231700E+01	  0.091342688	3.197400E+01
358	  0.091543086	-7.699000E+00	  0.091543086	9.712100E+01	  0.091543086	3.263000E+01	  0.091543086	3.214900E+01
359	  0.091743484	-7.726000E+00	  0.091743484	9.653400E+01	  0.091743484	3.292400E+01	  0.091743484	3.233500E+01
360	  0.091943890	-7.761000E+00	  0.091943890	9.594600E+01	  0.091943890	3.324400E+01	  0.091943890	3.250000E+01
361	  0.092144288	-7.791000E+00	  0.092144288	9.534400E+01	  0.092144288	3.355700E+01	  0.092144288	3.268200E+01
362	  0.092344686	-7.827000E+00	  0.092344686	9.475900E+01	  0.092344686	3.388200E+01	  0.092344686	3.284000E+01
363	  0.092545092	-7.858000E+00	  0.092545092	9.421900E+01	  0.092545092	3.418100E+01	  0.092545092	3.298800E+01
364	  0.092745490	-7.887000E+00	  0.092745490	9.363100E+01	  0.092745490	3.449500E+01	  0.092745490	3.315900E+01
365	  0.092945889	-7.926000E+00	  0.092945889	9.308600E+01	  0.092945889	3.482000E+01	  0.092945889	3.328700E+01
366	  0.093146294	-7.960000E+00	  0.093146294	9.252700E+01	  0.093146294	3.514400E+01	  0.093146294	3.342600E+01
367	  0.093346693	-7.991000E+00	  0.093346693	9.197600E+01	  0.093346693	3.545500E+01	  0.093346693	3.357000E+01
368	  0.093547091	-8.026000E+00	  0.093547091	9.143800E+01	  0.093547091	3.577500E+01	  0.093547091	3.369700E+01
369	  0.093747497	-8.054000E+00	  0.093747497	9.085500E+01	  0.093747497	3.609700E+01	  0.093747497	3.385800E+01
370	  0.093947895	-8.091000E+00	  0.093947895	9.029700E+01	  0.093947895	3.643600E+01	  0.093947895	3.398100E+01
371	  0.094148301	-8.122000E+00	  0.094148301	8.975100E+01	  0.094148301	3.675700E+01	  0.094148301	3.411200E+01
372	  0.094348699	-8.155000E+00	  0.094348699	8.921000E+01	  0.094348699	3.708400E+01	  0.094348699	3.423300E+01
373	  0.094549097	-8.191000E+00	  0.094549097	8.868000E+01	  0.094549097	3.741500E+01	  0.094549097	3.433900E+01
374	  0.094749503	-8.222000E+00	  0.094749503	8.816400E+01	  0.094749503	3.772900E+01	  0.094749503	3.445200E+01
375	  0.094949901	-8.249000E+00	  0.094949901	8.764100E+01	  0.094949901	3.803600E+01	  0.094949901	3.457800E+01
376	  0.095150299	-8.277000E+00	  0.095150299	8.711800E+01	  0.095150299	3.835000E+01	  0.095150299	3.469600E+01
377	  0.095350705	-8.305000E+00	  0.095350705	8.661200E+01	  0.095350705	3.865800E+01	  0.095350705	3.480600E+01
378	  0.095551103	-8.331000E+00	  0.095551103	8.609400E+01	  0.095551103	3.897000E+01	  0.095551103	3.492400E+01
379	  0.095751502	-8.360000E+00	  0.095751502	8.558200E+01	  0.095751502	3.928800E+01	  0.095751502	3.502800E+01
380	  0.095951907	-8.384000E+00	  0.095951907	8.508100E+01	  0.095951907	3.959000E+01	  0.095951907	3.514200E+01
381	  0.096152306	-8.414000E+00	  0.096152306	8.461400E+01	  0.096152306	3.989200E+01	  0.096152306	3.522300E+01
382	  0.096352704	-8.436000E+00	  0.096352704	8.414400E+01	  0.096352704	4.017900E+01	  0.096352704	3.532500E+01
383	  0.096553110	-8.461000E+00	  0.096553110	8.369600E+01	  0.096553110	4.046100E+01	  0.096553110	3.541200E+01
384	  0.096753508	-8.483000E+00	  0.096753508	8.322400E+01	  0.096753508	4.075300E+01	  0.096753508	3.551100E+01
385	  0.096953906	-8.507000E+00	  0.096953906	8.277300E+01	  0.096953906	4.103800E+01	  0.096953906	3.559700E+01
386	  0.097154312	-8.529000E+00	  0.097154312	8.236800E+01	  0.097154312	4.129900E+01	  0.097154312	3.566900E+01
387	  0.097354710	-8.550000E+00	  0.097354710	8.190800E+01	  0.097354710	4.158500E+01	  0.097354710	3.576400E+01
388	  0.097555116	-8.573000E+00	  0.097555116	8.150200E+01	  0.097555116	4.185100E+01	  0.097555116	3.582900E+01
389	  0.097755514	-8.598000E+00	  0.097755514	8.110700E+01	  0.097755514	4.211700E+01	  0.097755514	3.588200E+01
390	  0.097955912	-8.618000E+00	  0.097955912	8.068500E+01	  0.097955912	4.238700E+01	  0.097955912	3.595900E+01
391	  0.098156318	-8.637000E+00	  0.098156318	8.029200E+01	  0.098156318	4.264100E+01	  0.098156318	3.602800E+01
392	  0.098356716	-8.656000E+00	  0.098356716	7.990800E+01	  0.098356716	4.289100E+01	  0.098356716	3.609200E+01
393	  0.098557115	-8.676000E+00	  0.098557115	7.950900E+01	  0.098557115	4.315300E+01	  0.098557115	3.615600E+01
394	  0.098757520	-8.698000E+00	  0.098757520	7.913000E+01	  0.098757520	4.340900E+01	  0.098757520	3.620500E+01
395	  0.098957919	-8.720000E+00	  0.098957919	7.871400E+01	  0.098957919	4.368500E+01	  0.098957919	3.626600E+01
396	  0.099158317	-8.734000E+00	  0.099158317	7.829400E+01	  0.099158317	4.394900E+01	  0.099158317	3.635300E+01
397	  0.099358723	-8.746000E+00	  0.099358723	7.791500E+01	  0.099358723	4.418900E+01	  0.099358723	3.643100E+01
398	  0.099559121	-8.768000E+00	  0.099559121	7.756400E+01	  0.099559121	4.443300E+01	  0.099559121	3.646600E+01
399	  0.099759519	-8.782000E+00	  0.099759519	7.716600E+01	  0.099759519	4.468900E+01	  0.099759519	3.654200E+01
400	  0.099959925	-8.790000E+00	  0.099959925	7.681900E+01	  0.099959925	4.490400E+01	  0.099959925	3.662300E+01
401	  0.100160323	-8.806000E+00	  0.100160323	7.635000E+01	  0.100160323	4.520700E+01	  0.100160323	3.671100E+01
402	  0.100360721	-8.825000E+00	  0.100360721	7.596900E+01	  0.100360721	4.546900E+01	  0.100360721	3.675700E+01
403	  0.100561127	-8.840000E+00	  0.100561127	7.559700E+01	  0.100561127	4.571700E+01	  0.100561127	3.681400E+01
404	  0.100761525	-8.834000E+00	  0.100761525	7.521200E+01	  0.100761525	4.593300E+01	  0.100761525	3.695300E+01
405	  0.100961931	-8.852000E+00	  0.100961931	7.485400E+01	  0.100961931	4.618200E+01	  0.100961931	3.699300E+01
406	  0.101162329	-8.856000E+00	  0.101162329	7.440600E+01	  0.101162329	4.645700E+01	  0.101162329	3.711300E+01
407	  0.101362728	-8.869000E+00	  0.101362728	7.404100E+01	  0.101362728	4.670400E+01	  0.101362728	3.717100E+01
408	  0.101563133	-8.880000E+00	  0.101563133	7.362600E+01	  0.101563133	4.697800E+01	  0.101563133	3.724800E+01
409	  0.101763532	-8.878000E+00	  0.101763532	7.328100E+01	  0.101763532	4.718500E+01	  0.101763532	3.735800E+01
410	  0.101963930	-8.879000E+00	  0.101963930	7.286800E+01	  0.101963930	4.744400E+01	  0.101963930	3.747100E+01
411	  0.102164328	-8.886000E+00	  0.102164328	7.247200E+01	  0.102164328	4.770400E+01	  0.102164328	3.755600E+01
412	  0.102364726	-8.881000E+00	  0.102364726	7.203600E+01	  0.102364726	4.796800E+01	  0.102364726	3.770100E+01
413	  0.102565125	-8.888000E+00	  0.102565125	7.167100E+01	  0.102565125	4.821000E+01	  0.102565125	3.777700E+01
414	  0.102765530	-8.885000E+00	  0.102765530	7.121700E+01	  0.102765530	4.849500E+01	  0.102765530	3.791500E+01
415	  0.102965929	-8.877000E+00	  0.102965929	7.083500E+01	  0.102965929	4.872800E+01	  0.102965929	3.805200E+01
416	  0.103166327	-8.874000E+00	  0.103166327	7.044000E+01	  0.103166327	4.897900E+01	  0.103166327	3.817400E+01
417	  0.103366733	-8.870000E+00	  0.103366733	7.001700E+01	  0.103366733	4.924900E+01	  0.103366733	3.830600E+01
418	  0.103567131	-8.871000E+00	  0.103567131	6.960400E+01	  0.103567131	4.952500E+01	  0.103567131	3.841000E+01
419	  0.103767529	-8.866000E+00	  0.103767529	6.917100E+01	  0.103767529	4.980500E+01	  0.103767529	3.854700E+01
420	  0.103967935	-8.868000E+00	  0.103967935	6.877100E+01	  0.103967935	5.007700E+01	  0.103967935	3.864200E+01
421	  0.104168333	-8.853000E+00	  0.104168333	6.830300E+01	  0.104168333	5.037000E+01	  0.104168333	3.883000E+01
422	  0.104368731	-8.841000E+00	  0.104368731	6.790000E+01	  0.104368731	5.062400E+01	  0.104368731	3.899100E+01
423	  0.104569137	-8.837000E+00	  0.104569137	6.743900E+01	  0.104569137	5.093800E+01	  0.104569137	3.912300E+01
424	  0.104769535	-8.833000E+00	  0.104769535	6.700100E+01	  0.104769535	5.123700E+01	  0.104769535	3.925300E+01
425	  0.104969934	-8.817000E+00	  0.104969934	6.654100E+01	  0.104969934	5.153500E+01	  0.104969934	3.944100E+01
426	  0.105170339	-8.811000E+00	  0.105170339	6.613000E+01	  0.105170339	5.181900E+01	  0.105170339	3.956700E+01
427	  0.105370738	-8.803000E+00	  0.105370738	6.565400E+01	  0.105370738	5.214900E+01	  0.105370738	3.971700E+01
428	  0.105571143	-8.792000E+00	  0.105571143	6.514000E+01	  0.105571143	5.250700E+01	  0.105571143	3.989100E+01
429	  0.105771542	-8.782000E+00	  0.105771542	6.471800E+01	  0.105771542	5.280000E+01	  0.105771542	4.004100E+01
430	  0.105971940	-8.769000E+00	  0.105971940	6.419600E+01	  0.105971940	5.316800E+01	  0.105971940	4.022200E+01
431	  0.106172346	-8.760000E+00	  0.106172346	6.372700E+01	  0.106172346	5.350700E+01	  0.106172346	4.037100E+01
432	  0.106372744	-8.751000E+00	  0.106372744	6.320800E+01	  0.106372744	5.388800E+01	  0.106372744	4.052700E+01
433	  0.106573142	-8.740000E+00	  0.106573142	6.267200E+01	  0.106573142	5.428300E+01	  0.106573142	4.069900E+01
434	  0.106773548	-8.734000E+00	  0.106773548	6.220500E+01	  0.106773548	5.463700E+01	  0.106773548	4.082700E+01
435	  0.106973946	-8.726000E+00	  0.106973946	6.163300E+01	  0.106973946	5.507400E+01	  0.106973946	4.098300E+01
436	  0.107174344	-8.712000E+00	  0.107174344	6.111600E+01	  0.107174344	5.546600E+01	  0.107174344	4.115700E+01
437	  0.107374750	-8.706000E+00	  0.107374750	6.055400E+01	  0.107374750	5.590800E+01	  0.107374750	4.130000E+01
438	  0.107575148	-8.691000E+00	  0.107575148	5.998900E+01	  0.107575148	5.634700E+01	  0.107575148	4.148600E+01
439	  0.107775547	-8.685000E+00	  0.107775547	5.943300E+01	  0.107775547	5.679800E+01	  0.107775547	4.161500E+01
440	  0.107975952	-8.671000E+00	  0.107975952	5.893400E+01	  0.107975952	5.719600E+01	  0.107975952	4.177800E+01
441	  0.108176351	-8.659000E+00	  0.108176351	5.837800E+01	  0.108176351	5.764900E+01	  0.108176351	4.193700E+01
442	  0.108376749	-8.649000E+00	  0.108376749	5.785200E+01	  0.108376749	5.808400E+01	  0.108376749	4.207900E+01
443	  0.108577155	-8.643000E+00	  0.108577155	5.726700E+01	  0.108577155	5.858100E+01	  0.108577155	4.220200E+01
444	  0.108777553	-8.638000E+00	  0.108777553	5.672500E+01	  0.108777553	5.904600E+01	  0.108777553	4.230800E+01
445	  0.108977959	-8.626000E+00	  0.108977959	5.616600E+01	  0.108977959	5.952600E+01	  0.108977959	4.245400E+01
446	  0.109178357	-8.619000E+00	  0.109178357	5.561400E+01	  0.109178357	6.000900E+01	  0.109178357	4.256500E+01
447	  0.109378755	-8.609000E+00	  0.109378755	5.499600E+01	  0.109378755	6.055600E+01	  0.109378755	4.269900E+01
448	  0.109579161	-8.597000E+00	  0.109579161	5.445000E+01	  0.109579161	6.104200E+01	  0.109579161	4.283000E+01
449	  0.109779559	-8.592000E+00	  0.109779559	5.388800E+01	  0.109779559	6.155400E+01	  0.109779559	4.292000E+01
450	  0.109979957	-8.584000E+00	  0.109979957	5.331000E+01	  0.109979957	6.208500E+01	  0.109979957	4.302100E+01
451	  0.110180363	-8.570000E+00	  0.110180363	5.266000E+01	  0.110180363	6.268800E+01	  0.110180363	4.316100E+01
452	  0.110380761	-8.557000E+00	  0.110380761	5.206200E+01	  0.110380761	6.325000E+01	  0.110380761	4.328300E+01
453	  0.110581160	-8.554000E+00	  0.110581160	5.150500E+01	  0.110581160	6.378300E+01	  0.110581160	4.333600E+01
454	  0.110781565	-8.541000E+00	  0.110781565	5.088400E+01	  0.110781565	6.438200E+01	  0.110781565	4.344800E+01
455	  0.110981964	-8.546000E+00	  0.110981964	5.027200E+01	  0.110981964	6.498300E+01	  0.110981964	4.343700E+01
456	  0.111182362	-8.535000E+00	  0.111182362	4.961800E+01	  0.111182362	6.563000E+01	  0.111182362	4.352700E+01
457	  0.111382768	-8.520000E+00	  0.111382768	4.900100E+01	  0.111382768	6.624900E+01	  0.111382768	4.362700E+01
458	  0.111583166	-8.511000E+00	  0.111583166	4.836400E+01	  0.111583166	6.689500E+01	  0.111583166	4.368700E+01
459	  0.111783572	-8.508000E+00	  0.111783572	4.771000E+01	  0.111783572	6.756500E+01	  0.111783572	4.369400E+01
460	  0.111983970	-8.495000E+00	  0.111983970	4.701700E+01	  0.111983970	6.828700E+01	  0.111983970	4.376000E+01
461	  0.112184368	-8.487000E+00	  0.112184368	4.631700E+01	  0.112184368	6.902500E+01	  0.112184368	4.377500E+01
462	  0.112384774	-8.482000E+00	  0.112384774	4.561000E+01	  0.112384774	6.977600E+01	  0.112384774	4.376100E+01
463	  0.112585172	-8.475000E+00	  0.112585172	4.488200E+01	  0.112585172	7.056100E+01	  0.112585172	4.374900E+01
464	  0.112785570	-8.477000E+00	  0.112785570	4.419200E+01	  0.112785570	7.130600E+01	  0.112785570	4.365800E+01
465	  0.112985976	-8.469000E+00	  0.112985976	4.341800E+01	  0.112985976	7.215900E+01	  0.112985976	4.361500E+01
466	  0.113186374	-8.466000E+00	  0.113186374	4.269200E+01	  0.113186374	7.296300E+01	  0.113186374	4.352800E+01
467	  0.113386773	-8.462000E+00	  0.113386773	4.193700E+01	  0.113386773	7.380800E+01	  0.113386773	4.342700E+01
468	  0.113587178	-8.457000E+00	  0.113587178	4.113200E+01	  0.113587178	7.471900E+01	  0.113587178	4.330000E+01
469	  0.113787577	-8.452000E+00	  0.113787577	4.035000E+01	  0.113787577	7.561400E+01	  0.113787577	4.316700E+01
470	  0.113987975	-8.448000E+00	  0.113987975	3.954300E+01	  0.113987975	7.654400E+01	  0.113987975	4.299100E+01
471	  0.114188381	-8.453000E+00	  0.114188381	3.874500E+01	  0.114188381	7.745400E+01	  0.114188381	4.273300E+01
472	  0.114388779	-8.454000E+00	  0.114388779	3.789500E+01	  0.114388779	7.843600E+01	  0.114388779	4.246200E+01
473	  0.114589177	-8.454000E+00	  0.114589177	3.708700E+01	  0.114589177	7.938000E+01	  0.114589177	4.219300E+01
474	  0.114789583	-8.453000E+00	  0.114789583	3.623600E+01	  0.114789583	8.038000E+01	  0.114789583	4.188500E+01
475	  0.114989981	-8.463000E+00	  0.114989981	3.539800E+01	  0.114989981	8.133900E+01	  0.114989981	4.147200E+01
476	  0.115190387	-8.463000E+00	  0.115190387	3.450500E+01	  0.115190387	8.239300E+01	  0.115190387	4.108400E+01
477	  0.115390785	-8.470000E+00	  0.115390785	3.360800E+01	  0.115390785	8.343000E+01	  0.115390785	4.060300E+01
478	  0.115591183	-8.471000E+00	  0.115591183	3.273900E+01	  0.115591183	8.445800E+01	  0.115591183	4.015800E+01
479	  0.115791589	-8.484000E+00	  0.115791589	3.185100E+01	  0.115791589	8.545800E+01	  0.115791589	3.956600E+01
480	  0.115991987	-8.496000E+00	  0.115991987	3.093700E+01	  0.115991987	8.649000E+01	  0.115991987	3.894400E+01
481	  0.116192386	-8.510000E+00	  0.116192386	3.004400E+01	  0.116192386	8.747800E+01	  0.116192386	3.827500E+01
482	  0.116392791	-8.521000E+00	  0.116392791	2.913500E+01	  0.116392791	8.848900E+01	  0.116392791	3.758600E+01
483	  0.116593190	-8.541000E+00	  0.116593190	2.818300E+01	  0.116593190	8.949500E+01	  0.116593190	3.676300E+01
484	  0.116793588	-8.561000E+00	  0.116793588	2.719900E+01	  0.116793588	9.052400E+01	  0.116793588	3.588200E+01
485	  0.116993994	-8.582000E+00	  0.116993994	2.627600E+01	  0.116993994	9.144800E+01	  0.116993994	3.499100E+01
486	  0.117194392	-8.608000E+00	  0.117194392	2.528500E+01	  0.117194392	9.240700E+01	  0.117194392	3.398200E+01
487	  0.117394790	-8.639000E+00	  0.117394790	2.429900E+01	  0.117394790	9.329800E+01	  0.117394790	3.290100E+01
488	  0.117595196	-8.664000E+00	  0.117595196	2.330800E+01	  0.117595196	9.419500E+01	  0.117595196	3.181900E+01
489	  0.117795594	-8.701000E+00	  0.117795594	2.229000E+01	  0.117795594	9.501100E+01	  0.117795594	3.059300E+01
490	  0.117995992	-8.733000E+00	  0.117995992	2.126500E+01	  0.117995992	9.582200E+01	  0.117995992	2.936100E+01
