! Anritsu VNA Master:             	Model: MS2036C/10/77
! SN:             	1601066
! /bd0/18may10/252.ns.m5.txt
! Existing Calibration Information:
! TYPE:             	Current Settings	Active Cal Settings
! TIME:             	05/10/2018 05:43:05 PM	05/10/2018 05:30:44 PM
! INTERNAL TEMP:    	59.3 C	57.8 C
! # POINTS:         	490	490
! START FREQ:       	20.000 MHz	20.000 MHz
! STOP FREQ:        	117.995 991 MHz	117.995 991 MHz
! SOURCE POWER:     	High	High
! IFBW:             	50 Hz	50 Hz
! AVG FACTOR:       	  1 	  1 
! REF PLANE 1:      	0 mm	0 mm
! REF PLANE 2:      	0 mm	0 mm
! CAL TYPE:         	Full S22	Full S22
! CAL METHOD:       	SOLT	SOLT
! CAL LINE TYPE:    	Coax	Coax
! DUT PORT 1:       	K-Conn(M)	K-Conn(M)
! DUT PORT 2:       	K-Conn(M)	K-Conn(M)
! CAL STATUS:       	OK: Accuracy High	--
! PROP-V:       	0.700
! CABLE LOSS:       	0.000 dB/m
! REF IMPEDANCE:       	50.0
! Trace Specific Parameters:	TR1	TR2	TR3	TR4
! TRACE.#.Y (GRAPH TYPE)	LOG MAG	PHASE	REAL IMPEDANCE	IMAGINARY IMPEDANCE
! TRACE.#.X 	FREQ.GHZ	FREQ.GHZ	FREQ.GHZ	FREQ.GHZ
! S-PARAMETER	S22	S22	S22	S22
! SMOOTH/APERTURE %	0	0	0	0
! WINDOW	NSL	NSL	NSL	NSL
! GATING	OFF	OFF	OFF	OFF
! FGTD	OFF	OFF	OFF	OFF
Marker Information per Trace:	TR1	TR2	TR3	TR4
!MK1	--	"MK1 TR2:  20.000 MHz,PH:-125.41°"	--	--
!MK2	--	--	"MK2 TR3:  70.100 200 MHz,Z:(16.727 ohm, -1.596 ohm)"	--
!MK3	--	--	--	--
!MK4	--	--	--	--
!MK5	--	--	--	--
!MK6	--	--	--	--
!MK7	--	--	--	--
!MK8	--	--	--	--
PNT	TR1.FREQ.GHZ	TR1.LOG MAG.dB	TR2.FREQ.GHZ	TR2.PHASE.deg	TR3.FREQ.GHZ	TR3.REAL IMPEDANCE.ohm	TR4.FREQ.GHZ	TR4.IMAGINARY IMPEDANCE.ohm
1	  0.020000000	-6.530000E-01	  0.020000000	-1.254090E+02	  0.020000000	2.378000E+00	  0.020000000	-2.575500E+01
2	  0.020200402	-6.570000E-01	  0.020200402	-1.268690E+02	  0.020200402	2.362000E+00	  0.020200402	-2.495500E+01
3	  0.020400802	-6.590000E-01	  0.020400802	-1.283230E+02	  0.020400802	2.340000E+00	  0.020400802	-2.416900E+01
4	  0.020601204	-6.620000E-01	  0.020601204	-1.298030E+02	  0.020601204	2.321000E+00	  0.020601204	-2.337800E+01
5	  0.020801604	-6.650000E-01	  0.020801604	-1.313120E+02	  0.020801604	2.305000E+00	  0.020801604	-2.258100E+01
6	  0.021002004	-6.670000E-01	  0.021002004	-1.328130E+02	  0.021002004	2.284000E+00	  0.021002004	-2.179800E+01
7	  0.021202406	-6.690000E-01	  0.021202406	-1.343250E+02	  0.021202406	2.267000E+00	  0.021202406	-2.101900E+01
8	  0.021402806	-6.730000E-01	  0.021402806	-1.358270E+02	  0.021402806	2.256000E+00	  0.021402806	-2.025300E+01
9	  0.021603208	-6.760000E-01	  0.021603208	-1.373420E+02	  0.021603208	2.241000E+00	  0.021603208	-1.948900E+01
10	  0.021803608	-6.790000E-01	  0.021803608	-1.388330E+02	  0.021803608	2.230000E+00	  0.021803608	-1.874400E+01
11	  0.022004008	-6.840000E-01	  0.022004008	-1.403530E+02	  0.022004008	2.223000E+00	  0.022004008	-1.799200E+01
12	  0.022204408	-6.880000E-01	  0.022204408	-1.418720E+02	  0.022204408	2.216000E+00	  0.022204408	-1.724800E+01
13	  0.022404809	-6.970000E-01	  0.022404809	-1.434130E+02	  0.022404809	2.224000E+00	  0.022404809	-1.649900E+01
14	  0.022605211	-6.990000E-01	  0.022605211	-1.449770E+02	  0.022605211	2.212000E+00	  0.022605211	-1.574700E+01
15	  0.022805611	-7.010000E-01	  0.022805611	-1.465420E+02	  0.022805611	2.199000E+00	  0.022805611	-1.500100E+01
16	  0.023006011	-7.040000E-01	  0.023006011	-1.480930E+02	  0.023006011	2.193000E+00	  0.023006011	-1.426700E+01
17	  0.023206413	-7.080000E-01	  0.023206413	-1.496520E+02	  0.023206413	2.188000E+00	  0.023206413	-1.353600E+01
18	  0.023406813	-7.140000E-01	  0.023406813	-1.512050E+02	  0.023406813	2.190000E+00	  0.023406813	-1.281200E+01
19	  0.023607215	-7.220000E-01	  0.023607215	-1.527680E+02	  0.023607215	2.200000E+00	  0.023607215	-1.208800E+01
20	  0.023807615	-7.290000E-01	  0.023807615	-1.543590E+02	  0.023807615	2.207000E+00	  0.023807615	-1.135700E+01
21	  0.024008015	-7.360000E-01	  0.024008015	-1.559640E+02	  0.024008015	2.213000E+00	  0.024008015	-1.062400E+01
22	  0.024208417	-7.420000E-01	  0.024208417	-1.575950E+02	  0.024208417	2.220000E+00	  0.024208417	-9.883000E+00
23	  0.024408817	-7.470000E-01	  0.024408817	-1.592300E+02	  0.024408817	2.222000E+00	  0.024408817	-9.145000E+00
24	  0.024609219	-7.540000E-01	  0.024609219	-1.608620E+02	  0.024609219	2.231000E+00	  0.024609219	-8.412000E+00
25	  0.024809619	-7.610000E-01	  0.024809619	-1.625140E+02	  0.024809619	2.243000E+00	  0.024809619	-7.674000E+00
26	  0.025010020	-7.700000E-01	  0.025010020	-1.641700E+02	  0.025010020	2.259000E+00	  0.025010020	-6.937000E+00
27	  0.025210422	-7.800000E-01	  0.025210422	-1.658360E+02	  0.025210422	2.279000E+00	  0.025210422	-6.198000E+00
28	  0.025410822	-7.910000E-01	  0.025410822	-1.675080E+02	  0.025410822	2.304000E+00	  0.025410822	-5.460000E+00
29	  0.025611224	-8.010000E-01	  0.025611224	-1.691960E+02	  0.025611224	2.325000E+00	  0.025611224	-4.717000E+00
30	  0.025811624	-8.130000E-01	  0.025811624	-1.709100E+02	  0.025811624	2.353000E+00	  0.025811624	-3.965000E+00
31	  0.026012026	-8.230000E-01	  0.026012026	-1.726220E+02	  0.026012026	2.377000E+00	  0.026012026	-3.216000E+00
32	  0.026212426	-8.330000E-01	  0.026212426	-1.743440E+02	  0.026212426	2.404000E+00	  0.026212426	-2.464000E+00
33	  0.026412826	-8.460000E-01	  0.026412826	-1.760700E+02	  0.026412826	2.436000E+00	  0.026412826	-1.711000E+00
34	  0.026613226	-8.610000E-01	  0.026613226	-1.778130E+02	  0.026613226	2.478000E+00	  0.026613226	-9.510000E-01
35	  0.026813626	-8.760000E-01	  0.026813626	-1.795680E+02	  0.026813626	2.520000E+00	  0.026813626	-1.870000E-01
36	  0.027014028	-8.920000E-01	  0.027014028	1.786750E+02	  0.027014028	2.566000E+00	  0.027014028	5.760000E-01
37	  0.027214428	-9.090000E-01	  0.027214428	1.769110E+02	  0.027214428	2.617000E+00	  0.027214428	1.344000E+00
38	  0.027414829	-9.260000E-01	  0.027414829	1.751430E+02	  0.027414829	2.669000E+00	  0.027414829	2.114000E+00
39	  0.027615231	-9.430000E-01	  0.027615231	1.733600E+02	  0.027615231	2.723000E+00	  0.027615231	2.891000E+00
40	  0.027815631	-9.630000E-01	  0.027815631	1.715640E+02	  0.027815631	2.784000E+00	  0.027815631	3.675000E+00
41	  0.028016033	-9.820000E-01	  0.028016033	1.697510E+02	  0.028016033	2.846000E+00	  0.028016033	4.469000E+00
42	  0.028216433	-1.003000E+00	  0.028216433	1.679380E+02	  0.028216433	2.917000E+00	  0.028216433	5.264000E+00
43	  0.028416833	-1.025000E+00	  0.028416833	1.661150E+02	  0.028416833	2.991000E+00	  0.028416833	6.066000E+00
44	  0.028617235	-1.047000E+00	  0.028617235	1.642840E+02	  0.028617235	3.067000E+00	  0.028617235	6.874000E+00
45	  0.028817635	-1.069000E+00	  0.028817635	1.624530E+02	  0.028817635	3.148000E+00	  0.028817635	7.686000E+00
46	  0.029018037	-1.096000E+00	  0.029018037	1.606160E+02	  0.029018037	3.242000E+00	  0.029018037	8.504000E+00
47	  0.029218437	-1.120000E+00	  0.029218437	1.587600E+02	  0.029218437	3.332000E+00	  0.029218437	9.335000E+00
48	  0.029418837	-1.148000E+00	  0.029418837	1.568990E+02	  0.029418837	3.437000E+00	  0.029418837	1.017100E+01
49	  0.029619239	-1.175000E+00	  0.029619239	1.550120E+02	  0.029619239	3.544000E+00	  0.029619239	1.102500E+01
50	  0.029819639	-1.204000E+00	  0.029819639	1.531350E+02	  0.029819639	3.658000E+00	  0.029819639	1.188000E+01
51	  0.030020041	-1.234000E+00	  0.030020041	1.512430E+02	  0.030020041	3.780000E+00	  0.030020041	1.274900E+01
52	  0.030220442	-1.263000E+00	  0.030220442	1.493510E+02	  0.030220442	3.902000E+00	  0.030220442	1.362300E+01
53	  0.030420844	-1.294000E+00	  0.030420844	1.474680E+02	  0.030420844	4.033000E+00	  0.030420844	1.450100E+01
54	  0.030621244	-1.327000E+00	  0.030621244	1.455880E+02	  0.030621244	4.178000E+00	  0.030621244	1.538400E+01
55	  0.030821642	-1.360000E+00	  0.030821642	1.437000E+02	  0.030821642	4.324000E+00	  0.030821642	1.627900E+01
56	  0.031022044	-1.395000E+00	  0.031022044	1.417970E+02	  0.031022044	4.485000E+00	  0.031022044	1.719000E+01
57	  0.031222444	-1.428000E+00	  0.031222444	1.398920E+02	  0.031222444	4.644000E+00	  0.031222444	1.811200E+01
58	  0.031422846	-1.462000E+00	  0.031422846	1.379580E+02	  0.031422846	4.816000E+00	  0.031422846	1.905800E+01
59	  0.031623244	-1.498000E+00	  0.031623244	1.360140E+02	  0.031623244	4.999000E+00	  0.031623244	2.001900E+01
60	  0.031823646	-1.530000E+00	  0.031823646	1.340800E+02	  0.031823646	5.174000E+00	  0.031823646	2.098900E+01
61	  0.032024048	-1.563000E+00	  0.032024048	1.321420E+02	  0.032024048	5.363000E+00	  0.032024048	2.197300E+01
62	  0.032224450	-1.600000E+00	  0.032224450	1.302040E+02	  0.032224450	5.572000E+00	  0.032224450	2.296800E+01
63	  0.032424849	-1.635000E+00	  0.032424849	1.282420E+02	  0.032424849	5.786000E+00	  0.032424849	2.399200E+01
64	  0.032625251	-1.670000E+00	  0.032625251	1.262700E+02	  0.032625251	6.007000E+00	  0.032625251	2.503600E+01
65	  0.032825653	-1.705000E+00	  0.032825653	1.242750E+02	  0.032825653	6.243000E+00	  0.032825653	2.610800E+01
66	  0.033026051	-1.740000E+00	  0.033026051	1.222750E+02	  0.033026051	6.488000E+00	  0.033026051	2.720100E+01
67	  0.033226453	-1.775000E+00	  0.033226453	1.202590E+02	  0.033226453	6.749000E+00	  0.033226453	2.832100E+01
68	  0.033426855	-1.811000E+00	  0.033426855	1.182590E+02	  0.033426855	7.026000E+00	  0.033426855	2.945200E+01
69	  0.033627257	-1.850000E+00	  0.033627257	1.162660E+02	  0.033627257	7.323000E+00	  0.033627257	3.059900E+01
70	  0.033827655	-1.887000E+00	  0.033827655	1.142530E+02	  0.033827655	7.635000E+00	  0.033827655	3.177900E+01
71	  0.034028057	-1.928000E+00	  0.034028057	1.122220E+02	  0.034028057	7.979000E+00	  0.034028057	3.299100E+01
72	  0.034228459	-1.969000E+00	  0.034228459	1.101820E+02	  0.034228459	8.343000E+00	  0.034228459	3.423400E+01
73	  0.034428857	-2.012000E+00	  0.034428857	1.081380E+02	  0.034428857	8.732000E+00	  0.034428857	3.550500E+01
74	  0.034629259	-2.057000E+00	  0.034629259	1.060460E+02	  0.034629259	9.162000E+00	  0.034629259	3.683200E+01
75	  0.034829661	-2.100000E+00	  0.034829661	1.039850E+02	  0.034829661	9.607000E+00	  0.034829661	3.817000E+01
76	  0.035030060	-2.147000E+00	  0.035030060	1.019090E+02	  0.035030060	1.009600E+01	  0.035030060	3.954700E+01
77	  0.035230462	-2.196000E+00	  0.035230462	9.983500E+01	  0.035230462	1.062300E+01	  0.035230462	4.095200E+01
78	  0.035430863	-2.243000E+00	  0.035430863	9.773300E+01	  0.035430863	1.117800E+01	  0.035430863	4.241500E+01
79	  0.035631265	-2.296000E+00	  0.035631265	9.564900E+01	  0.035631265	1.179500E+01	  0.035631265	4.389300E+01
80	  0.035831664	-2.346000E+00	  0.035831664	9.353700E+01	  0.035831664	1.244700E+01	  0.035831664	4.543300E+01
81	  0.036032066	-2.396000E+00	  0.036032066	9.141400E+01	  0.036032066	1.314400E+01	  0.036032066	4.702200E+01
82	  0.036232468	-2.448000E+00	  0.036232468	8.932000E+01	  0.036232468	1.389100E+01	  0.036232468	4.862800E+01
83	  0.036432866	-2.498000E+00	  0.036432866	8.718700E+01	  0.036432866	1.468800E+01	  0.036432866	5.031300E+01
84	  0.036633268	-2.549000E+00	  0.036633268	8.507300E+01	  0.036633268	1.554600E+01	  0.036633268	5.202600E+01
85	  0.036833670	-2.605000E+00	  0.036833670	8.293700E+01	  0.036833670	1.650400E+01	  0.036833670	5.379600E+01
86	  0.037034072	-2.659000E+00	  0.037034072	8.079900E+01	  0.037034072	1.752100E+01	  0.037034072	5.562300E+01
87	  0.037234470	-2.715000E+00	  0.037234470	7.867500E+01	  0.037234470	1.862600E+01	  0.037234470	5.748200E+01
88	  0.037434869	-2.768000E+00	  0.037434869	7.653100E+01	  0.037434869	1.980400E+01	  0.037434869	5.942100E+01
89	  0.037635271	-2.826000E+00	  0.037635271	7.439400E+01	  0.037635271	2.111100E+01	  0.037635271	6.139100E+01
90	  0.037835669	-2.886000E+00	  0.037835669	7.224000E+01	  0.037835669	2.254200E+01	  0.037835669	6.342900E+01
91	  0.038036071	-2.951000E+00	  0.038036071	7.008700E+01	  0.038036071	2.413100E+01	  0.038036071	6.550000E+01
92	  0.038236473	-3.018000E+00	  0.038236473	6.801900E+01	  0.038236473	2.581800E+01	  0.038236473	6.751700E+01
93	  0.038436871	-3.073000E+00	  0.038436871	6.592600E+01	  0.038436871	2.756300E+01	  0.038436871	6.965800E+01
94	  0.038637273	-3.128000E+00	  0.038637273	6.380700E+01	  0.038637273	2.948100E+01	  0.038637273	7.187700E+01
95	  0.038837675	-3.182000E+00	  0.038837675	6.169100E+01	  0.038837675	3.155300E+01	  0.038837675	7.415200E+01
96	  0.039038073	-3.234000E+00	  0.039038073	5.958000E+01	  0.039038073	3.379000E+01	  0.039038073	7.647500E+01
97	  0.039238475	-3.288000E+00	  0.039238475	5.748200E+01	  0.039238475	3.623200E+01	  0.039238475	7.881300E+01
98	  0.039438877	-3.342000E+00	  0.039438877	5.539100E+01	  0.039438877	3.889300E+01	  0.039438877	8.117100E+01
99	  0.039639279	-3.400000E+00	  0.039639279	5.328500E+01	  0.039639279	4.185100E+01	  0.039639279	8.353700E+01
100	  0.039839678	-3.457000E+00	  0.039839678	5.118200E+01	  0.039839678	4.506300E+01	  0.039839678	8.591400E+01
101	  0.040040080	-3.511000E+00	  0.040040080	4.906900E+01	  0.040040080	4.855800E+01	  0.040040080	8.832300E+01
102	  0.040240481	-3.563000E+00	  0.040240481	4.695600E+01	  0.040240481	5.236400E+01	  0.040240481	9.072400E+01
103	  0.040440880	-3.620000E+00	  0.040440880	4.490500E+01	  0.040440880	5.646900E+01	  0.040440880	9.291600E+01
104	  0.040641282	-3.675000E+00	  0.040641282	4.283100E+01	  0.040641282	6.095900E+01	  0.040641282	9.508100E+01
105	  0.040841684	-3.731000E+00	  0.040841684	4.077300E+01	  0.040841684	6.583400E+01	  0.040841684	9.706400E+01
106	  0.041042086	-3.786000E+00	  0.041042086	3.873600E+01	  0.041042086	7.107200E+01	  0.041042086	9.884700E+01
107	  0.041242484	-3.844000E+00	  0.041242484	3.667300E+01	  0.041242484	7.683700E+01	  0.041242484	1.003810E+02
108	  0.041442886	-3.901000E+00	  0.041442886	3.461200E+01	  0.041442886	8.306200E+01	  0.041442886	1.015830E+02
109	  0.041643288	-3.959000E+00	  0.041643288	3.255200E+01	  0.041643288	8.975800E+01	  0.041643288	1.023730E+02
110	  0.041843686	-4.013000E+00	  0.041843686	3.048200E+01	  0.041843686	9.694300E+01	  0.041843686	1.027440E+02
111	  0.042044088	-4.068000E+00	  0.042044088	2.844900E+01	  0.042044088	1.044630E+02	  0.042044088	1.024600E+02
112	  0.042244490	-4.123000E+00	  0.042244490	2.638900E+01	  0.042244490	1.124900E+02	  0.042244490	1.014530E+02
113	  0.042444889	-4.177000E+00	  0.042444889	2.435700E+01	  0.042444889	1.207510E+02	  0.042444889	9.965100E+01
114	  0.042645290	-4.235000E+00	  0.042645290	2.232400E+01	  0.042645290	1.292390E+02	  0.042645290	9.679900E+01
115	  0.042845692	-4.289000E+00	  0.042845692	2.028900E+01	  0.042845692	1.378480E+02	  0.042845692	9.295900E+01
116	  0.043046094	-4.345000E+00	  0.043046094	1.825400E+01	  0.043046094	1.463790E+02	  0.043046094	8.792700E+01
117	  0.043246493	-4.398000E+00	  0.043246493	1.622000E+01	  0.043246493	1.546730E+02	  0.043246493	8.177800E+01
118	  0.043446895	-4.451000E+00	  0.043446895	1.419500E+01	  0.043446895	1.624210E+02	  0.043446895	7.441200E+01
119	  0.043647297	-4.501000E+00	  0.043647297	1.218000E+01	  0.043647297	1.694670E+02	  0.043647297	6.599200E+01
120	  0.043847695	-4.552000E+00	  0.043847695	1.015600E+01	  0.043847695	1.755680E+02	  0.043847695	5.644900E+01
121	  0.044048097	-4.603000E+00	  0.044048097	8.155000E+00	  0.044048097	1.803710E+02	  0.044048097	4.608400E+01
122	  0.044248499	-4.652000E+00	  0.044248499	6.173000E+00	  0.044248499	1.838800E+02	  0.044248499	3.521000E+01
123	  0.044448901	-4.701000E+00	  0.044448901	4.209000E+00	  0.044448901	1.858920E+02	  0.044448901	2.401800E+01
124	  0.044649299	-4.748000E+00	  0.044649299	2.222000E+00	  0.044649299	1.865340E+02	  0.044649299	1.259600E+01
125	  0.044849701	-4.795000E+00	  0.044849701	2.560000E-01	  0.044849701	1.857080E+02	  0.044849701	1.431000E+00
126	  0.045050103	-4.840000E+00	  0.045050103	-1.693000E+00	  0.045050103	1.835410E+02	  0.045050103	-9.246000E+00
127	  0.045250501	-4.886000E+00	  0.045250501	-3.643000E+00	  0.045250501	1.801860E+02	  0.045250501	-1.932100E+01
128	  0.045450903	-4.926000E+00	  0.045450903	-5.577000E+00	  0.045450903	1.759580E+02	  0.045450903	-2.859200E+01
129	  0.045651305	-4.970000E+00	  0.045651305	-7.522000E+00	  0.045651305	1.707640E+02	  0.045651305	-3.701300E+01
130	  0.045851704	-5.008000E+00	  0.045851704	-9.428000E+00	  0.045851704	1.651410E+02	  0.045851704	-4.441000E+01
131	  0.046052102	-5.046000E+00	  0.046052102	-1.133100E+01	  0.046052102	1.590580E+02	  0.046052102	-5.087700E+01
132	  0.046252504	-5.086000E+00	  0.046252504	-1.321700E+01	  0.046252504	1.526950E+02	  0.046252504	-5.634800E+01
133	  0.046452906	-5.123000E+00	  0.046452906	-1.508200E+01	  0.046452906	1.462700E+02	  0.046452906	-6.092500E+01
134	  0.046653304	-5.160000E+00	  0.046653304	-1.695000E+01	  0.046653304	1.398190E+02	  0.046653304	-6.474100E+01
135	  0.046853706	-5.193000E+00	  0.046853706	-1.882000E+01	  0.046853706	1.334490E+02	  0.046853706	-6.787900E+01
136	  0.047054108	-5.228000E+00	  0.047054108	-2.068100E+01	  0.047054108	1.272100E+02	  0.047054108	-7.031900E+01
137	  0.047254506	-5.260000E+00	  0.047254506	-2.254500E+01	  0.047254506	1.211600E+02	  0.047254506	-7.221100E+01
138	  0.047454908	-5.288000E+00	  0.047454908	-2.437700E+01	  0.047454908	1.154390E+02	  0.047454908	-7.362000E+01
139	  0.047655310	-5.318000E+00	  0.047655310	-2.622900E+01	  0.047655310	1.098820E+02	  0.047655310	-7.456600E+01
140	  0.047855709	-5.347000E+00	  0.047855709	-2.800400E+01	  0.047855709	1.047880E+02	  0.047855709	-7.507700E+01
141	  0.048056111	-5.380000E+00	  0.048056111	-2.979900E+01	  0.048056111	9.988000E+01	  0.048056111	-7.522000E+01
142	  0.048256513	-5.406000E+00	  0.048256513	-3.159100E+01	  0.048256513	9.525100E+01	  0.048256513	-7.521200E+01
143	  0.048456915	-5.435000E+00	  0.048456915	-3.337200E+01	  0.048456915	9.088900E+01	  0.048456915	-7.490600E+01
144	  0.048657313	-5.460000E+00	  0.048657313	-3.514800E+01	  0.048657313	8.678200E+01	  0.048657313	-7.447000E+01
145	  0.048857715	-5.486000E+00	  0.048857715	-3.691800E+01	  0.048857715	8.291800E+01	  0.048857715	-7.383800E+01
146	  0.049058117	-5.507000E+00	  0.049058117	-3.869400E+01	  0.049058117	7.925700E+01	  0.049058117	-7.314000E+01
147	  0.049258515	-5.531000E+00	  0.049258515	-4.042700E+01	  0.049258515	7.589100E+01	  0.049258515	-7.230000E+01
148	  0.049458917	-5.557000E+00	  0.049458917	-4.214200E+01	  0.049458917	7.276100E+01	  0.049458917	-7.133800E+01
149	  0.049659319	-5.577000E+00	  0.049659319	-4.386100E+01	  0.049659319	6.978900E+01	  0.049659319	-7.036600E+01
150	  0.049859721	-5.602000E+00	  0.049859721	-4.557400E+01	  0.049859721	6.700900E+01	  0.049859721	-6.929200E+01
151	  0.050060119	-5.626000E+00	  0.050060119	-4.725700E+01	  0.050060119	6.443500E+01	  0.050060119	-6.819000E+01
152	  0.050260521	-5.645000E+00	  0.050260521	-4.894700E+01	  0.050260521	6.198200E+01	  0.050260521	-6.708700E+01
153	  0.050460923	-5.664000E+00	  0.050460923	-5.064500E+01	  0.050460923	5.965400E+01	  0.050460923	-6.595700E+01
154	  0.050661322	-5.682000E+00	  0.050661322	-5.231200E+01	  0.050661322	5.749700E+01	  0.050661322	-6.482200E+01
155	  0.050861724	-5.701000E+00	  0.050861724	-5.397900E+01	  0.050861724	5.545800E+01	  0.050861724	-6.366700E+01
156	  0.051062126	-5.718000E+00	  0.051062126	-5.562700E+01	  0.051062126	5.355100E+01	  0.051062126	-6.251900E+01
157	  0.051262524	-5.741000E+00	  0.051262524	-5.726000E+01	  0.051262524	5.178500E+01	  0.051262524	-6.133200E+01
158	  0.051462926	-5.759000E+00	  0.051462926	-5.887400E+01	  0.051462926	5.011500E+01	  0.051462926	-6.019300E+01
159	  0.051663328	-5.776000E+00	  0.051663328	-6.049400E+01	  0.051663328	4.852400E+01	  0.051663328	-5.905200E+01
160	  0.051863730	-5.793000E+00	  0.051863730	-6.211400E+01	  0.051863730	4.701400E+01	  0.051863730	-5.791600E+01
161	  0.052064128	-5.807000E+00	  0.052064128	-6.372600E+01	  0.052064128	4.558000E+01	  0.052064128	-5.680100E+01
162	  0.052264530	-5.822000E+00	  0.052264530	-6.531400E+01	  0.052264530	4.424400E+01	  0.052264530	-5.570200E+01
163	  0.052464932	-5.834000E+00	  0.052464932	-6.692000E+01	  0.052464932	4.294600E+01	  0.052464932	-5.461500E+01
164	  0.052665330	-5.851000E+00	  0.052665330	-6.850500E+01	  0.052665330	4.175100E+01	  0.052665330	-5.352000E+01
165	  0.052865732	-5.867000E+00	  0.052865732	-7.006700E+01	  0.052865732	4.062500E+01	  0.052865732	-5.245900E+01
166	  0.053066134	-5.879000E+00	  0.053066134	-7.161700E+01	  0.053066134	3.954800E+01	  0.053066134	-5.142800E+01
167	  0.053266536	-5.893000E+00	  0.053266536	-7.318600E+01	  0.053266536	3.851700E+01	  0.053266536	-5.038900E+01
168	  0.053466935	-5.907000E+00	  0.053466935	-7.472300E+01	  0.053466935	3.755800E+01	  0.053466935	-4.937500E+01
169	  0.053667337	-5.918000E+00	  0.053667337	-7.628400E+01	  0.053667337	3.661700E+01	  0.053667337	-4.837000E+01
170	  0.053867739	-5.930000E+00	  0.053867739	-7.781400E+01	  0.053867739	3.573800E+01	  0.053867739	-4.739300E+01
171	  0.054068137	-5.943000E+00	  0.054068137	-7.936400E+01	  0.054068137	3.489300E+01	  0.054068137	-4.641100E+01
172	  0.054268539	-5.947000E+00	  0.054268539	-8.088300E+01	  0.054268539	3.406800E+01	  0.054268539	-4.548900E+01
173	  0.054468941	-5.960000E+00	  0.054468941	-8.235900E+01	  0.054468941	3.333600E+01	  0.054468941	-4.457000E+01
174	  0.054669335	-5.974000E+00	  0.054669335	-8.386800E+01	  0.054669335	3.262400E+01	  0.054669335	-4.363900E+01
175	  0.054869737	-5.981000E+00	  0.054869737	-8.534000E+01	  0.054869737	3.193800E+01	  0.054869737	-4.276000E+01
176	  0.055070139	-5.990000E+00	  0.055070139	-8.678700E+01	  0.055070139	3.129300E+01	  0.055070139	-4.190400E+01
177	  0.055270538	-6.000000E+00	  0.055270538	-8.824400E+01	  0.055270538	3.068000E+01	  0.055270538	-4.104200E+01
178	  0.055470940	-6.006000E+00	  0.055470940	-8.968800E+01	  0.055470940	3.007800E+01	  0.055470940	-4.021400E+01
179	  0.055671342	-6.011000E+00	  0.055671342	-9.111200E+01	  0.055671342	2.950600E+01	  0.055671342	-3.940500E+01
180	  0.055871744	-6.014000E+00	  0.055871744	-9.253600E+01	  0.055871744	2.895300E+01	  0.055871744	-3.860900E+01
181	  0.056072142	-6.018000E+00	  0.056072142	-9.391500E+01	  0.056072142	2.843600E+01	  0.056072142	-3.784500E+01
182	  0.056272544	-6.024000E+00	  0.056272544	-9.527600E+01	  0.056272544	2.795700E+01	  0.056272544	-3.709100E+01
183	  0.056472946	-6.028000E+00	  0.056472946	-9.665300E+01	  0.056472946	2.748300E+01	  0.056472946	-3.634200E+01
184	  0.056673344	-6.032000E+00	  0.056673344	-9.797300E+01	  0.056673344	2.704600E+01	  0.056673344	-3.562900E+01
185	  0.056873746	-6.034000E+00	  0.056873746	-9.928400E+01	  0.056873746	2.661900E+01	  0.056873746	-3.493200E+01
186	  0.057074148	-6.035000E+00	  0.057074148	-1.006030E+02	  0.057074148	2.620300E+01	  0.057074148	-3.424000E+01
187	  0.057274550	-6.035000E+00	  0.057274550	-1.019240E+02	  0.057274550	2.579600E+01	  0.057274550	-3.355400E+01
188	  0.057474948	-6.033000E+00	  0.057474948	-1.032240E+02	  0.057474948	2.540300E+01	  0.057474948	-3.289000E+01
189	  0.057675350	-6.037000E+00	  0.057675350	-1.044980E+02	  0.057675350	2.505000E+01	  0.057675350	-3.223300E+01
190	  0.057875752	-6.038000E+00	  0.057875752	-1.057770E+02	  0.057875752	2.470000E+01	  0.057875752	-3.158300E+01
191	  0.058076151	-6.040000E+00	  0.058076151	-1.070750E+02	  0.058076151	2.435800E+01	  0.058076151	-3.092900E+01
192	  0.058276553	-6.035000E+00	  0.058276553	-1.083230E+02	  0.058276553	2.401900E+01	  0.058276553	-3.031600E+01
193	  0.058476955	-6.039000E+00	  0.058476955	-1.095870E+02	  0.058476955	2.371600E+01	  0.058476955	-2.968500E+01
194	  0.058677353	-6.035000E+00	  0.058677353	-1.108530E+02	  0.058677353	2.339600E+01	  0.058677353	-2.907100E+01
195	  0.058877755	-6.037000E+00	  0.058877755	-1.121360E+02	  0.058877755	2.310600E+01	  0.058877755	-2.844200E+01
196	  0.059078157	-6.030000E+00	  0.059078157	-1.133810E+02	  0.059078157	2.280300E+01	  0.059078157	-2.785200E+01
197	  0.059278559	-6.030000E+00	  0.059278559	-1.146500E+02	  0.059278559	2.252700E+01	  0.059278559	-2.724400E+01
198	  0.059478957	-6.028000E+00	  0.059478957	-1.159010E+02	  0.059478957	2.225700E+01	  0.059478957	-2.665200E+01
199	  0.059679359	-6.028000E+00	  0.059679359	-1.171910E+02	  0.059679359	2.199300E+01	  0.059679359	-2.604400E+01
200	  0.059879761	-6.025000E+00	  0.059879761	-1.184370E+02	  0.059879761	2.173800E+01	  0.059879761	-2.546400E+01
201	  0.060080159	-6.025000E+00	  0.060080159	-1.196810E+02	  0.060080159	2.150300E+01	  0.060080159	-2.488500E+01
202	  0.060280561	-6.028000E+00	  0.060280561	-1.209590E+02	  0.060280561	2.127800E+01	  0.060280561	-2.429000E+01
203	  0.060480963	-6.026000E+00	  0.060480963	-1.222220E+02	  0.060480963	2.104700E+01	  0.060480963	-2.371300E+01
204	  0.060681365	-6.027000E+00	  0.060681365	-1.234730E+02	  0.060681365	2.083500E+01	  0.060681365	-2.314300E+01
205	  0.060881764	-6.024000E+00	  0.060881764	-1.247110E+02	  0.060881764	2.062100E+01	  0.060881764	-2.258500E+01
206	  0.061082166	-6.021000E+00	  0.061082166	-1.259830E+02	  0.061082166	2.041100E+01	  0.061082166	-2.201600E+01
207	  0.061282568	-6.020000E+00	  0.061282568	-1.272470E+02	  0.061282568	2.021100E+01	  0.061282568	-2.145300E+01
208	  0.061482966	-6.017000E+00	  0.061482966	-1.284810E+02	  0.061482966	2.002000E+01	  0.061482966	-2.090800E+01
209	  0.061683368	-6.018000E+00	  0.061683368	-1.297400E+02	  0.061683368	1.984100E+01	  0.061683368	-2.035200E+01
210	  0.061883770	-6.016000E+00	  0.061883770	-1.309490E+02	  0.061883770	1.966900E+01	  0.061883770	-1.982300E+01
211	  0.062084168	-6.013000E+00	  0.062084168	-1.321770E+02	  0.062084168	1.949700E+01	  0.062084168	-1.929000E+01
212	  0.062284570	-6.011000E+00	  0.062284570	-1.333770E+02	  0.062284570	1.933400E+01	  0.062284570	-1.877100E+01
213	  0.062484972	-6.009000E+00	  0.062484972	-1.345570E+02	  0.062484972	1.918300E+01	  0.062484972	-1.826400E+01
214	  0.062685370	-6.008000E+00	  0.062685370	-1.357890E+02	  0.062685370	1.903100E+01	  0.062685370	-1.773600E+01
215	  0.062885776	-5.999000E+00	  0.062885776	-1.369790E+02	  0.062885776	1.887000E+01	  0.062885776	-1.723400E+01
216	  0.063086174	-5.997000E+00	  0.063086174	-1.381810E+02	  0.063086174	1.873000E+01	  0.063086174	-1.672500E+01
217	  0.063286573	-5.989000E+00	  0.063286573	-1.393550E+02	  0.063286573	1.858000E+01	  0.063286573	-1.623500E+01
218	  0.063486971	-5.988000E+00	  0.063486971	-1.404980E+02	  0.063486971	1.846100E+01	  0.063486971	-1.575300E+01
219	  0.063687377	-5.983000E+00	  0.063687377	-1.416500E+02	  0.063687377	1.833100E+01	  0.063687377	-1.527400E+01
220	  0.063887775	-5.978000E+00	  0.063887775	-1.428020E+02	  0.063887775	1.820800E+01	  0.063887775	-1.479600E+01
221	  0.064088173	-5.976000E+00	  0.064088173	-1.439490E+02	  0.064088173	1.809700E+01	  0.064088173	-1.432000E+01
222	  0.064288579	-5.971000E+00	  0.064288579	-1.451040E+02	  0.064288579	1.798100E+01	  0.064288579	-1.384500E+01
223	  0.064488977	-5.974000E+00	  0.064488977	-1.462510E+02	  0.064488977	1.789000E+01	  0.064488977	-1.337000E+01
224	  0.064689375	-5.973000E+00	  0.064689375	-1.473690E+02	  0.064689375	1.779600E+01	  0.064689375	-1.291100E+01
225	  0.064889781	-5.977000E+00	  0.064889781	-1.484840E+02	  0.064889781	1.771900E+01	  0.064889781	-1.245300E+01
226	  0.065090179	-5.972000E+00	  0.065090179	-1.495790E+02	  0.065090179	1.762400E+01	  0.065090179	-1.200800E+01
227	  0.065290578	-5.972000E+00	  0.065290578	-1.506930E+02	  0.065290578	1.754100E+01	  0.065290578	-1.155600E+01
228	  0.065490983	-5.972000E+00	  0.065490983	-1.517700E+02	  0.065490983	1.746900E+01	  0.065490983	-1.111900E+01
229	  0.065691382	-5.971000E+00	  0.065691382	-1.529000E+02	  0.065691382	1.739000E+01	  0.065691382	-1.066300E+01
230	  0.065891780	-5.973000E+00	  0.065891780	-1.539700E+02	  0.065891780	1.732800E+01	  0.065891780	-1.023100E+01
231	  0.066092186	-5.974000E+00	  0.066092186	-1.550600E+02	  0.066092186	1.726500E+01	  0.066092186	-9.793000E+00
232	  0.066292584	-5.978000E+00	  0.066292584	-1.561140E+02	  0.066292584	1.721600E+01	  0.066292584	-9.369000E+00
233	  0.066492982	-5.981000E+00	  0.066492982	-1.572050E+02	  0.066492982	1.716300E+01	  0.066492982	-8.932000E+00
234	  0.066693388	-5.983000E+00	  0.066693388	-1.583110E+02	  0.066693388	1.711000E+01	  0.066693388	-8.491000E+00
235	  0.066893786	-5.988000E+00	  0.066893786	-1.593600E+02	  0.066893786	1.707200E+01	  0.066893786	-8.073000E+00
236	  0.067094192	-5.990000E+00	  0.067094192	-1.604230E+02	  0.067094192	1.702700E+01	  0.067094192	-7.651000E+00
237	  0.067294590	-5.993000E+00	  0.067294590	-1.614890E+02	  0.067294590	1.698700E+01	  0.067294590	-7.229000E+00
238	  0.067494988	-5.996000E+00	  0.067494988	-1.625250E+02	  0.067494988	1.695300E+01	  0.067494988	-6.819000E+00
239	  0.067695394	-5.996000E+00	  0.067695394	-1.636040E+02	  0.067695394	1.691100E+01	  0.067695394	-6.393000E+00
240	  0.067895792	-6.002000E+00	  0.067895792	-1.646550E+02	  0.067895792	1.688600E+01	  0.067895792	-5.979000E+00
241	  0.068096191	-6.008000E+00	  0.068096191	-1.657100E+02	  0.068096191	1.686700E+01	  0.068096191	-5.564000E+00
242	  0.068296596	-6.011000E+00	  0.068296596	-1.667500E+02	  0.068296596	1.684200E+01	  0.068296596	-5.155000E+00
243	  0.068496995	-6.011000E+00	  0.068496995	-1.677630E+02	  0.068496995	1.681400E+01	  0.068496995	-4.759000E+00
244	  0.068697393	-6.020000E+00	  0.068697393	-1.688090E+02	  0.068697393	1.680700E+01	  0.068697393	-4.349000E+00
245	  0.068897791	-6.021000E+00	  0.068897791	-1.698390E+02	  0.068897791	1.678500E+01	  0.068897791	-3.947000E+00
246	  0.069098189	-6.020000E+00	  0.069098189	-1.708640E+02	  0.069098189	1.676000E+01	  0.069098189	-3.548000E+00
247	  0.069298595	-6.023000E+00	  0.069298595	-1.718600E+02	  0.069298595	1.675000E+01	  0.069298595	-3.160000E+00
248	  0.069498993	-6.026000E+00	  0.069498993	-1.728720E+02	  0.069498993	1.673800E+01	  0.069498993	-2.766000E+00
249	  0.069699399	-6.029000E+00	  0.069699399	-1.738720E+02	  0.069699399	1.673100E+01	  0.069699399	-2.377000E+00
250	  0.069899797	-6.030000E+00	  0.069899797	-1.748870E+02	  0.069899797	1.672200E+01	  0.069899797	-1.982000E+00
251	  0.070100196	-6.036000E+00	  0.070100196	-1.758840E+02	  0.070100196	1.672700E+01	  0.070100196	-1.595000E+00
252	  0.070300601	-6.039000E+00	  0.070300601	-1.768760E+02	  0.070300601	1.672500E+01	  0.070300601	-1.210000E+00
253	  0.070501000	-6.041000E+00	  0.070501000	-1.778670E+02	  0.070501000	1.672400E+01	  0.070501000	-8.260000E-01
254	  0.070701398	-6.047000E+00	  0.070701398	-1.788400E+02	  0.070701398	1.673700E+01	  0.070701398	-4.490000E-01
255	  0.070901804	-6.049000E+00	  0.070901804	-1.798000E+02	  0.070901804	1.673900E+01	  0.070901804	-7.700000E-02
256	  0.071102202	-6.056000E+00	  0.071102202	1.791960E+02	  0.071102202	1.675800E+01	  0.071102202	3.110000E-01
257	  0.071302600	-6.059000E+00	  0.071302600	1.782270E+02	  0.071302600	1.677000E+01	  0.071302600	6.860000E-01
258	  0.071503006	-6.068000E+00	  0.071503006	1.772470E+02	  0.071503006	1.679800E+01	  0.071503006	1.065000E+00
259	  0.071703404	-6.077000E+00	  0.071703404	1.762890E+02	  0.071703404	1.682800E+01	  0.071703404	1.436000E+00
260	  0.071903802	-6.082000E+00	  0.071903802	1.753230E+02	  0.071903802	1.684800E+01	  0.071903802	1.810000E+00
261	  0.072104208	-6.088000E+00	  0.072104208	1.743540E+02	  0.072104208	1.687700E+01	  0.072104208	2.185000E+00
262	  0.072304606	-6.095000E+00	  0.072304606	1.733830E+02	  0.072304606	1.690700E+01	  0.072304606	2.560000E+00
263	  0.072505005	-6.105000E+00	  0.072505005	1.724510E+02	  0.072505005	1.694700E+01	  0.072505005	2.920000E+00
264	  0.072705410	-6.109000E+00	  0.072705410	1.714720E+02	  0.072705410	1.697700E+01	  0.072705410	3.300000E+00
265	  0.072905809	-6.114000E+00	  0.072905809	1.705050E+02	  0.072905809	1.701000E+01	  0.072905809	3.674000E+00
266	  0.073106214	-6.125000E+00	  0.073106214	1.695560E+02	  0.073106214	1.705800E+01	  0.073106214	4.041000E+00
267	  0.073306613	-6.130000E+00	  0.073306613	1.686000E+02	  0.073306613	1.709700E+01	  0.073306613	4.412000E+00
268	  0.073507011	-6.141000E+00	  0.073507011	1.676240E+02	  0.073507011	1.715100E+01	  0.073507011	4.789000E+00
269	  0.073707417	-6.149000E+00	  0.073707417	1.666860E+02	  0.073707417	1.719900E+01	  0.073707417	5.153000E+00
270	  0.073907815	-6.151000E+00	  0.073907815	1.657540E+02	  0.073907815	1.723400E+01	  0.073907815	5.515000E+00
271	  0.074108213	-6.159000E+00	  0.074108213	1.648210E+02	  0.074108213	1.728700E+01	  0.074108213	5.877000E+00
272	  0.074308619	-6.168000E+00	  0.074308619	1.638680E+02	  0.074308619	1.734500E+01	  0.074308619	6.247000E+00
273	  0.074509017	-6.172000E+00	  0.074509017	1.629320E+02	  0.074509017	1.739300E+01	  0.074509017	6.612000E+00
274	  0.074709415	-6.180000E+00	  0.074709415	1.620190E+02	  0.074709415	1.745100E+01	  0.074709415	6.967000E+00
275	  0.074909821	-6.186000E+00	  0.074909821	1.610770E+02	  0.074909821	1.750700E+01	  0.074909821	7.335000E+00
276	  0.075110219	-6.190000E+00	  0.075110219	1.601830E+02	  0.075110219	1.755900E+01	  0.075110219	7.684000E+00
277	  0.075310618	-6.194000E+00	  0.075310618	1.592760E+02	  0.075310618	1.761400E+01	  0.075310618	8.040000E+00
278	  0.075511023	-6.201000E+00	  0.075511023	1.583960E+02	  0.075511023	1.767600E+01	  0.075511023	8.384000E+00
279	  0.075711422	-6.204000E+00	  0.075711422	1.575330E+02	  0.075711422	1.772900E+01	  0.075711422	8.723000E+00
280	  0.075911827	-6.214000E+00	  0.075911827	1.566260E+02	  0.075911827	1.780400E+01	  0.075911827	9.078000E+00
281	  0.076112226	-6.219000E+00	  0.076112226	1.557550E+02	  0.076112226	1.786900E+01	  0.076112226	9.421000E+00
282	  0.076312624	-6.229000E+00	  0.076312624	1.548900E+02	  0.076312624	1.794600E+01	  0.076312624	9.760000E+00
283	  0.076513030	-6.235000E+00	  0.076513030	1.540140E+02	  0.076513030	1.801700E+01	  0.076513030	1.010500E+01
284	  0.076713428	-6.241000E+00	  0.076713428	1.531540E+02	  0.076713428	1.808800E+01	  0.076713428	1.044400E+01
285	  0.076913826	-6.252000E+00	  0.076913826	1.522970E+02	  0.076913826	1.817500E+01	  0.076913826	1.078100E+01
286	  0.077114232	-6.261000E+00	  0.077114232	1.514730E+02	  0.077114232	1.825500E+01	  0.077114232	1.110600E+01
287	  0.077314630	-6.269000E+00	  0.077314630	1.506400E+02	  0.077314630	1.833600E+01	  0.077314630	1.143600E+01
288	  0.077515028	-6.279000E+00	  0.077515028	1.497920E+02	  0.077515028	1.842600E+01	  0.077515028	1.177100E+01
289	  0.077715434	-6.289000E+00	  0.077715434	1.489590E+02	  0.077715434	1.851600E+01	  0.077715434	1.210000E+01
290	  0.077915832	-6.301000E+00	  0.077915832	1.481270E+02	  0.077915832	1.861500E+01	  0.077915832	1.242900E+01
291	  0.078116231	-6.311000E+00	  0.078116231	1.472640E+02	  0.078116231	1.871100E+01	  0.078116231	1.277100E+01
292	  0.078316636	-6.330000E+00	  0.078316636	1.464210E+02	  0.078316636	1.883500E+01	  0.078316636	1.310100E+01
293	  0.078517035	-6.344000E+00	  0.078517035	1.455900E+02	  0.078517035	1.894400E+01	  0.078517035	1.343000E+01
294	  0.078717433	-6.355000E+00	  0.078717433	1.447460E+02	  0.078717433	1.904900E+01	  0.078717433	1.376600E+01
295	  0.078917839	-6.368000E+00	  0.078917839	1.439250E+02	  0.078917839	1.916000E+01	  0.078917839	1.409200E+01
296	  0.079118237	-6.386000E+00	  0.079118237	1.430970E+02	  0.079118237	1.928800E+01	  0.079118237	1.441700E+01
297	  0.079318643	-6.400000E+00	  0.079318643	1.422310E+02	  0.079318643	1.941000E+01	  0.079318643	1.476200E+01
298	  0.079519041	-6.415000E+00	  0.079519041	1.414060E+02	  0.079519041	1.953700E+01	  0.079519041	1.508900E+01
299	  0.079719439	-6.434000E+00	  0.079719439	1.405520E+02	  0.079719439	1.967500E+01	  0.079719439	1.542600E+01
300	  0.079919845	-6.448000E+00	  0.079919845	1.397140E+02	  0.079919845	1.980400E+01	  0.079919845	1.576000E+01
301	  0.080120243	-6.462000E+00	  0.080120243	1.388510E+02	  0.080120243	1.993900E+01	  0.080120243	1.610500E+01
302	  0.080320641	-6.478000E+00	  0.080320641	1.379850E+02	  0.080320641	2.007900E+01	  0.080320641	1.645100E+01
303	  0.080521047	-6.496000E+00	  0.080521047	1.371180E+02	  0.080521047	2.023000E+01	  0.080521047	1.679500E+01
304	  0.080721445	-6.513000E+00	  0.080721445	1.363250E+02	  0.080721445	2.037300E+01	  0.080721445	1.711000E+01
305	  0.080921844	-6.528000E+00	  0.080921844	1.354430E+02	  0.080921844	2.052100E+01	  0.080921844	1.746600E+01
306	  0.081122249	-6.544000E+00	  0.081122249	1.346080E+02	  0.081122249	2.067100E+01	  0.081122249	1.779900E+01
307	  0.081322648	-6.557000E+00	  0.081322648	1.337880E+02	  0.081322648	2.081400E+01	  0.081322648	1.813100E+01
308	  0.081523046	-6.570000E+00	  0.081523046	1.329430E+02	  0.081523046	2.096300E+01	  0.081523046	1.847300E+01
309	  0.081723452	-6.584000E+00	  0.081723452	1.321070E+02	  0.081723452	2.111600E+01	  0.081723452	1.881100E+01
310	  0.081923850	-6.594000E+00	  0.081923850	1.312580E+02	  0.081923850	2.126300E+01	  0.081923850	1.915900E+01
311	  0.082124248	-6.608000E+00	  0.082124248	1.304710E+02	  0.082124248	2.141500E+01	  0.082124248	1.947800E+01
312	  0.082324654	-6.621000E+00	  0.082324654	1.296670E+02	  0.082324654	2.157000E+01	  0.082324654	1.980500E+01
313	  0.082525052	-6.638000E+00	  0.082525052	1.288790E+02	  0.082525052	2.173500E+01	  0.082525052	2.012300E+01
314	  0.082725458	-6.652000E+00	  0.082725458	1.280810E+02	  0.082725458	2.189900E+01	  0.082725458	2.044800E+01
315	  0.082925856	-6.664000E+00	  0.082925856	1.273250E+02	  0.082925856	2.205300E+01	  0.082925856	2.075700E+01
316	  0.083126254	-6.681000E+00	  0.083126254	1.265320E+02	  0.083126254	2.222800E+01	  0.083126254	2.107800E+01
317	  0.083326660	-6.696000E+00	  0.083326660	1.257790E+02	  0.083326660	2.239500E+01	  0.083326660	2.138400E+01
318	  0.083527058	-6.713000E+00	  0.083527058	1.250110E+02	  0.083527058	2.257300E+01	  0.083527058	2.169500E+01
319	  0.083727457	-6.726000E+00	  0.083727457	1.242400E+02	  0.083727457	2.274400E+01	  0.083727457	2.201100E+01
320	  0.083927862	-6.749000E+00	  0.083927862	1.235070E+02	  0.083927862	2.293700E+01	  0.083927862	2.230100E+01
321	  0.084128261	-6.763000E+00	  0.084128261	1.227510E+02	  0.084128261	2.311300E+01	  0.084128261	2.261100E+01
322	  0.084328659	-6.786000E+00	  0.084328659	1.220280E+02	  0.084328659	2.331300E+01	  0.084328659	2.289500E+01
323	  0.084529065	-6.800000E+00	  0.084529065	1.212970E+02	  0.084529065	2.349000E+01	  0.084529065	2.319500E+01
324	  0.084729463	-6.823000E+00	  0.084729463	1.205630E+02	  0.084729463	2.369900E+01	  0.084729463	2.348400E+01
325	  0.084929854	-6.844000E+00	  0.084929854	1.198120E+02	  0.084929854	2.390400E+01	  0.084929854	2.378400E+01
326	  0.085130259	-6.866000E+00	  0.085130259	1.190440E+02	  0.085130259	2.412300E+01	  0.085130259	2.408900E+01
327	  0.085330658	-6.889000E+00	  0.085330658	1.183080E+02	  0.085330658	2.433900E+01	  0.085330658	2.437900E+01
328	  0.085531056	-6.913000E+00	  0.085531056	1.175810E+02	  0.085531056	2.456200E+01	  0.085531056	2.466400E+01
329	  0.085731462	-6.933000E+00	  0.085731462	1.168360E+02	  0.085731462	2.478000E+01	  0.085731462	2.496100E+01
330	  0.085931860	-6.957000E+00	  0.085931860	1.161180E+02	  0.085931860	2.500400E+01	  0.085931860	2.524200E+01
331	  0.086132258	-6.981000E+00	  0.086132258	1.154120E+02	  0.086132258	2.523000E+01	  0.086132258	2.551600E+01
332	  0.086332664	-7.004000E+00	  0.086332664	1.146850E+02	  0.086332664	2.546300E+01	  0.086332664	2.580000E+01
333	  0.086533062	-7.032000E+00	  0.086533062	1.139520E+02	  0.086533062	2.571300E+01	  0.086533062	2.608000E+01
334	  0.086733460	-7.056000E+00	  0.086733460	1.131960E+02	  0.086733460	2.596100E+01	  0.086733460	2.637600E+01
335	  0.086933866	-7.076000E+00	  0.086933866	1.124410E+02	  0.086933866	2.620300E+01	  0.086933866	2.667500E+01
336	  0.087134264	-7.105000E+00	  0.087134264	1.117230E+02	  0.087134264	2.646400E+01	  0.087134264	2.694500E+01
337	  0.087334670	-7.129000E+00	  0.087334670	1.110130E+02	  0.087334670	2.671300E+01	  0.087334670	2.721800E+01
338	  0.087535068	-7.155000E+00	  0.087535068	1.102860E+02	  0.087535068	2.697500E+01	  0.087535068	2.749500E+01
339	  0.087735467	-7.183000E+00	  0.087735467	1.095340E+02	  0.087735467	2.725100E+01	  0.087735467	2.778000E+01
340	  0.087935872	-7.207000E+00	  0.087935872	1.088410E+02	  0.087935872	2.750700E+01	  0.087935872	2.804300E+01
341	  0.088136271	-7.231000E+00	  0.088136271	1.081230E+02	  0.088136271	2.777300E+01	  0.088136271	2.831600E+01
342	  0.088336669	-7.259000E+00	  0.088336669	1.073960E+02	  0.088336669	2.805500E+01	  0.088336669	2.858600E+01
343	  0.088537075	-7.284000E+00	  0.088537075	1.066990E+02	  0.088537075	2.832400E+01	  0.088537075	2.884800E+01
344	  0.088737473	-7.300000E+00	  0.088737473	1.059960E+02	  0.088737473	2.857600E+01	  0.088737473	2.912700E+01
345	  0.088937871	-7.324000E+00	  0.088937871	1.052780E+02	  0.088937871	2.885500E+01	  0.088937871	2.939800E+01
346	  0.089138277	-7.351000E+00	  0.089138277	1.046040E+02	  0.089138277	2.913600E+01	  0.089138277	2.964200E+01
347	  0.089338675	-7.380000E+00	  0.089338675	1.039280E+02	  0.089338675	2.942600E+01	  0.089338675	2.988200E+01
348	  0.089539073	-7.403000E+00	  0.089539073	1.032610E+02	  0.089539073	2.969800E+01	  0.089539073	3.013000E+01
349	  0.089739479	-7.434000E+00	  0.089739479	1.026170E+02	  0.089739479	2.999300E+01	  0.089739479	3.034900E+01
350	  0.089939877	-7.458000E+00	  0.089939877	1.020010E+02	  0.089939877	3.025900E+01	  0.089939877	3.056900E+01
351	  0.090140276	-7.486000E+00	  0.090140276	1.013350E+02	  0.090140276	3.055700E+01	  0.090140276	3.080200E+01
352	  0.090340681	-7.511000E+00	  0.090340681	1.006970E+02	  0.090340681	3.083900E+01	  0.090340681	3.102800E+01
353	  0.090541080	-7.543000E+00	  0.090541080	1.000570E+02	  0.090541080	3.114700E+01	  0.090541080	3.123800E+01
354	  0.090741485	-7.575000E+00	  0.090741485	9.947100E+01	  0.090741485	3.144000E+01	  0.090741485	3.142100E+01
355	  0.090941884	-7.600000E+00	  0.090941884	9.886700E+01	  0.090941884	3.172300E+01	  0.090941884	3.162600E+01
356	  0.091142282	-7.636000E+00	  0.091142282	9.825400E+01	  0.091142282	3.204300E+01	  0.091142282	3.180800E+01
357	  0.091342688	-7.668000E+00	  0.091342688	9.766200E+01	  0.091342688	3.234600E+01	  0.091342688	3.198900E+01
358	  0.091543086	-7.702000E+00	  0.091543086	9.706000E+01	  0.091543086	3.266200E+01	  0.091543086	3.216700E+01
359	  0.091743484	-7.728000E+00	  0.091743484	9.647600E+01	  0.091743484	3.295200E+01	  0.091743484	3.235400E+01
360	  0.091943890	-7.764000E+00	  0.091943890	9.589000E+01	  0.091943890	3.327300E+01	  0.091943890	3.251700E+01
361	  0.092144288	-7.789000E+00	  0.092144288	9.527900E+01	  0.092144288	3.357700E+01	  0.092144288	3.271500E+01
362	  0.092344686	-7.826000E+00	  0.092344686	9.470300E+01	  0.092344686	3.390100E+01	  0.092344686	3.286700E+01
363	  0.092545092	-7.859000E+00	  0.092545092	9.413600E+01	  0.092545092	3.421600E+01	  0.092545092	3.302100E+01
364	  0.092745490	-7.891000E+00	  0.092745490	9.356500E+01	  0.092745490	3.453200E+01	  0.092745490	3.317800E+01
365	  0.092945889	-7.927000E+00	  0.092945889	9.300100E+01	  0.092945889	3.485800E+01	  0.092945889	3.331900E+01
366	  0.093146294	-7.963000E+00	  0.093146294	9.244200E+01	  0.093146294	3.518600E+01	  0.093146294	3.345400E+01
367	  0.093346693	-7.996000E+00	  0.093346693	9.186900E+01	  0.093346693	3.551300E+01	  0.093346693	3.360200E+01
368	  0.093547091	-8.029000E+00	  0.093547091	9.133800E+01	  0.093547091	3.582500E+01	  0.093547091	3.373000E+01
369	  0.093747497	-8.057000E+00	  0.093747497	9.076500E+01	  0.093747497	3.614400E+01	  0.093747497	3.388600E+01
370	  0.093947895	-8.089000E+00	  0.093947895	9.020100E+01	  0.093947895	3.647300E+01	  0.093947895	3.402500E+01
371	  0.094148301	-8.124000E+00	  0.094148301	8.967700E+01	  0.094148301	3.679500E+01	  0.094148301	3.413600E+01
372	  0.094348699	-8.156000E+00	  0.094348699	8.914000E+01	  0.094348699	3.711500E+01	  0.094348699	3.426000E+01
373	  0.094549097	-8.188000E+00	  0.094549097	8.859300E+01	  0.094549097	3.744600E+01	  0.094549097	3.438300E+01
374	  0.094749503	-8.219000E+00	  0.094749503	8.807500E+01	  0.094749503	3.776100E+01	  0.094749503	3.449500E+01
375	  0.094949901	-8.248000E+00	  0.094949901	8.755500E+01	  0.094949901	3.807500E+01	  0.094949901	3.461200E+01
376	  0.095150299	-8.275000E+00	  0.095150299	8.701700E+01	  0.095150299	3.839300E+01	  0.095150299	3.474100E+01
377	  0.095350705	-8.304000E+00	  0.095350705	8.652300E+01	  0.095350705	3.869700E+01	  0.095350705	3.484400E+01
378	  0.095551103	-8.331000E+00	  0.095551103	8.602300E+01	  0.095551103	3.900400E+01	  0.095551103	3.495200E+01
379	  0.095751502	-8.357000E+00	  0.095751502	8.551800E+01	  0.095751502	3.931000E+01	  0.095751502	3.506400E+01
380	  0.095951907	-8.383000E+00	  0.095951907	8.501400E+01	  0.095951907	3.961900E+01	  0.095951907	3.517300E+01
381	  0.096152306	-8.411000E+00	  0.096152306	8.454500E+01	  0.096152306	3.991900E+01	  0.096152306	3.525700E+01
382	  0.096352704	-8.436000E+00	  0.096352704	8.408100E+01	  0.096352704	4.021000E+01	  0.096352704	3.534900E+01
383	  0.096553110	-8.462000E+00	  0.096553110	8.362400E+01	  0.096553110	4.050100E+01	  0.096553110	3.543400E+01
384	  0.096753508	-8.482000E+00	  0.096753508	8.318900E+01	  0.096753508	4.076700E+01	  0.096753508	3.552800E+01
385	  0.096953906	-8.504000E+00	  0.096953906	8.273500E+01	  0.096953906	4.105200E+01	  0.096953906	3.561900E+01
386	  0.097154312	-8.529000E+00	  0.097154312	8.231000E+01	  0.097154312	4.132900E+01	  0.097154312	3.569000E+01
387	  0.097354710	-8.551000E+00	  0.097354710	8.187100E+01	  0.097354710	4.160900E+01	  0.097354710	3.577100E+01
388	  0.097555116	-8.575000E+00	  0.097555116	8.148300E+01	  0.097555116	4.186600E+01	  0.097555116	3.582800E+01
389	  0.097755514	-8.597000E+00	  0.097755514	8.105600E+01	  0.097755514	4.214300E+01	  0.097755514	3.590100E+01
390	  0.097955912	-8.620000E+00	  0.097955912	8.062000E+01	  0.097955912	4.242600E+01	  0.097955912	3.597400E+01
391	  0.098156318	-8.641000E+00	  0.098156318	8.026100E+01	  0.098156318	4.266700E+01	  0.098156318	3.602400E+01
392	  0.098356716	-8.661000E+00	  0.098356716	7.983600E+01	  0.098356716	4.294200E+01	  0.098356716	3.609800E+01
393	  0.098557115	-8.684000E+00	  0.098557115	7.946200E+01	  0.098557115	4.319500E+01	  0.098557115	3.614600E+01
394	  0.098757520	-8.703000E+00	  0.098757520	7.905700E+01	  0.098757520	4.345900E+01	  0.098757520	3.621300E+01
395	  0.098957919	-8.721000E+00	  0.098957919	7.866000E+01	  0.098957919	4.371900E+01	  0.098957919	3.627800E+01
396	  0.099158317	-8.736000E+00	  0.099158317	7.823200E+01	  0.099158317	4.399000E+01	  0.099158317	3.636400E+01
397	  0.099358723	-8.749000E+00	  0.099358723	7.783500E+01	  0.099358723	4.424000E+01	  0.099358723	3.644800E+01
398	  0.099559121	-8.775000E+00	  0.099559121	7.748400E+01	  0.099559121	4.449400E+01	  0.099559121	3.646500E+01
399	  0.099759519	-8.786000E+00	  0.099759519	7.707600E+01	  0.099759519	4.475000E+01	  0.099759519	3.655300E+01
400	  0.099959925	-8.794000E+00	  0.099959925	7.669700E+01	  0.099959925	4.498400E+01	  0.099959925	3.664400E+01
401	  0.100160323	-8.813000E+00	  0.100160323	7.629100E+01	  0.100160323	4.525600E+01	  0.100160323	3.670200E+01
402	  0.100360721	-8.831000E+00	  0.100360721	7.586000E+01	  0.100360721	4.554400E+01	  0.100360721	3.676800E+01
403	  0.100561127	-8.835000E+00	  0.100561127	7.547900E+01	  0.100561127	4.577800E+01	  0.100561127	3.686700E+01
404	  0.100761525	-8.842000E+00	  0.100761525	7.511600E+01	  0.100761525	4.600600E+01	  0.100761525	3.695200E+01
405	  0.100961931	-8.853000E+00	  0.100961931	7.475100E+01	  0.100961931	4.624600E+01	  0.100961931	3.701900E+01
406	  0.101162329	-8.861000E+00	  0.101162329	7.430500E+01	  0.101162329	4.652900E+01	  0.101162329	3.712300E+01
407	  0.101362728	-8.875000E+00	  0.101362728	7.389900E+01	  0.101362728	4.680100E+01	  0.101362728	3.718900E+01
408	  0.101563133	-8.875000E+00	  0.101563133	7.352600E+01	  0.101563133	4.702900E+01	  0.101563133	3.729900E+01
409	  0.101763532	-8.878000E+00	  0.101763532	7.318400E+01	  0.101763532	4.724500E+01	  0.101763532	3.738600E+01
410	  0.101963930	-8.883000E+00	  0.101963930	7.274200E+01	  0.101963930	4.752900E+01	  0.101963930	3.749100E+01
411	  0.102164328	-8.886000E+00	  0.102164328	7.234400E+01	  0.102164328	4.778400E+01	  0.102164328	3.759200E+01
412	  0.102364726	-8.880000E+00	  0.102364726	7.191600E+01	  0.102364726	4.804200E+01	  0.102364726	3.773800E+01
413	  0.102565125	-8.881000E+00	  0.102565125	7.157100E+01	  0.102565125	4.826100E+01	  0.102565125	3.783400E+01
414	  0.102765530	-8.886000E+00	  0.102765530	7.110900E+01	  0.102765530	4.856700E+01	  0.102765530	3.794000E+01
415	  0.102965929	-8.874000E+00	  0.102965929	7.073200E+01	  0.102965929	4.878800E+01	  0.102965929	3.809500E+01
416	  0.103166327	-8.868000E+00	  0.103166327	7.031500E+01	  0.103166327	4.905100E+01	  0.103166327	3.823200E+01
417	  0.103366733	-8.860000E+00	  0.103366733	6.993400E+01	  0.103366733	4.928600E+01	  0.103366733	3.837200E+01
418	  0.103567131	-8.867000E+00	  0.103567131	6.950000E+01	  0.103567131	4.958600E+01	  0.103567131	3.845800E+01
419	  0.103767529	-8.857000E+00	  0.103767529	6.905900E+01	  0.103767529	4.986400E+01	  0.103767529	3.861600E+01
420	  0.103967935	-8.863000E+00	  0.103967935	6.868700E+01	  0.103967935	5.012500E+01	  0.103967935	3.868900E+01
421	  0.104168333	-8.845000E+00	  0.104168333	6.823400E+01	  0.104168333	5.040200E+01	  0.104168333	3.888700E+01
422	  0.104368731	-8.838000E+00	  0.104368731	6.779200E+01	  0.104368731	5.069500E+01	  0.104368731	3.903100E+01
423	  0.104569137	-8.830000E+00	  0.104569137	6.740300E+01	  0.104569137	5.095100E+01	  0.104569137	3.916300E+01
424	  0.104769535	-8.829000E+00	  0.104769535	6.690900E+01	  0.104769535	5.129600E+01	  0.104769535	3.929200E+01
425	  0.104969934	-8.820000E+00	  0.104969934	6.642200E+01	  0.104969934	5.162600E+01	  0.104969934	3.945200E+01
426	  0.105170339	-8.806000E+00	  0.105170339	6.600000E+01	  0.105170339	5.190400E+01	  0.105170339	3.962200E+01
427	  0.105370738	-8.799000E+00	  0.105370738	6.556900E+01	  0.105370738	5.220400E+01	  0.105370738	3.975900E+01
428	  0.105571143	-8.787000E+00	  0.105571143	6.508400E+01	  0.105571143	5.253900E+01	  0.105571143	3.993000E+01
429	  0.105771542	-8.781000E+00	  0.105771542	6.457900E+01	  0.105771542	5.290200E+01	  0.105771542	4.007400E+01
430	  0.105971940	-8.766000E+00	  0.105971940	6.409600E+01	  0.105971940	5.323900E+01	  0.105971940	4.025800E+01
431	  0.106172346	-8.760000E+00	  0.106172346	6.358900E+01	  0.106172346	5.361100E+01	  0.106172346	4.040200E+01
432	  0.106372744	-8.751000E+00	  0.106372744	6.310100E+01	  0.106372744	5.397000E+01	  0.106372744	4.055100E+01
433	  0.106573142	-8.747000E+00	  0.106573142	6.257300E+01	  0.106573142	5.436900E+01	  0.106573142	4.068400E+01
434	  0.106773548	-8.735000E+00	  0.106773548	6.206200E+01	  0.106773548	5.475000E+01	  0.106773548	4.085000E+01
435	  0.106973946	-8.729000E+00	  0.106973946	6.152500E+01	  0.106973946	5.516300E+01	  0.106973946	4.098900E+01
436	  0.107174344	-8.713000E+00	  0.107174344	6.100300E+01	  0.107174344	5.555700E+01	  0.107174344	4.117600E+01
437	  0.107374750	-8.709000E+00	  0.107374750	6.044600E+01	  0.107374750	5.600000E+01	  0.107374750	4.130100E+01
438	  0.107575148	-8.693000E+00	  0.107575148	5.990500E+01	  0.107575148	5.641900E+01	  0.107575148	4.148800E+01
439	  0.107775547	-8.687000E+00	  0.107775547	5.937400E+01	  0.107775547	5.684800E+01	  0.107775547	4.161700E+01
440	  0.107975952	-8.669000E+00	  0.107975952	5.881500E+01	  0.107975952	5.729200E+01	  0.107975952	4.181300E+01
441	  0.108176351	-8.665000E+00	  0.108176351	5.828600E+01	  0.108176351	5.773200E+01	  0.108176351	4.192100E+01
442	  0.108376749	-8.656000E+00	  0.108376749	5.774300E+01	  0.108376749	5.818500E+01	  0.108376749	4.205400E+01
443	  0.108577155	-8.647000E+00	  0.108577155	5.715800E+01	  0.108577155	5.867800E+01	  0.108577155	4.219400E+01
444	  0.108777553	-8.639000E+00	  0.108777553	5.668000E+01	  0.108777553	5.908700E+01	  0.108777553	4.230600E+01
445	  0.108977959	-8.624000E+00	  0.108977959	5.610100E+01	  0.108977959	5.958000E+01	  0.108977959	4.247600E+01
446	  0.109178357	-8.623000E+00	  0.109178357	5.553800E+01	  0.109178357	6.008000E+01	  0.109178357	4.255100E+01
447	  0.109378755	-8.611000E+00	  0.109378755	5.494900E+01	  0.109378755	6.059900E+01	  0.109378755	4.269400E+01
448	  0.109579161	-8.595000E+00	  0.109579161	5.442800E+01	  0.109579161	6.106000E+01	  0.109579161	4.284500E+01
449	  0.109779559	-8.588000E+00	  0.109779559	5.385000E+01	  0.109779559	6.158700E+01	  0.109779559	4.294700E+01
450	  0.109979957	-8.578000E+00	  0.109979957	5.328900E+01	  0.109979957	6.210200E+01	  0.109979957	4.305900E+01
451	  0.110180363	-8.568000E+00	  0.110180363	5.266700E+01	  0.110180363	6.268100E+01	  0.110180363	4.317000E+01
452	  0.110380761	-8.557000E+00	  0.110380761	5.201400E+01	  0.110380761	6.329600E+01	  0.110380761	4.328600E+01
453	  0.110581160	-8.552000E+00	  0.110581160	5.146500E+01	  0.110581160	6.382100E+01	  0.110581160	4.334900E+01
454	  0.110781565	-8.542000E+00	  0.110781565	5.086500E+01	  0.110781565	6.440200E+01	  0.110781565	4.344200E+01
455	  0.110981964	-8.540000E+00	  0.110981964	5.025800E+01	  0.110981964	6.499700E+01	  0.110981964	4.347300E+01
456	  0.111182362	-8.533000E+00	  0.111182362	4.959900E+01	  0.111182362	6.565000E+01	  0.111182362	4.353400E+01
457	  0.111382768	-8.518000E+00	  0.111382768	4.896900E+01	  0.111382768	6.628100E+01	  0.111382768	4.364100E+01
458	  0.111583166	-8.514000E+00	  0.111583166	4.834200E+01	  0.111583166	6.691800E+01	  0.111583166	4.366400E+01
459	  0.111783572	-8.505000E+00	  0.111783572	4.766400E+01	  0.111783572	6.761400E+01	  0.111783572	4.371100E+01
460	  0.111983970	-8.494000E+00	  0.111983970	4.698800E+01	  0.111983970	6.831800E+01	  0.111983970	4.376500E+01
461	  0.112184368	-8.491000E+00	  0.112184368	4.630500E+01	  0.112184368	6.903500E+01	  0.112184368	4.374800E+01
462	  0.112384774	-8.484000E+00	  0.112384774	4.558100E+01	  0.112384774	6.980700E+01	  0.112384774	4.374600E+01
463	  0.112585172	-8.476000E+00	  0.112585172	4.486700E+01	  0.112585172	7.057600E+01	  0.112585172	4.373500E+01
464	  0.112785570	-8.474000E+00	  0.112785570	4.412500E+01	  0.112785570	7.138100E+01	  0.112785570	4.367200E+01
465	  0.112985976	-8.462000E+00	  0.112985976	4.339400E+01	  0.112985976	7.219100E+01	  0.112985976	4.366000E+01
466	  0.113186374	-8.465000E+00	  0.113186374	4.262600E+01	  0.113186374	7.303700E+01	  0.113186374	4.352600E+01
467	  0.113386773	-8.461000E+00	  0.113386773	4.188900E+01	  0.113386773	7.386300E+01	  0.113386773	4.342300E+01
468	  0.113587178	-8.457000E+00	  0.113587178	4.107300E+01	  0.113587178	7.478700E+01	  0.113587178	4.329400E+01
469	  0.113787577	-8.452000E+00	  0.113787577	4.028800E+01	  0.113787577	7.568500E+01	  0.113787577	4.315300E+01
470	  0.113987975	-8.448000E+00	  0.113987975	3.945200E+01	  0.113987975	7.664900E+01	  0.113987975	4.297200E+01
471	  0.114188381	-8.450000E+00	  0.114188381	3.863700E+01	  0.114188381	7.758500E+01	  0.114188381	4.272900E+01
472	  0.114388779	-8.450000E+00	  0.114388779	3.784800E+01	  0.114388779	7.850100E+01	  0.114388779	4.248100E+01
473	  0.114589177	-8.446000E+00	  0.114589177	3.699800E+01	  0.114589177	7.950200E+01	  0.114589177	4.222000E+01
474	  0.114789583	-8.450000E+00	  0.114789583	3.615300E+01	  0.114789583	8.048400E+01	  0.114789583	4.187600E+01
475	  0.114989981	-8.456000E+00	  0.114989981	3.529500E+01	  0.114989981	8.148100E+01	  0.114989981	4.148800E+01
476	  0.115190387	-8.461000E+00	  0.115190387	3.441400E+01	  0.115190387	8.250500E+01	  0.115190387	4.105700E+01
477	  0.115390785	-8.468000E+00	  0.115390785	3.354000E+01	  0.115390785	8.351700E+01	  0.115390785	4.058400E+01
478	  0.115591183	-8.466000E+00	  0.115591183	3.267900E+01	  0.115591183	8.454600E+01	  0.115591183	4.016500E+01
479	  0.115791589	-8.480000E+00	  0.115791589	3.178600E+01	  0.115791589	8.555200E+01	  0.115791589	3.956500E+01
480	  0.115991987	-8.486000E+00	  0.115991987	3.087300E+01	  0.115991987	8.660500E+01	  0.115991987	3.898100E+01
481	  0.116192386	-8.501000E+00	  0.116192386	2.996700E+01	  0.116192386	8.760900E+01	  0.116192386	3.829900E+01
482	  0.116392791	-8.518000E+00	  0.116392791	2.906100E+01	  0.116392791	8.859100E+01	  0.116392791	3.756100E+01
483	  0.116593190	-8.529000E+00	  0.116593190	2.811900E+01	  0.116593190	8.962800E+01	  0.116593190	3.680900E+01
484	  0.116793588	-8.553000E+00	  0.116793588	2.714400E+01	  0.116793588	9.062300E+01	  0.116793588	3.589400E+01
485	  0.116993994	-8.573000E+00	  0.116993994	2.619000E+01	  0.116993994	9.159400E+01	  0.116993994	3.498900E+01
486	  0.117194392	-8.599000E+00	  0.117194392	2.522200E+01	  0.117194392	9.252500E+01	  0.117194392	3.399200E+01
487	  0.117394790	-8.630000E+00	  0.117394790	2.420400E+01	  0.117394790	9.344800E+01	  0.117394790	3.287300E+01
488	  0.117595196	-8.659000E+00	  0.117595196	2.322200E+01	  0.117595196	9.431500E+01	  0.117595196	3.177100E+01
489	  0.117795594	-8.695000E+00	  0.117795594	2.223200E+01	  0.117795594	9.511000E+01	  0.117795594	3.057900E+01
490	  0.117995992	-8.728000E+00	  0.117995992	2.117700E+01	  0.117995992	9.594000E+01	  0.117995992	2.930100E+01
